# %ECSV 0.9
# ---
# datatype:
# - {name: wavelength, unit: Angstrom, datatype: float32}
# - {name: response, datatype: float32}
# meta: !!omap
# - {band_name: Kprime}
# - {group_name: NICS}
wavelength response
16992.00000 0.0
18880.00000 0.0041
18890.00000 0.0043
18900.00000 0.0045
18910.00000 0.0047
18920.00000 0.005
18930.00000 0.0053
18940.00000 0.0055
18950.00000 0.0058
18960.00000 0.0061
18970.00000 0.0065
18980.00000 0.0069
18990.00000 0.0076
19000.00000 0.0082
19010.00000 0.0087
19020.00000 0.0089
19030.00000 0.0092
19040.00000 0.0097
19050.00000 0.0103
19060.00000 0.0111
19070.00000 0.0121
19080.00000 0.0133
19090.00000 0.0144
19100.00000 0.0155
19110.00000 0.0164
19120.00000 0.0174
19130.00000 0.0185
19140.00000 0.0196
19150.00000 0.0209
19160.00000 0.0222
19170.00000 0.0236
19180.00000 0.0253
19190.00000 0.0272
19200.00000 0.0292
19210.00000 0.0315
19220.00000 0.0339
19230.00000 0.0366
19240.00000 0.0396
19250.00000 0.043
19260.00000 0.0468
19270.00000 0.0509
19280.00000 0.0553
19290.00000 0.0606
19300.00000 0.0669
19310.00000 0.0742
19320.00000 0.0821
19330.00000 0.0907
19340.00000 0.1005
19350.00000 0.1115
19360.00000 0.1241
19370.00000 0.1381
19380.00000 0.1539
19390.00000 0.1713
19400.00000 0.1908
19410.00000 0.2124
19420.00000 0.2364
19430.00000 0.2627
19440.00000 0.2912
19450.00000 0.3219
19460.00000 0.3546
19470.00000 0.3892
19480.00000 0.4259
19490.00000 0.4635
19500.00000 0.5019
19510.00000 0.5406
19520.00000 0.5788
19530.00000 0.6161
19540.00000 0.6523
19550.00000 0.6868
19560.00000 0.7188
19570.00000 0.7483
19580.00000 0.7751
19590.00000 0.7992
19600.00000 0.8203
19610.00000 0.8386
19620.00000 0.8545
19630.00000 0.8681
19640.00000 0.8795
19650.00000 0.8889
19660.00000 0.8965
19670.00000 0.9029
19680.00000 0.9082
19690.00000 0.9127
19700.00000 0.9162
19710.00000 0.9191
19720.00000 0.9217
19730.00000 0.9239
19740.00000 0.9259
19750.00000 0.9274
19760.00000 0.9288
19770.00000 0.9302
19780.00000 0.9315
19790.00000 0.9328
19800.00000 0.9337
19810.00000 0.9345
19820.00000 0.9353
19830.00000 0.936
19840.00000 0.9367
19850.00000 0.9372
19860.00000 0.9375
19870.00000 0.9378
19880.00000 0.938
19890.00000 0.9382
19900.00000 0.9382
19910.00000 0.9381
19920.00000 0.938
19930.00000 0.9377
19940.00000 0.9373
19950.00000 0.9368
19960.00000 0.936
19970.00000 0.9353
19980.00000 0.9345
19990.00000 0.9337
20000.00000 0.9328
20010.00000 0.9318
20020.00000 0.9306
20030.00000 0.9293
20040.00000 0.9283
20050.00000 0.9271
20060.00000 0.9261
20070.00000 0.9249
20080.00000 0.9237
20090.00000 0.9227
20100.00000 0.9215
20110.00000 0.9202
20120.00000 0.9188
20130.00000 0.9178
20140.00000 0.9169
20150.00000 0.9159
20160.00000 0.9149
20170.00000 0.9138
20180.00000 0.9128
20190.00000 0.9119
20200.00000 0.9111
20210.00000 0.9101
20220.00000 0.9093
20230.00000 0.9085
20240.00000 0.9078
20250.00000 0.9074
20260.00000 0.9068
20270.00000 0.9062
20280.00000 0.9058
20290.00000 0.9053
20300.00000 0.9049
20310.00000 0.9046
20320.00000 0.9043
20330.00000 0.9042
20340.00000 0.9041
20350.00000 0.9038
20360.00000 0.9036
20370.00000 0.9035
20380.00000 0.9034
20390.00000 0.9036
20400.00000 0.9036
20410.00000 0.9036
20420.00000 0.9038
20430.00000 0.9038
20440.00000 0.9039
20450.00000 0.9042
20460.00000 0.9045
20470.00000 0.9048
20480.00000 0.9051
20490.00000 0.9051
20500.00000 0.9052
20510.00000 0.9056
20520.00000 0.9061
20530.00000 0.9066
20540.00000 0.907
20550.00000 0.9074
20560.00000 0.9079
20570.00000 0.9084
20580.00000 0.9089
20590.00000 0.9092
20600.00000 0.9094
20610.00000 0.9097
20620.00000 0.91
20630.00000 0.9105
20640.00000 0.9107
20650.00000 0.9108
20660.00000 0.911
20670.00000 0.9111
20680.00000 0.9112
20690.00000 0.9112
20700.00000 0.9114
20710.00000 0.9117
20720.00000 0.9119
20730.00000 0.9119
20740.00000 0.912
20750.00000 0.9124
20760.00000 0.9128
20770.00000 0.913
20780.00000 0.913
20790.00000 0.9128
20800.00000 0.9129
20810.00000 0.913
20820.00000 0.913
20830.00000 0.9126
20840.00000 0.9118
20850.00000 0.9112
20860.00000 0.9106
20870.00000 0.9105
20880.00000 0.9108
20890.00000 0.9116
20900.00000 0.9122
20910.00000 0.9123
20920.00000 0.9118
20930.00000 0.9112
20940.00000 0.9107
20950.00000 0.9105
20960.00000 0.9104
20970.00000 0.9102
20980.00000 0.91
20990.00000 0.9098
21000.00000 0.9094
21010.00000 0.9091
21020.00000 0.9087
21030.00000 0.9082
21040.00000 0.9076
21050.00000 0.9069
21060.00000 0.9065
21070.00000 0.906
21080.00000 0.9056
21090.00000 0.9051
21100.00000 0.9045
21110.00000 0.9041
21120.00000 0.9037
21130.00000 0.9032
21140.00000 0.9026
21150.00000 0.9021
21160.00000 0.9017
21170.00000 0.9008
21180.00000 0.8996
21190.00000 0.8988
21200.00000 0.8982
21210.00000 0.8982
21220.00000 0.8979
21230.00000 0.8973
21240.00000 0.897
21250.00000 0.8962
21260.00000 0.8955
21270.00000 0.8951
21280.00000 0.8946
21290.00000 0.8941
21300.00000 0.8934
21310.00000 0.8931
21320.00000 0.893
21330.00000 0.8929
21340.00000 0.8923
21350.00000 0.8917
21360.00000 0.8914
21370.00000 0.8912
21380.00000 0.8912
21390.00000 0.8913
21400.00000 0.8915
21410.00000 0.8917
21420.00000 0.8916
21430.00000 0.8914
21440.00000 0.8913
21450.00000 0.8916
21460.00000 0.8918
21470.00000 0.892
21480.00000 0.8924
21490.00000 0.8924
21500.00000 0.8925
21510.00000 0.8927
21520.00000 0.8931
21530.00000 0.8936
21540.00000 0.894
21550.00000 0.8943
21560.00000 0.8945
21570.00000 0.895
21580.00000 0.8953
21590.00000 0.8957
21600.00000 0.896
21610.00000 0.8963
21620.00000 0.8965
21630.00000 0.8967
21640.00000 0.8969
21650.00000 0.8974
21660.00000 0.898
21670.00000 0.8987
21680.00000 0.8992
21690.00000 0.8997
21700.00000 0.8999
21710.00000 0.9001
21720.00000 0.9003
21730.00000 0.9007
21740.00000 0.901
21750.00000 0.9015
21760.00000 0.9016
21770.00000 0.9017
21780.00000 0.9015
21790.00000 0.9015
21800.00000 0.9014
21810.00000 0.9011
21820.00000 0.9006
21830.00000 0.9004
21840.00000 0.9002
21850.00000 0.8998
21860.00000 0.899
21870.00000 0.8982
21880.00000 0.8976
21890.00000 0.8966
21900.00000 0.8953
21910.00000 0.8939
21920.00000 0.8923
21930.00000 0.8908
21940.00000 0.8889
21950.00000 0.8871
21960.00000 0.885
21970.00000 0.8827
21980.00000 0.8804
21990.00000 0.878
22000.00000 0.8757
22010.00000 0.8735
22020.00000 0.8714
22030.00000 0.869
22040.00000 0.8665
22050.00000 0.8639
22060.00000 0.8617
22070.00000 0.8596
22080.00000 0.8576
22090.00000 0.8557
22100.00000 0.8541
22110.00000 0.8527
22120.00000 0.8515
22130.00000 0.85
22140.00000 0.8485
22150.00000 0.847
22160.00000 0.8456
22170.00000 0.8444
22180.00000 0.8435
22190.00000 0.843
22200.00000 0.8428
22210.00000 0.8428
22220.00000 0.8426
22230.00000 0.8423
22240.00000 0.8419
22250.00000 0.8419
22260.00000 0.8421
22270.00000 0.8423
22280.00000 0.8426
22290.00000 0.8429
22300.00000 0.8434
22310.00000 0.8439
22320.00000 0.8446
22330.00000 0.8455
22340.00000 0.8463
22350.00000 0.8472
22360.00000 0.8482
22370.00000 0.8496
22380.00000 0.851
22390.00000 0.8521
22400.00000 0.8534
22410.00000 0.8548
22420.00000 0.8564
22430.00000 0.8578
22440.00000 0.8591
22450.00000 0.8606
22460.00000 0.8621
22470.00000 0.8632
22480.00000 0.8642
22490.00000 0.8655
22500.00000 0.8667
22510.00000 0.8674
22520.00000 0.8682
22530.00000 0.8692
22540.00000 0.8702
22550.00000 0.8711
22560.00000 0.8714
22570.00000 0.8712
22580.00000 0.8705
22590.00000 0.87
22600.00000 0.8695
22610.00000 0.869
22620.00000 0.8683
22630.00000 0.8671
22640.00000 0.8659
22650.00000 0.865
22660.00000 0.8637
22670.00000 0.8629
22680.00000 0.8616
22690.00000 0.8609
22700.00000 0.8601
22710.00000 0.859
22720.00000 0.8576
22730.00000 0.8558
22740.00000 0.854
22750.00000 0.8515
22760.00000 0.8488
22770.00000 0.8453
22780.00000 0.841
22790.00000 0.8355
22800.00000 0.8283
22810.00000 0.8194
22820.00000 0.8086
22830.00000 0.7952
22840.00000 0.7789
22850.00000 0.76
22860.00000 0.7385
22870.00000 0.7141
22880.00000 0.6865
22890.00000 0.6567
22900.00000 0.6249
22910.00000 0.5907
22920.00000 0.5551
22930.00000 0.5187
22940.00000 0.4819
22950.00000 0.4452
22960.00000 0.4094
22970.00000 0.3746
22980.00000 0.3412
22990.00000 0.3098
23000.00000 0.2809
23010.00000 0.2541
23020.00000 0.2292
23030.00000 0.2063
23040.00000 0.1858
23050.00000 0.1674
23060.00000 0.1507
23070.00000 0.1359
23080.00000 0.1226
23090.00000 0.1108
23100.00000 0.1002
23110.00000 0.0904
23120.00000 0.0821
23130.00000 0.0746
23140.00000 0.0683
23150.00000 0.0626
23160.00000 0.0574
23170.00000 0.0526
23180.00000 0.0483
23190.00000 0.0445
23200.00000 0.0413
23210.00000 0.0382
23220.00000 0.0353
23230.00000 0.0327
23240.00000 0.0306
23250.00000 0.0289
23260.00000 0.0272
23270.00000 0.0253
23280.00000 0.0238
23290.00000 0.0226
23300.00000 0.0216
23310.00000 0.0206
23320.00000 0.0196
23330.00000 0.0187
23340.00000 0.0181
23350.00000 0.0173
23360.00000 0.0164
23370.00000 0.0156
23380.00000 0.015
23390.00000 0.0145
23400.00000 0.0139
23410.00000 0.0133
23420.00000 0.0127
23430.00000 0.0123
23440.00000 0.0118
23450.00000 0.0113
23460.00000 0.0108
23470.00000 0.0106
23480.00000 0.0105
23490.00000 0.0103
23500.00000 0.0099
23510.00000 0.0094
23520.00000 0.0092
23530.00000 0.0091
23540.00000 0.0089
23550.00000 0.0086
23560.00000 0.0083
23570.00000 0.0082
23580.00000 0.0078
23590.00000 0.0074
23600.00000 0.0072
23610.00000 0.0073
23620.00000 0.0069
23630.00000 0.0064
23640.00000 0.006
23650.00000 0.006
23660.00000 0.0064
23670.00000 0.0064
23680.00000 0.0061
23690.00000 0.0059
23700.00000 0.0058
23710.00000 0.0058
23720.00000 0.0056
23730.00000 0.0054
23740.00000 0.0052
23750.00000 0.0051
23760.00000 0.0051
23770.00000 0.0049
23780.00000 0.0047
23790.00000 0.0045
23800.00000 0.0045
23810.00000 0.0045
23820.00000 0.0043
23830.00000 0.004
26213.00000 0.0
