# %ECSV 0.9
# ---
# datatype:
# - {name: wavelength, unit: Angstrom, datatype: float32}
# - {name: response, datatype: float32}
# meta: !!omap
# - {band_name: K}
# - {group_name: NICS}
wavelength response
17811.00000 0.0
19790.00000 0.004
19800.00000 0.0043
19810.00000 0.0046
19820.00000 0.0049
19830.00000 0.0054
19840.00000 0.0058
19850.00000 0.0062
19860.00000 0.0067
19870.00000 0.0072
19880.00000 0.0078
19890.00000 0.0084
19900.00000 0.009
19910.00000 0.0097
19920.00000 0.0105
19930.00000 0.0114
19940.00000 0.0123
19950.00000 0.0132
19960.00000 0.0143
19970.00000 0.0154
19980.00000 0.0167
19990.00000 0.018
20000.00000 0.0195
20010.00000 0.0211
20020.00000 0.0229
20030.00000 0.0248
20040.00000 0.0269
20050.00000 0.0291
20060.00000 0.0317
20070.00000 0.0345
20080.00000 0.0375
20090.00000 0.0409
20100.00000 0.0446
20110.00000 0.0487
20120.00000 0.0532
20130.00000 0.0583
20140.00000 0.0641
20150.00000 0.0703
20160.00000 0.0772
20170.00000 0.0847
20180.00000 0.093
20190.00000 0.1024
20200.00000 0.1128
20210.00000 0.1243
20220.00000 0.1371
20230.00000 0.151
20240.00000 0.1664
20250.00000 0.1833
20260.00000 0.2019
20270.00000 0.2219
20280.00000 0.2436
20290.00000 0.2671
20300.00000 0.2925
20310.00000 0.3194
20320.00000 0.3477
20330.00000 0.3774
20340.00000 0.4084
20350.00000 0.4404
20360.00000 0.4728
20370.00000 0.5055
20380.00000 0.5384
20390.00000 0.571
20400.00000 0.6029
20410.00000 0.6332
20420.00000 0.6625
20430.00000 0.6902
20440.00000 0.7161
20450.00000 0.74
20460.00000 0.762
20470.00000 0.7818
20480.00000 0.7995
20490.00000 0.8151
20500.00000 0.8289
20510.00000 0.8408
20520.00000 0.8512
20530.00000 0.86
20540.00000 0.867
20550.00000 0.8725
20560.00000 0.8771
20570.00000 0.8808
20580.00000 0.8839
20590.00000 0.886
20600.00000 0.8871
20610.00000 0.8875
20620.00000 0.8871
20630.00000 0.8863
20640.00000 0.8851
20650.00000 0.8837
20660.00000 0.8823
20670.00000 0.8805
20680.00000 0.8781
20690.00000 0.8754
20700.00000 0.8729
20710.00000 0.8705
20720.00000 0.8681
20730.00000 0.8656
20740.00000 0.8629
20750.00000 0.8604
20760.00000 0.858
20770.00000 0.8555
20780.00000 0.8532
20790.00000 0.8511
20800.00000 0.8492
20810.00000 0.8477
20820.00000 0.8462
20830.00000 0.8445
20840.00000 0.8426
20850.00000 0.8409
20860.00000 0.8395
20870.00000 0.839
20880.00000 0.8392
20890.00000 0.84
20900.00000 0.8407
20910.00000 0.8413
20920.00000 0.842
20930.00000 0.8426
20940.00000 0.8436
20950.00000 0.8448
20960.00000 0.846
20970.00000 0.8475
20980.00000 0.8491
20990.00000 0.851
21000.00000 0.8528
21010.00000 0.8544
21020.00000 0.856
21030.00000 0.8578
21040.00000 0.8596
21050.00000 0.8612
21060.00000 0.863
21070.00000 0.8649
21080.00000 0.8667
21090.00000 0.8685
21100.00000 0.8699
21110.00000 0.8714
21120.00000 0.8728
21130.00000 0.874
21140.00000 0.8749
21150.00000 0.8759
21160.00000 0.8771
21170.00000 0.8773
21180.00000 0.8771
21190.00000 0.8771
21200.00000 0.8773
21210.00000 0.8784
21220.00000 0.8787
21230.00000 0.8787
21240.00000 0.8782
21250.00000 0.8774
21260.00000 0.8767
21270.00000 0.8762
21280.00000 0.8756
21290.00000 0.8745
21300.00000 0.8737
21310.00000 0.8729
21320.00000 0.8721
21330.00000 0.8707
21340.00000 0.8692
21350.00000 0.8679
21360.00000 0.8668
21370.00000 0.8659
21380.00000 0.8649
21390.00000 0.8641
21400.00000 0.8632
21410.00000 0.8622
21420.00000 0.8614
21430.00000 0.8606
21440.00000 0.86
21450.00000 0.8594
21460.00000 0.8589
21470.00000 0.8587
21480.00000 0.8586
21490.00000 0.8582
21500.00000 0.8581
21510.00000 0.858
21520.00000 0.8582
21530.00000 0.8587
21540.00000 0.8591
21550.00000 0.8595
21560.00000 0.8598
21570.00000 0.8603
21580.00000 0.8611
21590.00000 0.8618
21600.00000 0.8626
21610.00000 0.8634
21620.00000 0.8644
21630.00000 0.8656
21640.00000 0.8667
21650.00000 0.8681
21660.00000 0.8696
21670.00000 0.8713
21680.00000 0.8729
21690.00000 0.8742
21700.00000 0.8757
21710.00000 0.8772
21720.00000 0.8789
21730.00000 0.8805
21740.00000 0.8819
21750.00000 0.8835
21760.00000 0.8848
21770.00000 0.8861
21780.00000 0.8873
21790.00000 0.8886
21800.00000 0.8897
21810.00000 0.8905
21820.00000 0.8915
21830.00000 0.8927
21840.00000 0.8935
21850.00000 0.8942
21860.00000 0.8946
21870.00000 0.8951
21880.00000 0.8954
21890.00000 0.8954
21900.00000 0.8952
21910.00000 0.8952
21920.00000 0.895
21930.00000 0.8947
21940.00000 0.8941
21950.00000 0.8932
21960.00000 0.8923
21970.00000 0.8915
21980.00000 0.8906
21990.00000 0.8898
22000.00000 0.8887
22010.00000 0.8874
22020.00000 0.8862
22030.00000 0.8848
22040.00000 0.8837
22050.00000 0.8827
22060.00000 0.8817
22070.00000 0.8807
22080.00000 0.8797
22090.00000 0.8789
22100.00000 0.8784
22110.00000 0.8781
22120.00000 0.878
22130.00000 0.8776
22140.00000 0.8773
22150.00000 0.8769
22160.00000 0.8766
22170.00000 0.8765
22180.00000 0.8767
22190.00000 0.8771
22200.00000 0.8778
22210.00000 0.8785
22220.00000 0.8789
22230.00000 0.8792
22240.00000 0.8795
22250.00000 0.8803
22260.00000 0.881
22270.00000 0.8815
22280.00000 0.8822
22290.00000 0.8825
22300.00000 0.8828
22310.00000 0.8829
22320.00000 0.8833
22330.00000 0.8839
22340.00000 0.8844
22350.00000 0.8846
22360.00000 0.8849
22370.00000 0.8853
22380.00000 0.8855
22390.00000 0.8856
22400.00000 0.8857
22410.00000 0.886
22420.00000 0.8862
22430.00000 0.886
22440.00000 0.8857
22450.00000 0.8857
22460.00000 0.8857
22470.00000 0.8854
22480.00000 0.885
22490.00000 0.8848
22500.00000 0.8843
22510.00000 0.8838
22520.00000 0.8833
22530.00000 0.883
22540.00000 0.8827
22550.00000 0.8823
22560.00000 0.8817
22570.00000 0.8815
22580.00000 0.8805
22590.00000 0.8797
22600.00000 0.8789
22610.00000 0.8783
22620.00000 0.8778
22630.00000 0.8769
22640.00000 0.8759
22650.00000 0.8754
22660.00000 0.875
22670.00000 0.8748
22680.00000 0.8744
22690.00000 0.874
22700.00000 0.8736
22710.00000 0.8735
22720.00000 0.8738
22730.00000 0.8742
22740.00000 0.8744
22750.00000 0.8741
22760.00000 0.8742
22770.00000 0.8747
22780.00000 0.8753
22790.00000 0.8753
22800.00000 0.8755
22810.00000 0.8759
22820.00000 0.8763
22830.00000 0.8766
22840.00000 0.8764
22850.00000 0.8764
22860.00000 0.8761
22870.00000 0.8756
22880.00000 0.8752
22890.00000 0.8754
22900.00000 0.8758
22910.00000 0.8757
22920.00000 0.8753
22930.00000 0.8747
22940.00000 0.8744
22950.00000 0.8743
22960.00000 0.8735
22970.00000 0.8724
22980.00000 0.8715
22990.00000 0.8707
23000.00000 0.87
23010.00000 0.8691
23020.00000 0.8674
23030.00000 0.8659
23040.00000 0.8643
23050.00000 0.8631
23060.00000 0.8618
23070.00000 0.8603
23080.00000 0.8586
23090.00000 0.8575
23100.00000 0.8578
23110.00000 0.8573
23120.00000 0.8561
23130.00000 0.8541
23140.00000 0.8519
23150.00000 0.8503
23160.00000 0.8488
23170.00000 0.8474
23180.00000 0.8466
23190.00000 0.8458
23200.00000 0.8446
23210.00000 0.8433
23220.00000 0.8421
23230.00000 0.8417
23240.00000 0.8414
23250.00000 0.8405
23260.00000 0.8398
23270.00000 0.8394
23280.00000 0.8392
23290.00000 0.8401
23300.00000 0.8397
23310.00000 0.8404
23320.00000 0.8403
23330.00000 0.84
23340.00000 0.8399
23350.00000 0.8398
23360.00000 0.8403
23370.00000 0.8413
23380.00000 0.8422
23390.00000 0.8431
23400.00000 0.8441
23410.00000 0.8452
23420.00000 0.8463
23430.00000 0.8466
23440.00000 0.8472
23450.00000 0.8483
23460.00000 0.8491
23470.00000 0.8501
23480.00000 0.8504
23490.00000 0.8503
23500.00000 0.8496
23510.00000 0.8478
23520.00000 0.8459
23530.00000 0.8435
23540.00000 0.8402
23550.00000 0.8358
23560.00000 0.8297
23570.00000 0.8225
23580.00000 0.8133
23590.00000 0.8027
23600.00000 0.7899
23610.00000 0.7747
23620.00000 0.758
23630.00000 0.7393
23640.00000 0.7177
23650.00000 0.6936
23660.00000 0.6668
23670.00000 0.639
23680.00000 0.6097
23690.00000 0.5791
23700.00000 0.5474
23710.00000 0.515
23720.00000 0.4822
23730.00000 0.4495
23740.00000 0.4175
23750.00000 0.3865
23760.00000 0.3567
23770.00000 0.3279
23780.00000 0.3004
23790.00000 0.2746
23800.00000 0.2507
23810.00000 0.2283
23820.00000 0.2076
23830.00000 0.1887
23840.00000 0.171
23850.00000 0.1548
23860.00000 0.14
23870.00000 0.1267
23880.00000 0.1151
23890.00000 0.1045
23900.00000 0.0948
23910.00000 0.0862
23920.00000 0.0784
23930.00000 0.0712
23940.00000 0.0645
23950.00000 0.0585
23960.00000 0.0532
23970.00000 0.0486
23980.00000 0.0443
23990.00000 0.0405
24000.00000 0.037
24010.00000 0.0339
24020.00000 0.0311
24030.00000 0.0286
24040.00000 0.0263
24050.00000 0.0241
24060.00000 0.0222
24070.00000 0.0203
24080.00000 0.0187
24090.00000 0.0174
24100.00000 0.0162
24110.00000 0.0152
24120.00000 0.0139
24130.00000 0.0126
24140.00000 0.0116
24150.00000 0.0107
24160.00000 0.01
24170.00000 0.0092
24180.00000 0.0085
24190.00000 0.0078
24200.00000 0.0077
24210.00000 0.008
24220.00000 0.0074
24230.00000 0.0062
24240.00000 0.0049
24250.00000 0.0043
24260.00000 0.0048
24270.00000 0.0046
24280.00000 0.0042
24290.00000 0.004
26719.00000 0.0
