# %ECSV 0.9
# ---
# datatype:
# - {name: wavelength, unit: Angstrom, datatype: float32}
# - {name: response, datatype: float32}
# meta: !!omap
# - {band_name: SDSS_r}
# - {group_name: OIG}
wavelength response
4828.50000 0.0
5365.00000 0.004774
5370.00000 0.006195
5375.00000 0.007932
5380.00000 0.01006
5385.00000 0.012631
5390.00000 0.015629
5395.00000 0.01922
5400.00000 0.023466
5405.00000 0.028265
5410.00000 0.033807
5415.00000 0.040148
5420.00000 0.047094
5425.00000 0.055101
5430.00000 0.063823
5435.00000 0.073418
5440.00000 0.084155
5445.00000 0.095636
5450.00000 0.107812
5455.00000 0.120921
5460.00000 0.134862
5465.00000 0.149765
5470.00000 0.165119
5475.00000 0.181169
5480.00000 0.198123
5485.00000 0.214782
5490.00000 0.232552
5495.00000 0.250252
5500.00000 0.268179
5505.00000 0.286685
5510.00000 0.305249
5515.00000 0.323772
5520.00000 0.343355
5525.00000 0.362454
5530.00000 0.381575
5535.00000 0.4014
5540.00000 0.420722
5545.00000 0.440298
5550.00000 0.459861
5555.00000 0.479396
5560.00000 0.498715
5565.00000 0.518183
5570.00000 0.537067
5575.00000 0.555869
5580.00000 0.574017
5585.00000 0.591835
5590.00000 0.609081
5595.00000 0.6252
5600.00000 0.641883
5605.00000 0.657194
5610.00000 0.671126
5615.00000 0.685463
5620.00000 0.699275
5625.00000 0.711243
5630.00000 0.723858
5635.00000 0.735042
5640.00000 0.746137
5645.00000 0.755988
5650.00000 0.766243
5655.00000 0.775107
5660.00000 0.78498
5665.00000 0.792653
5670.00000 0.800302
5675.00000 0.808668
5680.00000 0.815976
5685.00000 0.822396
5690.00000 0.829481
5695.00000 0.834203
5700.00000 0.8414
5705.00000 0.845263
5710.00000 0.850116
5715.00000 0.854659
5720.00000 0.858816
5725.00000 0.863292
5730.00000 0.866713
5735.00000 0.870444
5740.00000 0.874241
5745.00000 0.877804
5750.00000 0.880582
5755.00000 0.884438
5760.00000 0.887883
5765.00000 0.890567
5770.00000 0.89387
5775.00000 0.897754
5780.00000 0.900062
5785.00000 0.903447
5790.00000 0.906453
5795.00000 0.909437
5800.00000 0.911576
5805.00000 0.914143
5810.00000 0.916673
5815.00000 0.918319
5820.00000 0.919884
5825.00000 0.921348
5830.00000 0.922429
5835.00000 0.923354
5840.00000 0.92422
5845.00000 0.924385
5850.00000 0.924589
5855.00000 0.924765
5860.00000 0.92506
5865.00000 0.924701
5870.00000 0.925017
5875.00000 0.924758
5880.00000 0.925701
5885.00000 0.925132
5890.00000 0.926069
5895.00000 0.926374
5900.00000 0.926997
5905.00000 0.927745
5910.00000 0.928729
5915.00000 0.929562
5920.00000 0.930709
5925.00000 0.931706
5930.00000 0.932773
5935.00000 0.934051
5940.00000 0.934571
5945.00000 0.936094
5950.00000 0.935713
5955.00000 0.937115
5960.00000 0.937104
5965.00000 0.937874
5970.00000 0.937384
5975.00000 0.937846
5980.00000 0.937285
5985.00000 0.937458
5990.00000 0.936664
5995.00000 0.93683
6000.00000 0.936232
6005.00000 0.935808
6010.00000 0.935715
6015.00000 0.934872
6020.00000 0.935752
6025.00000 0.93545
6030.00000 0.935863
6035.00000 0.935812
6040.00000 0.936564
6045.00000 0.937093
6050.00000 0.937449
6055.00000 0.938374
6060.00000 0.939339
6065.00000 0.940372
6070.00000 0.941516
6075.00000 0.942526
6080.00000 0.943672
6085.00000 0.944342
6090.00000 0.946115
6095.00000 0.946669
6100.00000 0.947844
6105.00000 0.948218
6110.00000 0.949143
6115.00000 0.949516
6120.00000 0.950034
6125.00000 0.950132
6130.00000 0.950329
6135.00000 0.950076
6140.00000 0.950334
6145.00000 0.949802
6150.00000 0.949072
6155.00000 0.949017
6160.00000 0.947919
6165.00000 0.947629
6170.00000 0.946403
6175.00000 0.946096
6180.00000 0.944624
6185.00000 0.944251
6190.00000 0.942982
6195.00000 0.943035
6200.00000 0.941066
6205.00000 0.941168
6210.00000 0.93977
6215.00000 0.939549
6220.00000 0.938341
6225.00000 0.938301
6230.00000 0.93765
6235.00000 0.936916
6240.00000 0.936933
6245.00000 0.936306
6250.00000 0.936378
6255.00000 0.935641
6260.00000 0.93591
6265.00000 0.935148
6270.00000 0.935636
6275.00000 0.935074
6280.00000 0.935977
6285.00000 0.935466
6290.00000 0.935831
6295.00000 0.935998
6300.00000 0.936143
6305.00000 0.936411
6310.00000 0.936736
6315.00000 0.936762
6320.00000 0.937142
6325.00000 0.937754
6330.00000 0.93771
6335.00000 0.93861
6340.00000 0.93866
6345.00000 0.938983
6350.00000 0.939654
6355.00000 0.939772
6360.00000 0.939629
6365.00000 0.940391
6370.00000 0.940884
6375.00000 0.940507
6380.00000 0.941272
6385.00000 0.940938
6390.00000 0.941204
6395.00000 0.941534
6400.00000 0.941781
6405.00000 0.941953
6410.00000 0.941797
6415.00000 0.941995
6420.00000 0.942051
6425.00000 0.941596
6430.00000 0.941786
6435.00000 0.941887
6440.00000 0.941326
6445.00000 0.941791
6450.00000 0.940999
6455.00000 0.940997
6460.00000 0.941019
6465.00000 0.940342
6470.00000 0.94
6475.00000 0.939558
6480.00000 0.939365
6485.00000 0.939313
6490.00000 0.938749
6495.00000 0.938476
6500.00000 0.938168
6505.00000 0.937841
6510.00000 0.937686
6515.00000 0.937314
6520.00000 0.936625
6525.00000 0.936826
6530.00000 0.936702
6535.00000 0.936437
6540.00000 0.93641
6545.00000 0.936337
6550.00000 0.936276
6555.00000 0.936344
6560.00000 0.936164
6565.00000 0.936067
6570.00000 0.936057
6575.00000 0.935909
6580.00000 0.935665
6585.00000 0.935117
6590.00000 0.934968
6595.00000 0.934367
6600.00000 0.93371
6605.00000 0.932466
6610.00000 0.931619
6615.00000 0.929907
6620.00000 0.928623
6625.00000 0.926872
6630.00000 0.924368
6635.00000 0.922466
6640.00000 0.919726
6645.00000 0.916591
6650.00000 0.914041
6655.00000 0.910706
6660.00000 0.907546
6665.00000 0.904677
6670.00000 0.900672
6675.00000 0.89879
6680.00000 0.895226
6685.00000 0.892695
6690.00000 0.889822
6695.00000 0.888976
6700.00000 0.887359
6705.00000 0.886677
6710.00000 0.886499
6715.00000 0.887962
6720.00000 0.889682
6725.00000 0.892214
6730.00000 0.896058
6735.00000 0.900741
6740.00000 0.906317
6745.00000 0.91144
6750.00000 0.918263
6755.00000 0.924342
6760.00000 0.930329
6765.00000 0.934256
6770.00000 0.936911
6775.00000 0.936759
6780.00000 0.933334
6785.00000 0.924437
6790.00000 0.91037
6795.00000 0.889704
6800.00000 0.862721
6805.00000 0.828189
6810.00000 0.787989
6815.00000 0.742204
6820.00000 0.691394
6825.00000 0.63919
6830.00000 0.584685
6835.00000 0.530899
6840.00000 0.478282
6845.00000 0.427845
6850.00000 0.381963
6855.00000 0.339715
6860.00000 0.301083
6865.00000 0.267033
6870.00000 0.236127
6875.00000 0.20901
6880.00000 0.185167
6885.00000 0.164013
6890.00000 0.145861
6895.00000 0.129713
6900.00000 0.11544
6905.00000 0.103262
6910.00000 0.092304
6915.00000 0.082851
6920.00000 0.074512
6925.00000 0.067043
6930.00000 0.060454
6935.00000 0.054623
6940.00000 0.049481
6945.00000 0.044955
6950.00000 0.040863
6955.00000 0.037188
6960.00000 0.033971
6965.00000 0.030971
6970.00000 0.028369
6975.00000 0.025917
6980.00000 0.023736
6985.00000 0.021802
6990.00000 0.020014
6995.00000 0.018399
7000.00000 0.016935
7005.00000 0.015595
7010.00000 0.014374
7015.00000 0.013273
7020.00000 0.012246
7025.00000 0.01131
7030.00000 0.010438
7035.00000 0.009655
7040.00000 0.00893
7045.00000 0.008279
7050.00000 0.00767
7055.00000 0.007116
7060.00000 0.00659
7065.00000 0.006115
7070.00000 0.005671
7075.00000 0.005268
7080.00000 0.004925
7085.00000 0.004559
7090.00000 0.004248
7799.00000 0.0
