# %ECSV 0.9
# ---
# datatype:
# - {name: wavelength, unit: Angstrom, datatype: float32}
# - {name: response, datatype: float32}
# meta: !!omap
# - {band_name: y}
# - {group_name: LSST}
wavelength response
9084.00000 0.0
9085.00000 0.00035138
9086.00000 0.00070271
9087.00000 0.00142483
9088.00000 0.00214685
9089.00000 0.00286876
9090.00000 0.00359055
9091.00000 0.00429688
9092.00000 0.00500447
9093.00000 0.00573287
9094.00000 0.00646256
9095.00000 0.00719354
9096.00000 0.00792227
9097.00000 0.00863204
9098.00000 0.00934244
9099.00000 0.0100731
9100.00000 0.0108045
9101.00000 0.0115086
9102.00000 0.01221
9103.00000 0.012889
9104.00000 0.0135653
9105.00000 0.0142583
9106.00000 0.0150156
9107.00000 0.0157766
9108.00000 0.0165411
9109.00000 0.0172896
9110.00000 0.0180416
9111.00000 0.0187872
9112.00000 0.0195341
9113.00000 0.0202823
9114.00000 0.0210318
9115.00000 0.0217627
9116.00000 0.022411
9117.00000 0.023075
9118.00000 0.0237348
9119.00000 0.024371
9120.00000 0.0250032
9121.00000 0.0257879
9122.00000 0.026576
9123.00000 0.0273676
9124.00000 0.0281626
9125.00000 0.0289413
9126.00000 0.0294767
9127.00000 0.0300233
9128.00000 0.0305614
9129.00000 0.0310911
9130.00000 0.0316123
9131.00000 0.0320888
9132.00000 0.0325564
9133.00000 0.0330338
9134.00000 0.033502
9135.00000 0.034313
9136.00000 0.0355374
9137.00000 0.0371284
9138.00000 0.038734
9139.00000 0.0403353
9140.00000 0.0419508
9141.00000 0.0436983
9142.00000 0.0454664
9143.00000 0.0472552
9144.00000 0.0490646
9145.00000 0.0508747
9146.00000 0.0521928
9147.00000 0.0535226
9148.00000 0.0548444
9149.00000 0.0561582
9150.00000 0.057464
9151.00000 0.0582569
9152.00000 0.0590172
9153.00000 0.0597264
9154.00000 0.0604037
9155.00000 0.0610675
9156.00000 0.0626134
9157.00000 0.0641665
9158.00000 0.0657267
9159.00000 0.067294
9160.00000 0.0688684
9161.00000 0.0710179
9162.00000 0.073197
9163.00000 0.0754248
9164.00000 0.0776827
9165.00000 0.0799705
9166.00000 0.0814603
9167.00000 0.0829507
9168.00000 0.0844417
9169.00000 0.0859137
9170.00000 0.0873863
9171.00000 0.0881864
9172.00000 0.0889647
9173.00000 0.0897213
9174.00000 0.0904561
9175.00000 0.0911692
9176.00000 0.0922745
9177.00000 0.0933517
9178.00000 0.0944197
9179.00000 0.095497
9180.00000 0.096565
9181.00000 0.0985065
9182.00000 0.100463
9183.00000 0.102415
9184.00000 0.104382
9185.00000 0.106383
9186.00000 0.108423
9187.00000 0.110478
9188.00000 0.112548
9189.00000 0.114634
9190.00000 0.116735
9191.00000 0.118382
9192.00000 0.120034
9193.00000 0.12171
9194.00000 0.123391
9195.00000 0.125077
9196.00000 0.126552
9197.00000 0.128027
9198.00000 0.129501
9199.00000 0.130955
9200.00000 0.132408
9201.00000 0.134215
9202.00000 0.136028
9203.00000 0.137847
9204.00000 0.139672
9205.00000 0.141504
9206.00000 0.142894
9207.00000 0.144262
9208.00000 0.145628
9209.00000 0.147011
9210.00000 0.148391
9211.00000 0.149428
9212.00000 0.150455
9213.00000 0.151474
9214.00000 0.152485
9215.00000 0.153467
9216.00000 0.154801
9217.00000 0.156153
9218.00000 0.157503
9219.00000 0.15885
9220.00000 0.160195
9221.00000 0.161923
9222.00000 0.163655
9223.00000 0.165412
9224.00000 0.167173
9225.00000 0.168938
9226.00000 0.17028
9227.00000 0.171619
9228.00000 0.172956
9229.00000 0.174271
9230.00000 0.175583
9231.00000 0.176804
9232.00000 0.178021
9233.00000 0.179234
9234.00000 0.180443
9235.00000 0.181648
9236.00000 0.182773
9237.00000 0.183874
9238.00000 0.18497
9239.00000 0.18608
9240.00000 0.187185
9241.00000 0.188344
9242.00000 0.189499
9243.00000 0.190648
9244.00000 0.191791
9245.00000 0.19291
9246.00000 0.194189
9247.00000 0.195484
9248.00000 0.196774
9249.00000 0.198061
9250.00000 0.199344
9251.00000 0.200865
9252.00000 0.202385
9253.00000 0.203923
9254.00000 0.205461
9255.00000 0.206998
9256.00000 0.208446
9257.00000 0.209892
9258.00000 0.211337
9259.00000 0.212762
9260.00000 0.214185
9261.00000 0.215618
9262.00000 0.21705
9263.00000 0.218483
9264.00000 0.219915
9265.00000 0.221347
9266.00000 0.222921
9267.00000 0.224477
9268.00000 0.226034
9269.00000 0.227612
9270.00000 0.229192
9271.00000 0.229251
9272.00000 0.229295
9273.00000 0.229324
9274.00000 0.229338
9275.00000 0.229318
9276.00000 0.228787
9277.00000 0.228255
9278.00000 0.227702
9279.00000 0.22713
9280.00000 0.226537
9281.00000 0.227419
9282.00000 0.228297
9283.00000 0.229152
9284.00000 0.230003
9285.00000 0.230866
9286.00000 0.231465
9287.00000 0.232057
9288.00000 0.232642
9289.00000 0.233202
9290.00000 0.233754
9291.00000 0.233807
9292.00000 0.233846
9293.00000 0.233872
9294.00000 0.233883
9295.00000 0.23388
9296.00000 0.232877
9297.00000 0.231834
9298.00000 0.230768
9299.00000 0.229695
9300.00000 0.228598
9301.00000 0.22776
9302.00000 0.2269
9303.00000 0.226018
9304.00000 0.225115
9305.00000 0.224175
9306.00000 0.223271
9307.00000 0.222363
9308.00000 0.221433
9309.00000 0.220484
9310.00000 0.219516
9311.00000 0.218228
9312.00000 0.216921
9313.00000 0.21558
9314.00000 0.21422
9315.00000 0.212855
9316.00000 0.209504
9317.00000 0.206117
9318.00000 0.202697
9319.00000 0.199243
9320.00000 0.195754
9321.00000 0.194931
9322.00000 0.194094
9323.00000 0.193256
9324.00000 0.192405
9325.00000 0.19154
9326.00000 0.192646
9327.00000 0.193741
9328.00000 0.194838
9329.00000 0.195949
9330.00000 0.19706
9331.00000 0.196556
9332.00000 0.196042
9333.00000 0.195518
9334.00000 0.194984
9335.00000 0.194427
9336.00000 0.190518
9337.00000 0.186587
9338.00000 0.182623
9339.00000 0.178627
9340.00000 0.174598
9341.00000 0.17348
9342.00000 0.17235
9343.00000 0.171198
9344.00000 0.170034
9345.00000 0.168869
9346.00000 0.174866
9347.00000 0.180899
9348.00000 0.186967
9349.00000 0.19307
9350.00000 0.199208
9351.00000 0.201617
9352.00000 0.204039
9353.00000 0.206178
9354.00000 0.208325
9355.00000 0.210364
9356.00000 0.208995
9357.00000 0.20762
9358.00000 0.206241
9359.00000 0.204857
9360.00000 0.203468
9361.00000 0.204463
9362.00000 0.20546
9363.00000 0.206458
9364.00000 0.207457
9365.00000 0.208457
9366.00000 0.207588
9367.00000 0.206716
9368.00000 0.205841
9369.00000 0.204963
9370.00000 0.204082
9371.00000 0.206465
9372.00000 0.208853
9373.00000 0.211245
9374.00000 0.21364
9375.00000 0.21604
9376.00000 0.217113
9377.00000 0.218085
9378.00000 0.219056
9379.00000 0.219694
9380.00000 0.22033
9381.00000 0.221167
9382.00000 0.222004
9383.00000 0.222839
9384.00000 0.223674
9385.00000 0.224507
9386.00000 0.230422
9387.00000 0.236328
9388.00000 0.242225
9389.00000 0.248114
9390.00000 0.253996
9391.00000 0.260041
9392.00000 0.266075
9393.00000 0.2721
9394.00000 0.278116
9395.00000 0.284124
9396.00000 0.282943
9397.00000 0.28177
9398.00000 0.280605
9399.00000 0.279448
9400.00000 0.2783
9401.00000 0.274762
9402.00000 0.271234
9403.00000 0.267716
9404.00000 0.264207
9405.00000 0.260707
9406.00000 0.260369
9407.00000 0.260035
9408.00000 0.259705
9409.00000 0.259378
9410.00000 0.259054
9411.00000 0.260797
9412.00000 0.262537
9413.00000 0.264276
9414.00000 0.26601
9415.00000 0.26774
9416.00000 0.267147
9417.00000 0.266554
9418.00000 0.265961
9419.00000 0.26537
9420.00000 0.264779
9421.00000 0.259557
9422.00000 0.254342
9423.00000 0.249135
9424.00000 0.243936
9425.00000 0.238745
9426.00000 0.234847
9427.00000 0.230955
9428.00000 0.227069
9429.00000 0.223188
9430.00000 0.219313
9431.00000 0.222148
9432.00000 0.224981
9433.00000 0.227813
9434.00000 0.230642
9435.00000 0.23347
9436.00000 0.230972
9437.00000 0.228474
9438.00000 0.225977
9439.00000 0.223481
9440.00000 0.220987
9441.00000 0.218704
9442.00000 0.216424
9443.00000 0.214148
9444.00000 0.211877
9445.00000 0.209609
9446.00000 0.214989
9447.00000 0.220365
9448.00000 0.225738
9449.00000 0.231107
9450.00000 0.236474
9451.00000 0.237298
9452.00000 0.238125
9453.00000 0.238953
9454.00000 0.239784
9455.00000 0.240616
9456.00000 0.237379
9457.00000 0.234148
9458.00000 0.23092
9459.00000 0.227696
9460.00000 0.224476
9461.00000 0.225583
9462.00000 0.22669
9463.00000 0.227796
9464.00000 0.2289
9465.00000 0.230001
9466.00000 0.233026
9467.00000 0.236049
9468.00000 0.239069
9469.00000 0.242086
9470.00000 0.2451
9471.00000 0.244532
9472.00000 0.243966
9473.00000 0.2434
9474.00000 0.242834
9475.00000 0.242269
9476.00000 0.23794
9477.00000 0.233616
9478.00000 0.229297
9479.00000 0.224984
9480.00000 0.220677
9481.00000 0.222387
9482.00000 0.224096
9483.00000 0.225803
9484.00000 0.227509
9485.00000 0.229214
9486.00000 0.235192
9487.00000 0.241167
9488.00000 0.247137
9489.00000 0.253105
9490.00000 0.259068
9491.00000 0.25577
9492.00000 0.252474
9493.00000 0.24918
9494.00000 0.245887
9495.00000 0.242597
9496.00000 0.237932
9497.00000 0.233269
9498.00000 0.228609
9499.00000 0.223951
9500.00000 0.219295
9501.00000 0.222526
9502.00000 0.225753
9503.00000 0.228975
9504.00000 0.232194
9505.00000 0.235408
9506.00000 0.241228
9507.00000 0.247042
9508.00000 0.252848
9509.00000 0.258648
9510.00000 0.264441
9511.00000 0.263431
9512.00000 0.262421
9513.00000 0.261412
9514.00000 0.260405
9515.00000 0.259398
9516.00000 0.252878
9517.00000 0.246365
9518.00000 0.23986
9519.00000 0.233363
9520.00000 0.226874
9521.00000 0.22511
9522.00000 0.223348
9523.00000 0.221588
9524.00000 0.219831
9525.00000 0.218075
9526.00000 0.221415
9527.00000 0.22475
9528.00000 0.228081
9529.00000 0.231407
9530.00000 0.234729
9531.00000 0.236765
9532.00000 0.238799
9533.00000 0.240829
9534.00000 0.242857
9535.00000 0.244882
9536.00000 0.245303
9537.00000 0.245723
9538.00000 0.246143
9539.00000 0.246562
9540.00000 0.246981
9541.00000 0.246097
9542.00000 0.245213
9543.00000 0.244329
9544.00000 0.243446
9545.00000 0.242562
9546.00000 0.242826
9547.00000 0.243088
9548.00000 0.24335
9549.00000 0.243609
9550.00000 0.243867
9551.00000 0.242813
9552.00000 0.241758
9553.00000 0.240703
9554.00000 0.239648
9555.00000 0.238593
9556.00000 0.237475
9557.00000 0.236356
9558.00000 0.235238
9559.00000 0.23412
9560.00000 0.233003
9561.00000 0.233159
9562.00000 0.233314
9563.00000 0.233468
9564.00000 0.233622
9565.00000 0.233776
9566.00000 0.234243
9567.00000 0.23471
9568.00000 0.235175
9569.00000 0.23564
9570.00000 0.236104
9571.00000 0.239803
9572.00000 0.243496
9573.00000 0.247184
9574.00000 0.250865
9575.00000 0.254541
9576.00000 0.254716
9577.00000 0.254891
9578.00000 0.255066
9579.00000 0.25524
9580.00000 0.255414
9581.00000 0.253445
9582.00000 0.251478
9583.00000 0.249513
9584.00000 0.247551
9585.00000 0.245591
9586.00000 0.243819
9587.00000 0.242049
9588.00000 0.240282
9589.00000 0.238516
9590.00000 0.236752
9591.00000 0.235388
9592.00000 0.234025
9593.00000 0.232663
9594.00000 0.231303
9595.00000 0.229944
9596.00000 0.231724
9597.00000 0.233499
9598.00000 0.235271
9599.00000 0.237039
9600.00000 0.238803
9601.00000 0.240516
9602.00000 0.242225
9603.00000 0.24393
9604.00000 0.245632
9605.00000 0.247331
9606.00000 0.248416
9607.00000 0.249498
9608.00000 0.250578
9609.00000 0.251656
9610.00000 0.252731
9611.00000 0.253816
9612.00000 0.2549
9613.00000 0.255981
9614.00000 0.257061
9615.00000 0.258138
9616.00000 0.256672
9617.00000 0.255206
9618.00000 0.253743
9619.00000 0.252282
9620.00000 0.250823
9621.00000 0.248294
9622.00000 0.245768
9623.00000 0.243246
9624.00000 0.240727
9625.00000 0.23821
9626.00000 0.240025
9627.00000 0.241836
9628.00000 0.243645
9629.00000 0.24545
9630.00000 0.247252
9631.00000 0.249037
9632.00000 0.25082
9633.00000 0.252599
9634.00000 0.254375
9635.00000 0.256148
9636.00000 0.255293
9637.00000 0.25444
9638.00000 0.253589
9639.00000 0.252738
9640.00000 0.251889
9641.00000 0.251694
9642.00000 0.251499
9643.00000 0.251303
9644.00000 0.251108
9645.00000 0.250912
9646.00000 0.251602
9647.00000 0.25229
9648.00000 0.252975
9649.00000 0.253658
9650.00000 0.254338
9651.00000 0.255614
9652.00000 0.256886
9653.00000 0.258155
9654.00000 0.259421
9655.00000 0.260684
9656.00000 0.259423
9657.00000 0.258162
9658.00000 0.256903
9659.00000 0.255645
9660.00000 0.254388
9661.00000 0.252127
9662.00000 0.249869
9663.00000 0.247615
9664.00000 0.245365
9665.00000 0.243119
9666.00000 0.243958
9667.00000 0.244795
9668.00000 0.24563
9669.00000 0.246464
9670.00000 0.247297
9671.00000 0.251036
9672.00000 0.25477
9673.00000 0.258497
9674.00000 0.262218
9675.00000 0.265933
9676.00000 0.267048
9677.00000 0.26816
9678.00000 0.26927
9679.00000 0.270378
9680.00000 0.271484
9681.00000 0.270126
9682.00000 0.268771
9683.00000 0.267417
9684.00000 0.266065
9685.00000 0.264714
9686.00000 0.265193
9687.00000 0.265671
9688.00000 0.266146
9689.00000 0.266621
9690.00000 0.267093
9691.00000 0.267604
9692.00000 0.268114
9693.00000 0.268623
9694.00000 0.269129
9695.00000 0.269635
9696.00000 0.268837
9697.00000 0.26804
9698.00000 0.267243
9699.00000 0.266446
9700.00000 0.265651
9701.00000 0.265169
9702.00000 0.264688
9703.00000 0.264206
9704.00000 0.263724
9705.00000 0.263242
9706.00000 0.263658
9707.00000 0.264072
9708.00000 0.264484
9709.00000 0.264895
9710.00000 0.265304
9711.00000 0.264411
9712.00000 0.26352
9713.00000 0.262629
9714.00000 0.26174
9715.00000 0.260853
9716.00000 0.260299
9717.00000 0.259745
9718.00000 0.259192
9719.00000 0.258638
9720.00000 0.258085
9721.00000 0.257583
9722.00000 0.257081
9723.00000 0.256579
9724.00000 0.256077
9725.00000 0.255576
9726.00000 0.254528
9727.00000 0.253482
9728.00000 0.252438
9729.00000 0.251396
9730.00000 0.250357
9731.00000 0.249576
9732.00000 0.248796
9733.00000 0.248017
9734.00000 0.24724
9735.00000 0.246465
9736.00000 0.24596
9737.00000 0.245455
9738.00000 0.244951
9739.00000 0.244448
9740.00000 0.243945
9741.00000 0.243161
9742.00000 0.242378
9743.00000 0.241597
9744.00000 0.240817
9745.00000 0.240038
9746.00000 0.23926
9747.00000 0.238483
9748.00000 0.237707
9749.00000 0.236933
9750.00000 0.23616
9751.00000 0.236013
9752.00000 0.235866
9753.00000 0.235718
9754.00000 0.23557
9755.00000 0.235421
9756.00000 0.234853
9757.00000 0.234284
9758.00000 0.233716
9759.00000 0.233149
9760.00000 0.232583
9761.00000 0.232689
9762.00000 0.232793
9763.00000 0.232895
9764.00000 0.232995
9765.00000 0.233094
9766.00000 0.234118
9767.00000 0.235137
9768.00000 0.236151
9769.00000 0.23716
9770.00000 0.238164
9771.00000 0.238468
9772.00000 0.23877
9773.00000 0.23907
9774.00000 0.239368
9775.00000 0.239664
9776.00000 0.238792
9777.00000 0.237922
9778.00000 0.237053
9779.00000 0.236186
9780.00000 0.23532
9781.00000 0.234681
9782.00000 0.234044
9783.00000 0.233406
9784.00000 0.23277
9785.00000 0.232134
9786.00000 0.231697
9787.00000 0.231261
9788.00000 0.230824
9789.00000 0.230388
9790.00000 0.229951
9791.00000 0.229344
9792.00000 0.228738
9793.00000 0.228133
9794.00000 0.227529
9795.00000 0.226925
9796.00000 0.226862
9797.00000 0.226797
9798.00000 0.226732
9799.00000 0.226665
9800.00000 0.226597
9801.00000 0.22652
9802.00000 0.226442
9803.00000 0.226363
9804.00000 0.226282
9805.00000 0.2262
9806.00000 0.226983
9807.00000 0.227762
9808.00000 0.228536
9809.00000 0.229306
9810.00000 0.230071
9811.00000 0.230047
9812.00000 0.230022
9813.00000 0.229996
9814.00000 0.229967
9815.00000 0.229937
9816.00000 0.229291
9817.00000 0.228645
9818.00000 0.227999
9819.00000 0.227355
9820.00000 0.226711
9821.00000 0.225931
9822.00000 0.225152
9823.00000 0.224376
9824.00000 0.2236
9825.00000 0.222826
9826.00000 0.222332
9827.00000 0.221839
9828.00000 0.221345
9829.00000 0.220853
9830.00000 0.22036
9831.00000 0.220565
9832.00000 0.220767
9833.00000 0.220966
9834.00000 0.221163
9835.00000 0.221357
9836.00000 0.221322
9837.00000 0.221286
9838.00000 0.221248
9839.00000 0.221209
9840.00000 0.221168
9841.00000 0.220557
9842.00000 0.219947
9843.00000 0.219337
9844.00000 0.218727
9845.00000 0.218116
9846.00000 0.21746
9847.00000 0.216804
9848.00000 0.216147
9849.00000 0.215491
9850.00000 0.214834
9851.00000 0.214628
9852.00000 0.21442
9853.00000 0.21421
9854.00000 0.213998
9855.00000 0.213784
9856.00000 0.2137
9857.00000 0.213612
9858.00000 0.213523
9859.00000 0.213431
9860.00000 0.213336
9861.00000 0.212996
9862.00000 0.212655
9863.00000 0.212314
9864.00000 0.211972
9865.00000 0.211631
9866.00000 0.211119
9867.00000 0.210607
9868.00000 0.210096
9869.00000 0.209585
9870.00000 0.209075
9871.00000 0.208625
9872.00000 0.208175
9873.00000 0.207725
9874.00000 0.207275
9875.00000 0.206826
9876.00000 0.206546
9877.00000 0.206265
9878.00000 0.205984
9879.00000 0.205703
9880.00000 0.205421
9881.00000 0.205192
9882.00000 0.204962
9883.00000 0.204732
9884.00000 0.204501
9885.00000 0.204269
9886.00000 0.203871
9887.00000 0.203473
9888.00000 0.203075
9889.00000 0.202676
9890.00000 0.202277
9891.00000 0.201816
9892.00000 0.201355
9893.00000 0.200895
9894.00000 0.200435
9895.00000 0.199976
9896.00000 0.199477
9897.00000 0.198979
9898.00000 0.198482
9899.00000 0.197985
9900.00000 0.19749
9901.00000 0.197186
9902.00000 0.196882
9903.00000 0.196579
9904.00000 0.196276
9905.00000 0.195974
9906.00000 0.195712
9907.00000 0.19545
9908.00000 0.195188
9909.00000 0.194926
9910.00000 0.194664
9911.00000 0.194344
9912.00000 0.194024
9913.00000 0.193703
9914.00000 0.193383
9915.00000 0.193062
9916.00000 0.19278
9917.00000 0.192497
9918.00000 0.192214
9919.00000 0.191932
9920.00000 0.191649
9921.00000 0.191272
9922.00000 0.190895
9923.00000 0.190518
9924.00000 0.190141
9925.00000 0.189765
9926.00000 0.189388
9927.00000 0.189012
9928.00000 0.188636
9929.00000 0.18826
9930.00000 0.187884
9931.00000 0.187642
9932.00000 0.187399
9933.00000 0.187157
9934.00000 0.186914
9935.00000 0.186671
9936.00000 0.186465
9937.00000 0.186259
9938.00000 0.186053
9939.00000 0.185846
9940.00000 0.185639
9941.00000 0.18531
9942.00000 0.184982
9943.00000 0.184653
9944.00000 0.184325
9945.00000 0.183997
9946.00000 0.183669
9947.00000 0.183342
9948.00000 0.183016
9949.00000 0.18269
9950.00000 0.182364
9951.00000 0.182038
9952.00000 0.181711
9953.00000 0.181385
9954.00000 0.18106
9955.00000 0.180735
9956.00000 0.18041
9957.00000 0.180085
9958.00000 0.17976
9959.00000 0.179436
9960.00000 0.179111
9961.00000 0.178824
9962.00000 0.178537
9963.00000 0.178249
9964.00000 0.177961
9965.00000 0.177673
9966.00000 0.177385
9967.00000 0.177096
9968.00000 0.176808
9969.00000 0.176519
9970.00000 0.17623
9971.00000 0.175896
9972.00000 0.175561
9973.00000 0.175227
9974.00000 0.174892
9975.00000 0.174558
9976.00000 0.174224
9977.00000 0.17389
9978.00000 0.173557
9979.00000 0.173223
9980.00000 0.172889
9981.00000 0.172562
9982.00000 0.172234
9983.00000 0.171906
9984.00000 0.171578
9985.00000 0.17125
9986.00000 0.170923
9987.00000 0.170595
9988.00000 0.170268
9989.00000 0.16994
9990.00000 0.169612
9991.00000 0.16927
9992.00000 0.168928
9993.00000 0.168586
9994.00000 0.168243
9995.00000 0.1679
9996.00000 0.167556
9997.00000 0.167212
9998.00000 0.166868
9999.00000 0.166523
10000.00000 0.166178
10001.00000 0.165825
10002.00000 0.165472
10003.00000 0.165118
10004.00000 0.164763
10005.00000 0.164409
10006.00000 0.163987
10007.00000 0.163565
10008.00000 0.163144
10009.00000 0.162722
10010.00000 0.1623
10011.00000 0.161897
10012.00000 0.161495
10013.00000 0.161093
10014.00000 0.160691
10015.00000 0.16029
10016.00000 0.159889
10017.00000 0.159488
10018.00000 0.159088
10019.00000 0.158687
10020.00000 0.158287
10021.00000 0.157921
10022.00000 0.157555
10023.00000 0.157189
10024.00000 0.156822
10025.00000 0.156455
10026.00000 0.156152
10027.00000 0.155847
10028.00000 0.155543
10029.00000 0.155238
10030.00000 0.154932
10031.00000 0.154528
10032.00000 0.154125
10033.00000 0.153721
10034.00000 0.153317
10035.00000 0.152914
10036.00000 0.15251
10037.00000 0.152107
10038.00000 0.151704
10039.00000 0.151301
10040.00000 0.150898
10041.00000 0.150503
10042.00000 0.150108
10043.00000 0.149713
10044.00000 0.149318
10045.00000 0.148922
10046.00000 0.148526
10047.00000 0.14813
10048.00000 0.147734
10049.00000 0.147337
10050.00000 0.14694
10051.00000 0.146477
10052.00000 0.146014
10053.00000 0.14555
10054.00000 0.145086
10055.00000 0.144621
10056.00000 0.144157
10057.00000 0.143692
10058.00000 0.143226
10059.00000 0.142761
10060.00000 0.142295
10061.00000 0.1419
10062.00000 0.141506
10063.00000 0.141111
10064.00000 0.140716
10065.00000 0.140321
10066.00000 0.139955
10067.00000 0.139588
10068.00000 0.139222
10069.00000 0.138855
10070.00000 0.138488
10071.00000 0.138015
10072.00000 0.137542
10073.00000 0.137069
10074.00000 0.136597
10075.00000 0.136125
10076.00000 0.13568
10077.00000 0.135236
10078.00000 0.134791
10079.00000 0.134347
10080.00000 0.133902
10081.00000 0.133463
10082.00000 0.133024
10083.00000 0.132586
10084.00000 0.132147
10085.00000 0.131709
10086.00000 0.13127
10087.00000 0.130831
10088.00000 0.130393
10089.00000 0.129954
10090.00000 0.129516
10091.00000 0.129079
10092.00000 0.128642
10093.00000 0.128206
10094.00000 0.12777
10095.00000 0.127335
10096.00000 0.126953
10097.00000 0.126571
10098.00000 0.126189
10099.00000 0.125808
10100.00000 0.125428
10101.00000 0.125101
10102.00000 0.124775
10103.00000 0.124448
10104.00000 0.124122
10105.00000 0.123796
10106.00000 0.123445
10107.00000 0.123094
10108.00000 0.122744
10109.00000 0.122393
10110.00000 0.122043
10111.00000 0.121643
10112.00000 0.121243
10113.00000 0.120843
10114.00000 0.120442
10115.00000 0.120042
10116.00000 0.119617
10117.00000 0.119191
10118.00000 0.118766
10119.00000 0.118341
10120.00000 0.117917
10121.00000 0.117522
10122.00000 0.117127
10123.00000 0.116732
10124.00000 0.116337
10125.00000 0.115942
10126.00000 0.11557
10127.00000 0.115199
10128.00000 0.114827
10129.00000 0.114456
10130.00000 0.114084
10131.00000 0.113752
10132.00000 0.113421
10133.00000 0.11309
10134.00000 0.112758
10135.00000 0.112427
10136.00000 0.112095
10137.00000 0.111764
10138.00000 0.111432
10139.00000 0.111101
10140.00000 0.110769
10141.00000 0.110423
10142.00000 0.110078
10143.00000 0.109732
10144.00000 0.109386
10145.00000 0.109039
10146.00000 0.108693
10147.00000 0.108346
10148.00000 0.107998
10149.00000 0.107651
10150.00000 0.107303
10151.00000 0.10697
10152.00000 0.106637
10153.00000 0.106303
10154.00000 0.105969
10155.00000 0.105634
10156.00000 0.1053
10157.00000 0.104965
10158.00000 0.10463
10159.00000 0.104295
10160.00000 0.10396
10161.00000 0.103616
10162.00000 0.103272
10163.00000 0.102928
10164.00000 0.102584
10165.00000 0.10224
10166.00000 0.101897
10167.00000 0.101553
10168.00000 0.10121
10169.00000 0.100866
10170.00000 0.100522
10171.00000 0.100173
10172.00000 0.0998242
10173.00000 0.0994751
10174.00000 0.0991261
10175.00000 0.0987771
10176.00000 0.0984282
10177.00000 0.0980793
10178.00000 0.0977305
10179.00000 0.0973817
10180.00000 0.0970329
10181.00000 0.0967497
10182.00000 0.0964664
10183.00000 0.0961831
10184.00000 0.0958998
10185.00000 0.0956164
10186.00000 0.0953139
10187.00000 0.0950114
10188.00000 0.094709
10189.00000 0.0944068
10190.00000 0.0941046
10191.00000 0.093828
10192.00000 0.0935513
10193.00000 0.0932746
10194.00000 0.0929978
10195.00000 0.092721
10196.00000 0.0924627
10197.00000 0.0922043
10198.00000 0.0919458
10199.00000 0.0916871
10200.00000 0.0914282
10201.00000 0.0910807
10202.00000 0.0907333
10203.00000 0.0903859
10204.00000 0.0900385
10205.00000 0.0896911
10206.00000 0.0893438
10207.00000 0.0889966
10208.00000 0.0886493
10209.00000 0.0883021
10210.00000 0.087955
10211.00000 0.0876745
10212.00000 0.0873939
10213.00000 0.0871134
10214.00000 0.0868328
10215.00000 0.0865521
10216.00000 0.0862715
10217.00000 0.0859908
10218.00000 0.08571
10219.00000 0.0854293
10220.00000 0.0851484
10221.00000 0.084807
10222.00000 0.0844655
10223.00000 0.084124
10224.00000 0.0837825
10225.00000 0.083441
10226.00000 0.0830828
10227.00000 0.0827246
10228.00000 0.0823666
10229.00000 0.0820087
10230.00000 0.0816509
10231.00000 0.0813663
10232.00000 0.0810817
10233.00000 0.080797
10234.00000 0.0805124
10235.00000 0.0802277
10236.00000 0.0799271
10237.00000 0.0796265
10238.00000 0.0793262
10239.00000 0.0790259
10240.00000 0.0787257
10241.00000 0.0784057
10242.00000 0.0780854
10243.00000 0.0777648
10244.00000 0.0774439
10245.00000 0.0771227
10246.00000 0.0768012
10247.00000 0.0764794
10248.00000 0.0761572
10249.00000 0.0758348
10250.00000 0.0755119
10251.00000 0.0752189
10252.00000 0.0749257
10253.00000 0.0746324
10254.00000 0.0743389
10255.00000 0.0740453
10256.00000 0.0737516
10257.00000 0.0734577
10258.00000 0.0731638
10259.00000 0.0728698
10260.00000 0.0725757
10261.00000 0.0722272
10262.00000 0.0718788
10263.00000 0.0715304
10264.00000 0.071182
10265.00000 0.0708338
10266.00000 0.0704857
10267.00000 0.0701377
10268.00000 0.0697897
10269.00000 0.0694418
10270.00000 0.069094
10271.00000 0.068814
10272.00000 0.068534
10273.00000 0.0682539
10274.00000 0.0679739
10275.00000 0.0676939
10276.00000 0.067414
10277.00000 0.0671341
10278.00000 0.0668541
10279.00000 0.0665741
10280.00000 0.0662941
10281.00000 0.0660048
10282.00000 0.0657154
10283.00000 0.0654261
10284.00000 0.0651367
10285.00000 0.0648473
10286.00000 0.0645577
10287.00000 0.0642679
10288.00000 0.0639781
10289.00000 0.0636883
10290.00000 0.0633985
10291.00000 0.0630538
10292.00000 0.0627093
10293.00000 0.0623649
10294.00000 0.0620208
10295.00000 0.0616769
10296.00000 0.0613457
10297.00000 0.0610147
10298.00000 0.0606838
10299.00000 0.0603531
10300.00000 0.0600226
10301.00000 0.0597381
10302.00000 0.0594538
10303.00000 0.0591699
10304.00000 0.0588862
10305.00000 0.0586028
10306.00000 0.0583197
10307.00000 0.0580367
10308.00000 0.0577539
10309.00000 0.0574712
10310.00000 0.0571886
10311.00000 0.0569034
10312.00000 0.0566183
10313.00000 0.056333
10314.00000 0.0560477
10315.00000 0.0557623
10316.00000 0.0554765
10317.00000 0.0551908
10318.00000 0.054905
10319.00000 0.0546191
10320.00000 0.0543333
10321.00000 0.0540515
10322.00000 0.0537696
10323.00000 0.0534877
10324.00000 0.0532059
10325.00000 0.052924
10326.00000 0.0526421
10327.00000 0.0523603
10328.00000 0.0520784
10329.00000 0.0517965
10330.00000 0.0515147
10331.00000 0.0512359
10332.00000 0.0509572
10333.00000 0.0506783
10334.00000 0.0503994
10335.00000 0.0501204
10336.00000 0.0498414
10337.00000 0.0495624
10338.00000 0.0492832
10339.00000 0.049004
10340.00000 0.0487246
10341.00000 0.0484947
10342.00000 0.0482647
10343.00000 0.0480346
10344.00000 0.0478044
10345.00000 0.0475741
10346.00000 0.0473437
10347.00000 0.0471131
10348.00000 0.0468825
10349.00000 0.0466518
10350.00000 0.0464209
10351.00000 0.0462033
10352.00000 0.0459855
10353.00000 0.0457675
10354.00000 0.0455493
10355.00000 0.0453309
10356.00000 0.0451123
10357.00000 0.0448935
10358.00000 0.0446746
10359.00000 0.0444555
10360.00000 0.0442362
10361.00000 0.0440001
10362.00000 0.0437641
10363.00000 0.0435281
10364.00000 0.0432922
10365.00000 0.0430565
10366.00000 0.0428208
10367.00000 0.0425852
10368.00000 0.0423496
10369.00000 0.0421142
10370.00000 0.0418787
10371.00000 0.0416523
10372.00000 0.0414258
10373.00000 0.0411992
10374.00000 0.0409727
10375.00000 0.0407461
10376.00000 0.0405195
10377.00000 0.0402928
10378.00000 0.0400661
10379.00000 0.0398394
10380.00000 0.0396126
10381.00000 0.0394417
10382.00000 0.0392708
10383.00000 0.0390999
10384.00000 0.038929
10385.00000 0.0387581
10386.00000 0.0385871
10387.00000 0.0384162
10388.00000 0.0382452
10389.00000 0.0380742
10390.00000 0.0379033
10391.00000 0.0377279
10392.00000 0.0375526
10393.00000 0.0373774
10394.00000 0.0372021
10395.00000 0.0370269
10396.00000 0.0368517
10397.00000 0.0366765
10398.00000 0.0365014
10399.00000 0.0363263
10400.00000 0.0361512
10401.00000 0.0359823
10402.00000 0.0358133
10403.00000 0.0356442
10404.00000 0.0354752
10405.00000 0.0353061
10406.00000 0.035137
10407.00000 0.0349679
10408.00000 0.0347987
10409.00000 0.0346295
10410.00000 0.0344603
10411.00000 0.0343489
10412.00000 0.0342374
10413.00000 0.034126
10414.00000 0.0340145
10415.00000 0.033903
10416.00000 0.0337914
10417.00000 0.0336799
10418.00000 0.0335683
10419.00000 0.0334567
10420.00000 0.0333451
10421.00000 0.0331736
10422.00000 0.0330021
10423.00000 0.0328306
10424.00000 0.0326591
10425.00000 0.0324875
10426.00000 0.032316
10427.00000 0.0321445
10428.00000 0.0319729
10429.00000 0.0318013
10430.00000 0.0316297
10431.00000 0.031515
10432.00000 0.0314003
10433.00000 0.0312856
10434.00000 0.0311709
10435.00000 0.0310562
10436.00000 0.0309416
10437.00000 0.0308269
10438.00000 0.0307123
10439.00000 0.0305976
10440.00000 0.030483
10441.00000 0.0303674
10442.00000 0.0302519
10443.00000 0.0301362
10444.00000 0.0300206
10445.00000 0.0299049
10446.00000 0.0297832
10447.00000 0.0296614
10448.00000 0.0295397
10449.00000 0.029418
10450.00000 0.0292962
10451.00000 0.029185
10452.00000 0.0290738
10453.00000 0.0289624
10454.00000 0.0288509
10455.00000 0.0287394
10456.00000 0.0286277
10457.00000 0.0285159
10458.00000 0.028404
10459.00000 0.0282921
10460.00000 0.0281801
10461.00000 0.0281193
10462.00000 0.0280586
10463.00000 0.0279978
10464.00000 0.0279371
10465.00000 0.0278764
10466.00000 0.0278158
10467.00000 0.0277552
10468.00000 0.0276945
10469.00000 0.027634
10470.00000 0.0275734
10471.00000 0.0274611
10472.00000 0.0273487
10473.00000 0.0272364
10474.00000 0.0271241
10475.00000 0.0270117
10476.00000 0.0268994
10477.00000 0.0267871
10478.00000 0.0266748
10479.00000 0.0265624
10480.00000 0.0264501
10481.00000 0.0263369
10482.00000 0.0262237
10483.00000 0.0261104
10484.00000 0.0259971
10485.00000 0.0258838
10486.00000 0.0257652
10487.00000 0.0256466
10488.00000 0.025528
10489.00000 0.0254094
10490.00000 0.0252909
10491.00000 0.0252326
10492.00000 0.0251743
10493.00000 0.0251161
10494.00000 0.0250579
10495.00000 0.0249998
10496.00000 0.0249417
10497.00000 0.0248837
10498.00000 0.0248257
10499.00000 0.0247678
10500.00000 0.0247099
10501.00000 0.0245962
10502.00000 0.0244825
10503.00000 0.0243689
10504.00000 0.0242553
10505.00000 0.0241418
10506.00000 0.0240284
10507.00000 0.023915
10508.00000 0.0238016
10509.00000 0.0236882
10510.00000 0.0235749
10511.00000 0.0235181
10512.00000 0.0234612
10513.00000 0.0234044
10514.00000 0.0233475
10515.00000 0.0232906
10516.00000 0.0232337
10517.00000 0.0231768
10518.00000 0.0231199
10519.00000 0.0230629
10520.00000 0.023006
10521.00000 0.0228879
10522.00000 0.0227698
10523.00000 0.0226517
10524.00000 0.0225337
10525.00000 0.0224157
10526.00000 0.0223022
10527.00000 0.0221887
10528.00000 0.0220752
10529.00000 0.0219617
10530.00000 0.0218482
10531.00000 0.0217908
10532.00000 0.0217334
10533.00000 0.0216759
10534.00000 0.0216185
10535.00000 0.0215611
10536.00000 0.0215037
10537.00000 0.0214463
10538.00000 0.0213888
10539.00000 0.0213314
10540.00000 0.021274
10541.00000 0.0212139
10542.00000 0.0211537
10543.00000 0.0210936
10544.00000 0.0210335
10545.00000 0.0209734
10546.00000 0.0209176
10547.00000 0.0208617
10548.00000 0.0208059
10549.00000 0.02075
10550.00000 0.0206941
10551.00000 0.0205788
10552.00000 0.0204636
10553.00000 0.0203483
10554.00000 0.020233
10555.00000 0.0201178
10556.00000 0.0199984
10557.00000 0.0198792
10558.00000 0.01976
10559.00000 0.0196408
10560.00000 0.0195217
10561.00000 0.0194645
10562.00000 0.0194072
10563.00000 0.01935
10564.00000 0.0192928
10565.00000 0.0192355
10566.00000 0.0191744
10567.00000 0.0191133
10568.00000 0.0190523
10569.00000 0.0189912
10570.00000 0.0189302
10571.00000 0.0188754
10572.00000 0.0188207
10573.00000 0.0187659
10574.00000 0.0187111
10575.00000 0.0186563
10576.00000 0.0185977
10577.00000 0.0185391
10578.00000 0.0184805
10579.00000 0.0184219
10580.00000 0.0183633
10581.00000 0.0183065
10582.00000 0.0182497
10583.00000 0.0181929
10584.00000 0.0181361
10585.00000 0.0180793
10586.00000 0.0180225
10587.00000 0.0179657
10588.00000 0.0179089
10589.00000 0.017852
10590.00000 0.0177952
10591.00000 0.0177369
10592.00000 0.0176787
10593.00000 0.0176204
10594.00000 0.0175622
10595.00000 0.0175039
10596.00000 0.0174492
10597.00000 0.0173945
10598.00000 0.0173398
10599.00000 0.017285
10600.00000 0.0172302
10601.00000 0.0171733
10602.00000 0.0171163
10603.00000 0.0170594
10604.00000 0.0170024
10605.00000 0.0169455
10606.00000 0.0168851
10607.00000 0.0168247
10608.00000 0.0167643
10609.00000 0.016704
10610.00000 0.0166437
10611.00000 0.0165868
10612.00000 0.0165298
10613.00000 0.0164729
10614.00000 0.016416
10615.00000 0.0163591
10616.00000 0.0163021
10617.00000 0.0162452
10618.00000 0.0161882
10619.00000 0.0161313
10620.00000 0.0160744
10621.00000 0.0160148
10622.00000 0.0159554
10623.00000 0.0158959
10624.00000 0.0158364
10625.00000 0.015777
10626.00000 0.0157208
10627.00000 0.0156645
10628.00000 0.0156083
10629.00000 0.015552
10630.00000 0.0154958
10631.00000 0.0154399
10632.00000 0.015384
10633.00000 0.0153281
10634.00000 0.0152722
10635.00000 0.0152163
10636.00000 0.0151573
10637.00000 0.0150983
10638.00000 0.0150393
10639.00000 0.0149803
10640.00000 0.0149214
10641.00000 0.0148644
10642.00000 0.0148075
10643.00000 0.0147505
10644.00000 0.0146935
10645.00000 0.0146366
10646.00000 0.0145796
10647.00000 0.0145226
10648.00000 0.0144656
10649.00000 0.0144086
10650.00000 0.0143517
10651.00000 0.014295
10652.00000 0.0142383
10653.00000 0.0141815
10654.00000 0.0141248
10655.00000 0.0140681
10656.00000 0.0140114
10657.00000 0.0139546
10658.00000 0.0138979
10659.00000 0.0138412
10660.00000 0.0137844
10661.00000 0.013728
10662.00000 0.0136715
10663.00000 0.013615
10664.00000 0.0135586
10665.00000 0.0135021
10666.00000 0.0134456
10667.00000 0.0133891
10668.00000 0.0133326
10669.00000 0.0132761
10670.00000 0.0132196
10671.00000 0.0132207
10672.00000 0.0132219
10673.00000 0.0132231
10674.00000 0.0132242
10675.00000 0.0132254
10676.00000 0.0132265
10677.00000 0.0132277
10678.00000 0.0132289
10679.00000 0.01323
10680.00000 0.0132312
10681.00000 0.0131768
10682.00000 0.0131223
10683.00000 0.0130679
10684.00000 0.0130134
10685.00000 0.0129589
10686.00000 0.0129043
10687.00000 0.0128497
10688.00000 0.0127951
10689.00000 0.0127405
10690.00000 0.0126858
10691.00000 0.0126297
10692.00000 0.0125735
10693.00000 0.0125173
10694.00000 0.012461
10695.00000 0.0124048
10696.00000 0.0123511
10697.00000 0.0122973
10698.00000 0.0122435
10699.00000 0.0121896
10700.00000 0.0121358
10701.00000 0.0121138
10702.00000 0.0120919
10703.00000 0.01207
10704.00000 0.0120481
10705.00000 0.0120262
10706.00000 0.0120042
10707.00000 0.0119823
10708.00000 0.0119603
10709.00000 0.0119384
10710.00000 0.0119164
10711.00000 0.0118367
10712.00000 0.0117573
10713.00000 0.011678
10714.00000 0.011599
10715.00000 0.0115202
10716.00000 0.0114416
10717.00000 0.0113638
10718.00000 0.0112863
10719.00000 0.0112084
10720.00000 0.0111306
10721.00000 0.0110531
10722.00000 0.0109757
10723.00000 0.0108986
10724.00000 0.0108217
10725.00000 0.010745
10726.00000 0.0106707
10727.00000 0.0105966
10728.00000 0.0105227
10729.00000 0.010449
10730.00000 0.0103754
10731.00000 0.0103029
10732.00000 0.0102306
10733.00000 0.0101585
10734.00000 0.0100865
10735.00000 0.010004
10736.00000 0.00991982
10737.00000 0.00982587
10738.00000 0.00973234
10739.00000 0.00963869
10740.00000 0.00954548
10741.00000 0.00949838
10742.00000 0.00945134
10743.00000 0.0094049
10744.00000 0.00935851
10745.00000 0.00931162
10746.00000 0.0092723
10747.00000 0.00923297
10748.00000 0.00919362
10749.00000 0.0091548
10750.00000 0.00911597
10751.00000 0.00903002
10752.00000 0.00894441
10753.00000 0.00885915
10754.00000 0.00877423
10755.00000 0.0086902
10756.00000 0.00860303
10757.00000 0.00851574
10758.00000 0.00842888
10759.00000 0.00834244
10760.00000 0.00825642
10761.00000 0.00821974
10762.00000 0.00818303
10763.00000 0.0081458
10764.00000 0.00810854
10765.00000 0.00807127
10766.00000 0.00802911
10767.00000 0.00798751
10768.00000 0.00794593
10769.00000 0.00790386
10770.00000 0.00786182
10771.00000 0.00777215
10772.00000 0.00768305
10773.00000 0.007594
10774.00000 0.00750552
10775.00000 0.00741761
10776.00000 0.00733771
10777.00000 0.00725871
10778.00000 0.00718011
10779.00000 0.00710141
10780.00000 0.00702311
10781.00000 0.00694738
10782.00000 0.00687201
10783.00000 0.00679747
10784.00000 0.00672327
10785.00000 0.00664896
10786.00000 0.00657235
10787.00000 0.00649617
10788.00000 0.00642042
10789.00000 0.00634554
10790.00000 0.00627108
10791.00000 0.00623774
10792.00000 0.00620439
10793.00000 0.00617101
10794.00000 0.00613761
10795.00000 0.00610465
10796.00000 0.00606677
10797.00000 0.00602845
10798.00000 0.00599017
10799.00000 0.00595191
10800.00000 0.00591368
10801.00000 0.00583687
10802.00000 0.00576059
10803.00000 0.0056844
10804.00000 0.00560874
10805.00000 0.00553362
10806.00000 0.00546348
10807.00000 0.0053942
10808.00000 0.00532535
10809.00000 0.00525648
10810.00000 0.00518804
10811.00000 0.00511927
10812.00000 0.00505095
10813.00000 0.00498268
10814.00000 0.00491487
10815.00000 0.00484753
10816.00000 0.00478357
10817.00000 0.00472039
10818.00000 0.00465759
10819.00000 0.00459477
10820.00000 0.00453234
10821.00000 0.00450478
10822.00000 0.00447719
10823.00000 0.00444996
10824.00000 0.0044227
10825.00000 0.00439502
10826.00000 0.00436202
10827.00000 0.00432906
10828.00000 0.00429614
10829.00000 0.00426367
10830.00000 0.00423124
10831.00000 0.00416559
10832.00000 0.0041005
10833.00000 0.00403598
10834.00000 0.00397202
10835.00000 0.003909
10836.00000 0.00385202
10837.00000 0.00379504
10838.00000 0.00373845
10839.00000 0.00368225
10840.00000 0.00362644
10841.00000 0.00360146
10842.00000 0.00357646
10843.00000 0.00355106
10844.00000 0.00352563
10845.00000 0.00350018
10846.00000 0.00347189
10847.00000 0.00344398
10848.00000 0.00341609
10849.00000 0.00338785
10850.00000 0.00335964
10851.00000 0.00330131
10852.00000 0.00324355
10853.00000 0.00318672
10854.00000 0.00313044
10855.00000 0.00307437
10856.00000 0.00301517
10857.00000 0.00295699
10858.00000 0.00289949
10859.00000 0.00284232
10860.00000 0.00278583
10861.00000 0.00273485
10862.00000 0.00268435
10863.00000 0.00263466
10864.00000 0.00258546
10865.00000 0.00253642
10866.00000 0.00249403
10867.00000 0.00245189
10868.00000 0.00241001
10869.00000 0.00236869
10870.00000 0.00232764
10871.00000 0.00230924
10872.00000 0.00229077
10873.00000 0.0022722
10874.00000 0.00225355
10875.00000 0.00223512
10876.00000 0.00221392
10877.00000 0.00219238
10878.00000 0.00217081
10879.00000 0.00214921
10880.00000 0.00212758
10881.00000 0.00208267
10882.00000 0.00203825
10883.00000 0.00199404
10884.00000 0.00195033
10885.00000 0.00190713
10886.00000 0.00186331
10887.00000 0.00182032
10888.00000 0.00177787
10889.00000 0.0017357
10890.00000 0.00169407
10891.00000 0.00165392
10892.00000 0.00161428
10893.00000 0.0015754
10894.00000 0.00153702
10895.00000 0.00149887
10896.00000 0.00146152
10897.00000 0.00142466
10898.00000 0.00138828
10899.00000 0.00135263
10900.00000 0.00131745
10901.00000 0.00129839
10902.00000 0.00127934
10903.00000 0.00126057
10904.00000 0.00124182
10905.00000 0.00122285
10906.00000 0.00120663
10907.00000 0.00119035
10908.00000 0.00117401
10909.00000 0.00115785
10910.00000 0.00114164
10911.00000 0.00111048
10912.00000 0.00107971
10913.00000 0.00104932
10914.00000 0.00101934
10915.00000 0.000989972
10916.00000 0.000957692
10917.00000 0.000925785
10918.00000 0.000894477
10919.00000 0.000863764
10920.00000 0.000833644
10921.00000 0.00080443
10922.00000 0.000775787
10923.00000 0.000747512
10924.00000 0.000719809
10925.00000 0.000692676
10926.00000 0.000668325
10927.00000 0.000644563
10928.00000 0.000621196
10929.00000 0.000598044
10930.00000 0.000575295
10931.00000 0.00055361
10932.00000 0.000532279
10933.00000 0.000511477
10934.00000 0.000491029
10935.00000 0.00047077
10936.00000 0.000449956
10937.00000 0.000429594
10938.00000 0.000409683
10939.00000 0.000390379
10940.00000 0.00037152
10941.00000 0.000352258
10942.00000 0.000333521
10943.00000 0.000315447
10944.00000 0.000297885
10945.00000 0.000280697
10946.00000 0.000264513
10947.00000 0.000248782
10948.00000 0.000233503
10949.00000 0.000218801
10950.00000 0.000204544
10951.00000 0.000199941
10952.00000 0.000195338
10953.00000 0.000190737
10954.00000 0.000186137
10955.00000 0.000181538
10956.00000 0.000176795
10957.00000 0.00017218
10958.00000 0.000167573
10959.00000 0.000162855
10960.00000 0.000158146
10961.00000 0.000150005
10962.00000 0.000142063
10963.00000 0.000134435
10964.00000 0.000127003
10965.00000 0.000119664
10966.00000 0.000112507
10967.00000 0.000105558
10968.00000 9.88193e-05
10969.00000 9.22915e-05
10970.00000 8.59755e-05
10971.00000 7.96863e-05
10972.00000 7.36458e-05
10973.00000 6.77709e-05
10974.00000 6.21484e-05
10975.00000 5.67769e-05
10976.00000 5.16869e-05
10977.00000 4.69083e-05
10978.00000 4.23647e-05
10979.00000 3.79924e-05
10980.00000 3.38595e-05
10981.00000 2.99936e-05
10982.00000 2.63582e-05
10983.00000 2.29531e-05
10984.00000 1.9778e-05
10985.00000 1.90424e-05
10986.00000 1.72425e-05
10987.00000 1.47056e-05
10988.00000 1.18446e-05
10989.00000 8.9812e-06
10990.00000 6.3648e-06
10991.00000 4.1879e-06
10992.00000 2.4843e-06
10993.00000 1.2436e-06
10994.00000 4.436e-07
10995.00000 1.49e-07
10996.00000 0.0
