# %ECSV 0.9
# ---
# datatype:
# - {name: wavelength, unit: Angstrom, datatype: float32}
# - {name: response, datatype: float32}
# meta: !!omap
# - {band_name: J}
# - {group_name: IRCS}
wavelength response
10294.20020 0.0
11438.00000 0.004065
11440.00000 0.003951
11442.00000 0.003832
11444.00000 0.00476
11446.00000 0.00441
11448.00000 0.004148
11450.00000 0.004839
11452.00000 0.004965
11454.00000 0.005056
11456.00000 0.005962
11458.00000 0.006167
11460.00000 0.005598
11462.00000 0.006161
11464.00000 0.006255
11466.00000 0.006345
11468.00000 0.006461
11470.00000 0.007147
11472.00000 0.008147
11474.00000 0.008132
11476.00000 0.008587
11478.00000 0.008793
11480.00000 0.008555
11482.00000 0.00945
11484.00000 0.010009
11486.00000 0.010037
11488.00000 0.010374
11490.00000 0.01067
11492.00000 0.011241
11494.00000 0.011212
11496.00000 0.01175
11498.00000 0.013184
11500.00000 0.01342
11502.00000 0.01341
11504.00000 0.014419
11506.00000 0.015322
11508.00000 0.015664
11510.00000 0.016246
11512.00000 0.017034
11514.00000 0.017562
11516.00000 0.018055
11518.00000 0.018739
11520.00000 0.019686
11522.00000 0.020665
11524.00000 0.021215
11526.00000 0.0217
11528.00000 0.02357
11530.00000 0.0247
11532.00000 0.025019
11534.00000 0.025702
11536.00000 0.026606
11538.00000 0.028225
11540.00000 0.029561
11542.00000 0.030829
11544.00000 0.032305
11546.00000 0.033696
11548.00000 0.035091
11550.00000 0.036001
11552.00000 0.037306
11554.00000 0.039492
11556.00000 0.04094
11558.00000 0.042171
11560.00000 0.044117
11562.00000 0.046079
11564.00000 0.04782
11566.00000 0.049736
11568.00000 0.052397
11570.00000 0.054621
11572.00000 0.056647
11574.00000 0.059411
11576.00000 0.062083
11578.00000 0.065892
11580.00000 0.068713
11582.00000 0.071118
11584.00000 0.075134
11586.00000 0.077636
11588.00000 0.08089
11590.00000 0.085807
11592.00000 0.088988
11594.00000 0.092783
11596.00000 0.098374
11598.00000 0.102811
11600.00000 0.107165
11602.00000 0.113473
11604.00000 0.118683
11606.00000 0.123147
11608.00000 0.130165
11610.00000 0.136527
11612.00000 0.14193
11614.00000 0.150202
11616.00000 0.157794
11618.00000 0.165266
11620.00000 0.174978
11622.00000 0.182515
11624.00000 0.19054
11626.00000 0.200925
11628.00000 0.210394
11630.00000 0.21963
11632.00000 0.230656
11634.00000 0.241692
11636.00000 0.254804
11638.00000 0.268726
11640.00000 0.280951
11642.00000 0.293732
11644.00000 0.306815
11646.00000 0.323266
11648.00000 0.338124
11650.00000 0.354057
11652.00000 0.372375
11654.00000 0.386052
11656.00000 0.4042
11658.00000 0.42126
11660.00000 0.437186
11662.00000 0.45798
11664.00000 0.473209
11666.00000 0.490555
11668.00000 0.510926
11670.00000 0.530948
11672.00000 0.551418
11674.00000 0.567954
11676.00000 0.587747
11678.00000 0.605254
11680.00000 0.620486
11682.00000 0.639837
11684.00000 0.655371
11686.00000 0.67237
11688.00000 0.692703
11690.00000 0.706343
11692.00000 0.718613
11694.00000 0.73191
11696.00000 0.743513
11698.00000 0.755702
11700.00000 0.766848
11702.00000 0.776602
11704.00000 0.787031
11706.00000 0.796401
11708.00000 0.80457
11710.00000 0.809894
11712.00000 0.812978
11714.00000 0.816357
11716.00000 0.82087
11718.00000 0.825682
11720.00000 0.828245
11722.00000 0.829974
11724.00000 0.831301
11726.00000 0.831955
11728.00000 0.83136
11730.00000 0.832028
11732.00000 0.831691
11734.00000 0.830248
11736.00000 0.829586
11738.00000 0.828771
11740.00000 0.827101
11742.00000 0.825071
11744.00000 0.821628
11746.00000 0.818939
11748.00000 0.819408
11750.00000 0.817037
11752.00000 0.814276
11754.00000 0.813231
11756.00000 0.810057
11758.00000 0.806574
11760.00000 0.804713
11762.00000 0.802651
11764.00000 0.801727
11766.00000 0.799866
11768.00000 0.796568
11770.00000 0.794974
11772.00000 0.794249
11774.00000 0.79256
11776.00000 0.789977
11778.00000 0.790171
11780.00000 0.789868
11782.00000 0.78842
11784.00000 0.788196
11786.00000 0.787391
11788.00000 0.786348
11790.00000 0.786008
11792.00000 0.785177
11794.00000 0.784135
11796.00000 0.785985
11798.00000 0.787348
11800.00000 0.787526
11802.00000 0.788289
11804.00000 0.787971
11806.00000 0.787141
11808.00000 0.788165
11810.00000 0.789307
11812.00000 0.789083
11814.00000 0.790595
11816.00000 0.791765
11818.00000 0.791515
11820.00000 0.792675
11822.00000 0.793223
11824.00000 0.793451
11826.00000 0.79607
11828.00000 0.797933
11830.00000 0.799014
11832.00000 0.801538
11834.00000 0.802409
11836.00000 0.801924
11838.00000 0.801405
11840.00000 0.801806
11842.00000 0.801596
11844.00000 0.803105
11846.00000 0.806271
11848.00000 0.807932
11850.00000 0.808015
11852.00000 0.808172
11854.00000 0.80938
11856.00000 0.809854
11858.00000 0.811786
11860.00000 0.812629
11862.00000 0.813423
11864.00000 0.816356
11866.00000 0.816118
11868.00000 0.813539
11870.00000 0.81528
11872.00000 0.817636
11874.00000 0.818511
11876.00000 0.820743
11878.00000 0.820521
11880.00000 0.819332
11882.00000 0.821205
11884.00000 0.820146
11886.00000 0.817429
11888.00000 0.819171
11890.00000 0.820204
11892.00000 0.819929
11894.00000 0.821845
11896.00000 0.8224
11898.00000 0.820584
11900.00000 0.820751
11902.00000 0.820615
11904.00000 0.819069
11906.00000 0.819464
11908.00000 0.820742
11910.00000 0.820968
11912.00000 0.820667
11914.00000 0.820029
11916.00000 0.819092
11918.00000 0.819013
11920.00000 0.818549
11922.00000 0.817939
11924.00000 0.820375
11926.00000 0.820751
11928.00000 0.818032
11930.00000 0.817586
11932.00000 0.818466
11934.00000 0.817395
11936.00000 0.818101
11938.00000 0.818933
11940.00000 0.817862
11942.00000 0.81829
11944.00000 0.818723
11946.00000 0.817337
11948.00000 0.81808
11950.00000 0.819381
11952.00000 0.818327
11954.00000 0.818231
11956.00000 0.819652
11958.00000 0.821515
11960.00000 0.821748
11962.00000 0.82243
11964.00000 0.820881
11966.00000 0.820256
11968.00000 0.822119
11970.00000 0.822875
11972.00000 0.823472
11974.00000 0.825257
11976.00000 0.825514
11978.00000 0.824039
11980.00000 0.826067
11982.00000 0.827111
11984.00000 0.826843
11986.00000 0.8287
11988.00000 0.830149
11990.00000 0.830873
11992.00000 0.833409
11994.00000 0.833997
11996.00000 0.833111
11998.00000 0.835315
12000.00000 0.836008
12002.00000 0.836882
12004.00000 0.840233
12006.00000 0.84082
12008.00000 0.840472
12010.00000 0.84303
12012.00000 0.84419
12014.00000 0.843891
12016.00000 0.846345
12018.00000 0.848825
12020.00000 0.849893
12022.00000 0.852287
12024.00000 0.852636
12026.00000 0.852026
12028.00000 0.856132
12030.00000 0.857392
12032.00000 0.856555
12034.00000 0.860778
12036.00000 0.862338
12038.00000 0.859949
12040.00000 0.861308
12042.00000 0.864118
12044.00000 0.864163
12046.00000 0.865613
12048.00000 0.867831
12050.00000 0.868038
12052.00000 0.87019
12054.00000 0.871647
12056.00000 0.869529
12058.00000 0.872056
12060.00000 0.875283
12062.00000 0.873113
12064.00000 0.873787
12066.00000 0.87673
12068.00000 0.877119
12070.00000 0.875672
12072.00000 0.875736
12074.00000 0.876703
12076.00000 0.877726
12078.00000 0.877975
12080.00000 0.877328
12082.00000 0.877206
12084.00000 0.878009
12086.00000 0.877927
12088.00000 0.876833
12090.00000 0.878426
12092.00000 0.879375
12094.00000 0.878844
12096.00000 0.878915
12098.00000 0.878498
12100.00000 0.876465
12102.00000 0.876396
12104.00000 0.875412
12106.00000 0.873495
12108.00000 0.875034
12110.00000 0.874296
12112.00000 0.870992
12114.00000 0.871589
12116.00000 0.871163
12118.00000 0.86836
12120.00000 0.869746
12122.00000 0.869336
12124.00000 0.865943
12126.00000 0.866126
12128.00000 0.864262
12130.00000 0.860283
12132.00000 0.860149
12134.00000 0.860091
12136.00000 0.858275
12138.00000 0.858459
12140.00000 0.857394
12142.00000 0.854107
12144.00000 0.852464
12146.00000 0.852223
12148.00000 0.850078
12150.00000 0.849831
12152.00000 0.850654
12154.00000 0.848021
12156.00000 0.846976
12158.00000 0.845688
12160.00000 0.842149
12162.00000 0.840481
12164.00000 0.840966
12166.00000 0.840079
12168.00000 0.839474
12170.00000 0.837945
12172.00000 0.835428
12174.00000 0.833924
12176.00000 0.833174
12178.00000 0.832157
12180.00000 0.832233
12182.00000 0.830375
12184.00000 0.827777
12186.00000 0.829249
12188.00000 0.828246
12190.00000 0.824525
12192.00000 0.823141
12194.00000 0.824536
12196.00000 0.824458
12198.00000 0.824606
12200.00000 0.824782
12202.00000 0.822712
12204.00000 0.821649
12206.00000 0.821137
12208.00000 0.821203
12210.00000 0.820925
12212.00000 0.820921
12214.00000 0.820652
12216.00000 0.82058
12218.00000 0.82023
12220.00000 0.818945
12222.00000 0.817584
12224.00000 0.818325
12226.00000 0.819715
12228.00000 0.820139
12230.00000 0.819315
12232.00000 0.817283
12234.00000 0.816442
12236.00000 0.818628
12238.00000 0.820426
12240.00000 0.818601
12242.00000 0.819792
12244.00000 0.820461
12246.00000 0.819217
12248.00000 0.820551
12250.00000 0.821314
12252.00000 0.821196
12254.00000 0.822973
12256.00000 0.824072
12258.00000 0.824361
12260.00000 0.827149
12262.00000 0.826832
12264.00000 0.824184
12266.00000 0.825961
12268.00000 0.827802
12270.00000 0.828267
12272.00000 0.830016
12274.00000 0.830984
12276.00000 0.829976
12278.00000 0.831583
12280.00000 0.830586
12282.00000 0.829136
12284.00000 0.832325
12286.00000 0.834436
12288.00000 0.8356
12290.00000 0.836554
12292.00000 0.836152
12294.00000 0.83512
12296.00000 0.836958
12298.00000 0.839103
12300.00000 0.839915
12302.00000 0.842315
12304.00000 0.844236
12306.00000 0.842566
12308.00000 0.842493
12310.00000 0.843191
12312.00000 0.842605
12314.00000 0.845349
12316.00000 0.847487
12318.00000 0.847494
12320.00000 0.849393
12322.00000 0.850563
12324.00000 0.849701
12326.00000 0.849972
12328.00000 0.851159
12330.00000 0.852737
12332.00000 0.854548
12334.00000 0.85609
12336.00000 0.855978
12338.00000 0.855998
12340.00000 0.857691
12342.00000 0.856888
12344.00000 0.856091
12346.00000 0.858794
12348.00000 0.860023
12350.00000 0.859756
12352.00000 0.861226
12354.00000 0.85941
12356.00000 0.856762
12358.00000 0.860469
12360.00000 0.862613
12362.00000 0.859895
12364.00000 0.86295
12366.00000 0.865415
12368.00000 0.862143
12370.00000 0.862862
12372.00000 0.862581
12374.00000 0.86078
12376.00000 0.863302
12378.00000 0.864518
12380.00000 0.863105
12382.00000 0.864947
12384.00000 0.86476
12386.00000 0.860972
12388.00000 0.862592
12390.00000 0.863319
12392.00000 0.862064
12394.00000 0.864771
12396.00000 0.866315
12398.00000 0.864446
12400.00000 0.864806
12402.00000 0.863707
12404.00000 0.861821
12406.00000 0.864606
12408.00000 0.865303
12410.00000 0.863114
12412.00000 0.864071
12414.00000 0.864513
12416.00000 0.862063
12418.00000 0.86083
12420.00000 0.861986
12422.00000 0.863135
12424.00000 0.863223
12426.00000 0.862601
12428.00000 0.861209
12430.00000 0.861291
12432.00000 0.861143
12434.00000 0.859248
12436.00000 0.858927
12438.00000 0.860641
12440.00000 0.86077
12442.00000 0.860938
12444.00000 0.861757
12446.00000 0.8599
12448.00000 0.857359
12450.00000 0.857692
12452.00000 0.859022
12454.00000 0.859868
12456.00000 0.860407
12458.00000 0.860469
12460.00000 0.859811
12462.00000 0.859293
12464.00000 0.859722
12466.00000 0.858766
12468.00000 0.860427
12470.00000 0.862642
12472.00000 0.860257
12474.00000 0.860269
12476.00000 0.859852
12478.00000 0.85831
12480.00000 0.860027
12482.00000 0.860492
12484.00000 0.859553
12486.00000 0.860203
12488.00000 0.860686
12490.00000 0.85951
12492.00000 0.861157
12494.00000 0.862204
12496.00000 0.859591
12498.00000 0.861183
12500.00000 0.862864
12502.00000 0.860551
12504.00000 0.862041
12506.00000 0.863471
12508.00000 0.862243
12510.00000 0.863627
12512.00000 0.864007
12514.00000 0.863505
12516.00000 0.865657
12518.00000 0.866214
12520.00000 0.864365
12522.00000 0.865352
12524.00000 0.866628
12526.00000 0.867738
12528.00000 0.868992
12530.00000 0.870599
12532.00000 0.870805
12534.00000 0.870985
12536.00000 0.871631
12538.00000 0.869816
12540.00000 0.871381
12542.00000 0.872885
12544.00000 0.872369
12546.00000 0.873469
12548.00000 0.875334
12550.00000 0.876367
12552.00000 0.876707
12554.00000 0.877869
12556.00000 0.878807
12558.00000 0.877804
12560.00000 0.877643
12562.00000 0.878939
12564.00000 0.880232
12566.00000 0.881718
12568.00000 0.881453
12570.00000 0.881932
12572.00000 0.883488
12574.00000 0.883662
12576.00000 0.88495
12578.00000 0.887448
12580.00000 0.888862
12582.00000 0.888037
12584.00000 0.88906
12586.00000 0.891111
12588.00000 0.89149
12590.00000 0.892228
12592.00000 0.8931
12594.00000 0.893973
12596.00000 0.896638
12598.00000 0.897296
12600.00000 0.89545
12602.00000 0.896147
12604.00000 0.897849
12606.00000 0.897979
12608.00000 0.899818
12610.00000 0.902117
12612.00000 0.900817
12614.00000 0.902031
12616.00000 0.903761
12618.00000 0.901933
12620.00000 0.904219
12622.00000 0.90555
12624.00000 0.904303
12626.00000 0.908339
12628.00000 0.909042
12630.00000 0.906015
12632.00000 0.909004
12634.00000 0.910467
12636.00000 0.908781
12638.00000 0.911251
12640.00000 0.913265
12642.00000 0.912894
12644.00000 0.914652
12646.00000 0.915259
12648.00000 0.912805
12650.00000 0.914747
12652.00000 0.916168
12654.00000 0.91575
12656.00000 0.918711
12658.00000 0.920357
12660.00000 0.917933
12662.00000 0.918273
12664.00000 0.919155
12666.00000 0.918485
12668.00000 0.919645
12670.00000 0.920933
12672.00000 0.921093
12674.00000 0.921814
12676.00000 0.923304
12678.00000 0.923075
12680.00000 0.923092
12682.00000 0.924487
12684.00000 0.92482
12686.00000 0.924506
12688.00000 0.92621
12690.00000 0.926741
12692.00000 0.927857
12694.00000 0.927943
12696.00000 0.926199
12698.00000 0.92669
12700.00000 0.928012
12702.00000 0.928298
12704.00000 0.927583
12706.00000 0.928059
12708.00000 0.929593
12710.00000 0.92958
12712.00000 0.929553
12714.00000 0.930157
12716.00000 0.929916
12718.00000 0.930905
12720.00000 0.932258
12722.00000 0.931635
12724.00000 0.932747
12726.00000 0.933012
12728.00000 0.929655
12730.00000 0.929506
12732.00000 0.93098
12734.00000 0.930129
12736.00000 0.932734
12738.00000 0.935175
12740.00000 0.932868
12742.00000 0.932227
12744.00000 0.931858
12746.00000 0.929698
12748.00000 0.930715
12750.00000 0.933133
12752.00000 0.931992
12754.00000 0.932475
12756.00000 0.931791
12758.00000 0.928244
12760.00000 0.929434
12762.00000 0.929309
12764.00000 0.927386
12766.00000 0.92918
12768.00000 0.930352
12770.00000 0.929768
12772.00000 0.9312
12774.00000 0.930125
12776.00000 0.927161
12778.00000 0.928066
12780.00000 0.928482
12782.00000 0.927737
12784.00000 0.929458
12786.00000 0.928902
12788.00000 0.925669
12790.00000 0.925638
12792.00000 0.925511
12794.00000 0.924538
12796.00000 0.92498
12798.00000 0.925857
12800.00000 0.925579
12802.00000 0.923972
12804.00000 0.921048
12806.00000 0.919671
12808.00000 0.920183
12810.00000 0.921005
12812.00000 0.921307
12814.00000 0.920872
12816.00000 0.920178
12818.00000 0.917231
12820.00000 0.914722
12822.00000 0.914257
12824.00000 0.913936
12826.00000 0.915288
12828.00000 0.915752
12830.00000 0.914252
12832.00000 0.913603
12834.00000 0.911598
12836.00000 0.910111
12838.00000 0.911025
12840.00000 0.911399
12842.00000 0.911427
12844.00000 0.910296
12846.00000 0.908355
12848.00000 0.907117
12850.00000 0.905015
12852.00000 0.903453
12854.00000 0.904261
12856.00000 0.905812
12858.00000 0.905643
12860.00000 0.903189
12862.00000 0.900626
12864.00000 0.900065
12866.00000 0.898295
12868.00000 0.897884
12870.00000 0.901138
12872.00000 0.900563
12874.00000 0.896918
12876.00000 0.895553
12878.00000 0.894771
12880.00000 0.893363
12882.00000 0.893795
12884.00000 0.894097
12886.00000 0.891691
12888.00000 0.891839
12890.00000 0.891578
12892.00000 0.887766
12894.00000 0.887864
12896.00000 0.889019
12898.00000 0.887293
12900.00000 0.887518
12902.00000 0.887211
12904.00000 0.885324
12906.00000 0.885961
12908.00000 0.885085
12910.00000 0.883184
12912.00000 0.88503
12914.00000 0.884662
12916.00000 0.882874
12918.00000 0.883915
12920.00000 0.884009
12922.00000 0.881448
12924.00000 0.880301
12926.00000 0.880788
12928.00000 0.881472
12930.00000 0.881999
12932.00000 0.881279
12934.00000 0.880817
12936.00000 0.879619
12938.00000 0.877503
12940.00000 0.876735
12942.00000 0.877275
12944.00000 0.87738
12946.00000 0.875621
12948.00000 0.875206
12950.00000 0.875615
12952.00000 0.87341
12954.00000 0.872697
12956.00000 0.873983
12958.00000 0.874504
12960.00000 0.875143
12962.00000 0.874446
12964.00000 0.873985
12966.00000 0.874875
12968.00000 0.874493
12970.00000 0.874332
12972.00000 0.873599
12974.00000 0.873401
12976.00000 0.873773
12978.00000 0.87323
12980.00000 0.872899
12982.00000 0.873857
12984.00000 0.872409
12986.00000 0.869987
12988.00000 0.869379
12990.00000 0.869459
12992.00000 0.870298
12994.00000 0.869769
12996.00000 0.869363
12998.00000 0.869212
13000.00000 0.867998
13002.00000 0.867951
13004.00000 0.868368
13006.00000 0.869248
13008.00000 0.868969
13010.00000 0.867895
13012.00000 0.867498
13014.00000 0.865585
13016.00000 0.864971
13018.00000 0.864739
13020.00000 0.865765
13022.00000 0.866397
13024.00000 0.864785
13026.00000 0.863641
13028.00000 0.861635
13030.00000 0.86055
13032.00000 0.860275
13034.00000 0.859403
13036.00000 0.859425
13038.00000 0.859251
13040.00000 0.858575
13042.00000 0.858636
13044.00000 0.857653
13046.00000 0.855614
13048.00000 0.855356
13050.00000 0.855104
13052.00000 0.853937
13054.00000 0.853522
13056.00000 0.852439
13058.00000 0.850314
13060.00000 0.848665
13062.00000 0.84935
13064.00000 0.847849
13066.00000 0.846905
13068.00000 0.847961
13070.00000 0.845161
13072.00000 0.844856
13074.00000 0.843848
13076.00000 0.842571
13078.00000 0.843735
13080.00000 0.842718
13082.00000 0.841763
13084.00000 0.841774
13086.00000 0.840985
13088.00000 0.838294
13090.00000 0.837269
13092.00000 0.837832
13094.00000 0.838286
13096.00000 0.838983
13098.00000 0.839594
13100.00000 0.838056
13102.00000 0.837208
13104.00000 0.837155
13106.00000 0.834696
13108.00000 0.833982
13110.00000 0.835516
13112.00000 0.834995
13114.00000 0.834686
13116.00000 0.835641
13118.00000 0.834216
13120.00000 0.83309
13122.00000 0.833739
13124.00000 0.835365
13126.00000 0.835506
13128.00000 0.835599
13130.00000 0.837447
13132.00000 0.837922
13134.00000 0.838457
13136.00000 0.838935
13138.00000 0.840555
13140.00000 0.842916
13142.00000 0.843578
13144.00000 0.844578
13146.00000 0.847239
13148.00000 0.847549
13150.00000 0.848224
13152.00000 0.850097
13154.00000 0.850516
13156.00000 0.853136
13158.00000 0.856424
13160.00000 0.857481
13162.00000 0.859718
13164.00000 0.86223
13166.00000 0.863524
13168.00000 0.865038
13170.00000 0.867324
13172.00000 0.869602
13174.00000 0.87076
13176.00000 0.873228
13178.00000 0.87663
13180.00000 0.879268
13182.00000 0.881782
13184.00000 0.881804
13186.00000 0.882548
13188.00000 0.88606
13190.00000 0.888232
13192.00000 0.888254
13194.00000 0.891305
13196.00000 0.89374
13198.00000 0.892558
13200.00000 0.893993
13202.00000 0.89503
13204.00000 0.895271
13206.00000 0.895822
13208.00000 0.895986
13210.00000 0.893304
13212.00000 0.891777
13214.00000 0.889591
13216.00000 0.885453
13218.00000 0.882193
13220.00000 0.879649
13222.00000 0.87514
13224.00000 0.870822
13226.00000 0.865422
13228.00000 0.856119
13230.00000 0.849135
13232.00000 0.842122
13234.00000 0.832961
13236.00000 0.823458
13238.00000 0.812566
13240.00000 0.799244
13242.00000 0.786793
13244.00000 0.777435
13246.00000 0.764262
13248.00000 0.747548
13250.00000 0.734425
13252.00000 0.718288
13254.00000 0.701279
13256.00000 0.685237
13258.00000 0.666387
13260.00000 0.648447
13262.00000 0.631387
13264.00000 0.616274
13266.00000 0.600329
13268.00000 0.57918
13270.00000 0.56109
13272.00000 0.543777
13274.00000 0.523869
13276.00000 0.505991
13278.00000 0.486397
13280.00000 0.468159
13282.00000 0.452663
13284.00000 0.436789
13286.00000 0.418871
13288.00000 0.400825
13290.00000 0.385848
13292.00000 0.368782
13294.00000 0.353852
13296.00000 0.341527
13298.00000 0.32469
13300.00000 0.31086
13302.00000 0.299006
13304.00000 0.284954
13306.00000 0.274802
13308.00000 0.263486
13310.00000 0.249609
13312.00000 0.238996
13314.00000 0.229322
13316.00000 0.218514
13318.00000 0.208581
13320.00000 0.200136
13322.00000 0.191228
13324.00000 0.182704
13326.00000 0.175528
13328.00000 0.167203
13330.00000 0.159748
13332.00000 0.153587
13334.00000 0.146197
13336.00000 0.14032
13338.00000 0.134145
13340.00000 0.127358
13342.00000 0.122593
13344.00000 0.118147
13346.00000 0.112947
13348.00000 0.108343
13350.00000 0.103837
13352.00000 0.098575
13354.00000 0.094773
13356.00000 0.091224
13358.00000 0.085592
13360.00000 0.082801
13362.00000 0.081453
13364.00000 0.077655
13366.00000 0.074553
13368.00000 0.072124
13370.00000 0.06946
13372.00000 0.066702
13374.00000 0.063877
13376.00000 0.061786
13378.00000 0.058956
13380.00000 0.056725
13382.00000 0.055025
13384.00000 0.052556
13386.00000 0.051128
13388.00000 0.048755
13390.00000 0.046764
13392.00000 0.045362
13394.00000 0.043343
13396.00000 0.041446
13398.00000 0.039441
13400.00000 0.038545
13402.00000 0.038232
13404.00000 0.036624
13406.00000 0.034869
13408.00000 0.033793
13410.00000 0.032713
13412.00000 0.031559
13414.00000 0.030167
13416.00000 0.029722
13418.00000 0.028687
13420.00000 0.026573
13422.00000 0.026297
13424.00000 0.025858
13426.00000 0.024371
13428.00000 0.023846
13430.00000 0.023054
13432.00000 0.021784
13434.00000 0.02208
13436.00000 0.021963
13438.00000 0.020851
13440.00000 0.020291
13442.00000 0.019591
13444.00000 0.019171
13446.00000 0.018896
13448.00000 0.017524
13450.00000 0.016171
13452.00000 0.016201
13454.00000 0.01593
13456.00000 0.016005
13458.00000 0.016055
13460.00000 0.014942
13462.00000 0.01446
13464.00000 0.014223
13466.00000 0.013821
13468.00000 0.013305
13470.00000 0.012594
13472.00000 0.012835
13474.00000 0.012421
13476.00000 0.011981
13478.00000 0.011963
13480.00000 0.011558
13482.00000 0.01128
13484.00000 0.011433
13486.00000 0.011451
13488.00000 0.010467
13490.00000 0.010033
13492.00000 0.009762
13494.00000 0.009372
13496.00000 0.009275
13498.00000 0.008959
13500.00000 0.008839
13502.00000 0.00916
13504.00000 0.00877
13506.00000 0.007784
13508.00000 0.00777
13510.00000 0.00808
13512.00000 0.008102
13514.00000 0.007702
13516.00000 0.006975
13518.00000 0.006552
13520.00000 0.006718
13522.00000 0.007184
13524.00000 0.006902
13526.00000 0.007089
13528.00000 0.007273
13530.00000 0.007469
13532.00000 0.007061
13534.00000 0.006367
13536.00000 0.006116
13538.00000 0.00553
13540.00000 0.005382
13542.00000 0.005678
13544.00000 0.005991
13546.00000 0.005831
13548.00000 0.005635
13550.00000 0.005297
13552.00000 0.005163
13554.00000 0.004678
13556.00000 0.004678
13558.00000 0.004846
13560.00000 0.004989
13562.00000 0.005912
13564.00000 0.006394
13566.00000 0.004986
14922.59961 0.0
