# %ECSV 0.9
# ---
# datatype:
# - {name: wavelength, unit: Angstrom, datatype: float32}
# - {name: response, datatype: float32}
# meta: !!omap
# - {band_name: Si5}
# - {group_name: CanariCam}
wavelength response
95112.00000 0.0
105680.00000 0.004015
105690.00000 0.004047
105700.00000 0.00408
105710.00000 0.004113
105720.00000 0.004146
105730.00000 0.00418
105740.00000 0.004214
105750.00000 0.004249
105760.00000 0.004284
105770.00000 0.004319
105780.00000 0.004355
105790.00000 0.004392
105800.00000 0.004428
105810.00000 0.004466
105820.00000 0.004504
105830.00000 0.004542
105840.00000 0.004581
105850.00000 0.004621
105860.00000 0.004661
105870.00000 0.004702
105880.00000 0.004743
105890.00000 0.004785
105900.00000 0.004828
105910.00000 0.004872
105920.00000 0.004916
105930.00000 0.004961
105940.00000 0.005007
105950.00000 0.005053
105960.00000 0.005101
105970.00000 0.005148
105980.00000 0.005197
105990.00000 0.005246
106000.00000 0.005296
106010.00000 0.005346
106020.00000 0.005397
106030.00000 0.005449
106040.00000 0.005501
106050.00000 0.005554
106060.00000 0.005607
106070.00000 0.005661
106080.00000 0.005715
106090.00000 0.00577
106100.00000 0.005826
106110.00000 0.005882
106120.00000 0.005939
106130.00000 0.005995
106140.00000 0.006053
106150.00000 0.006111
106160.00000 0.00617
106170.00000 0.006229
106180.00000 0.006288
106190.00000 0.006349
106200.00000 0.00641
106210.00000 0.006471
106220.00000 0.006534
106230.00000 0.006596
106240.00000 0.00666
106250.00000 0.006723
106260.00000 0.006787
106270.00000 0.006852
106280.00000 0.006918
106290.00000 0.006983
106300.00000 0.007049
106310.00000 0.007116
106320.00000 0.007183
106330.00000 0.00725
106340.00000 0.007318
106350.00000 0.007386
106360.00000 0.007454
106370.00000 0.007522
106380.00000 0.007591
106390.00000 0.00766
106400.00000 0.00773
106410.00000 0.007799
106420.00000 0.007869
106430.00000 0.007939
106440.00000 0.008009
106450.00000 0.008079
106460.00000 0.00815
106470.00000 0.008222
106480.00000 0.008293
106490.00000 0.008366
106500.00000 0.008438
106510.00000 0.008512
106520.00000 0.008585
106530.00000 0.00866
106540.00000 0.008735
106550.00000 0.008811
106560.00000 0.008887
106570.00000 0.008964
106580.00000 0.009042
106590.00000 0.009121
106600.00000 0.009201
106610.00000 0.009281
106620.00000 0.009362
106630.00000 0.009444
106640.00000 0.009526
106650.00000 0.009608
106660.00000 0.009691
106670.00000 0.009775
106680.00000 0.009859
106690.00000 0.009944
106700.00000 0.010029
106710.00000 0.010115
106720.00000 0.010202
106730.00000 0.01029
106740.00000 0.010378
106750.00000 0.010468
106760.00000 0.010558
106770.00000 0.010649
106780.00000 0.010741
106790.00000 0.010834
106800.00000 0.010928
106810.00000 0.011023
106820.00000 0.011119
106830.00000 0.011217
106840.00000 0.011315
106850.00000 0.011415
106860.00000 0.011515
106870.00000 0.011616
106880.00000 0.011717
106890.00000 0.011819
106900.00000 0.011922
106910.00000 0.012026
106920.00000 0.012131
106930.00000 0.012237
106940.00000 0.012344
106950.00000 0.012452
106960.00000 0.012561
106970.00000 0.01267
106980.00000 0.012781
106990.00000 0.012894
107000.00000 0.013007
107010.00000 0.013122
107020.00000 0.013237
107030.00000 0.013355
107040.00000 0.013473
107050.00000 0.013593
107060.00000 0.013714
107070.00000 0.013837
107080.00000 0.013961
107090.00000 0.014085
107100.00000 0.01421
107110.00000 0.014336
107120.00000 0.014464
107130.00000 0.014592
107140.00000 0.014721
107150.00000 0.014851
107160.00000 0.014983
107170.00000 0.015116
107180.00000 0.01525
107190.00000 0.015386
107200.00000 0.015523
107210.00000 0.015662
107220.00000 0.015802
107230.00000 0.015944
107240.00000 0.016087
107250.00000 0.016233
107260.00000 0.01638
107270.00000 0.016529
107280.00000 0.01668
107290.00000 0.016833
107300.00000 0.016988
107310.00000 0.017145
107320.00000 0.017303
107330.00000 0.017462
107340.00000 0.017622
107350.00000 0.017784
107360.00000 0.017948
107370.00000 0.018113
107380.00000 0.01828
107390.00000 0.018448
107400.00000 0.018618
107410.00000 0.01879
107420.00000 0.018963
107430.00000 0.019139
107440.00000 0.019316
107450.00000 0.019496
107460.00000 0.019677
107470.00000 0.019861
107480.00000 0.020046
107490.00000 0.020234
107500.00000 0.020424
107510.00000 0.020616
107520.00000 0.02081
107530.00000 0.021007
107540.00000 0.021206
107550.00000 0.021406
107560.00000 0.021608
107570.00000 0.021812
107580.00000 0.022018
107590.00000 0.022226
107600.00000 0.022435
107610.00000 0.022647
107620.00000 0.02286
107630.00000 0.023076
107640.00000 0.023294
107650.00000 0.023514
107660.00000 0.023736
107670.00000 0.02396
107680.00000 0.024187
107690.00000 0.024416
107700.00000 0.024647
107710.00000 0.02488
107720.00000 0.025116
107730.00000 0.025355
107740.00000 0.025596
107750.00000 0.02584
107760.00000 0.026086
107770.00000 0.026334
107780.00000 0.026584
107790.00000 0.026836
107800.00000 0.02709
107810.00000 0.027346
107820.00000 0.027605
107830.00000 0.027865
107840.00000 0.028128
107850.00000 0.028393
107860.00000 0.028661
107870.00000 0.028931
107880.00000 0.029203
107890.00000 0.029478
107900.00000 0.029756
107910.00000 0.030036
107920.00000 0.030319
107930.00000 0.030604
107940.00000 0.030893
107950.00000 0.031185
107960.00000 0.031479
107970.00000 0.031777
107980.00000 0.032077
107990.00000 0.032381
108000.00000 0.032687
108010.00000 0.032996
108020.00000 0.033306
108030.00000 0.033618
108040.00000 0.033933
108050.00000 0.03425
108060.00000 0.034569
108070.00000 0.034891
108080.00000 0.035216
108090.00000 0.035544
108100.00000 0.035875
108110.00000 0.036209
108120.00000 0.036546
108130.00000 0.036886
108140.00000 0.03723
108150.00000 0.037577
108160.00000 0.037929
108170.00000 0.038284
108180.00000 0.038643
108190.00000 0.039006
108200.00000 0.039374
108210.00000 0.039745
108220.00000 0.040122
108230.00000 0.040503
108240.00000 0.040886
108250.00000 0.041272
108260.00000 0.041662
108270.00000 0.042054
108280.00000 0.04245
108290.00000 0.042848
108300.00000 0.043251
108310.00000 0.043657
108320.00000 0.044066
108330.00000 0.04448
108340.00000 0.044898
108350.00000 0.045319
108360.00000 0.045746
108370.00000 0.046176
108380.00000 0.046612
108390.00000 0.047052
108400.00000 0.047497
108410.00000 0.047947
108420.00000 0.048402
108430.00000 0.048863
108440.00000 0.049329
108450.00000 0.0498
108460.00000 0.050278
108470.00000 0.05076
108480.00000 0.051245
108490.00000 0.051735
108500.00000 0.052229
108510.00000 0.052726
108520.00000 0.053228
108530.00000 0.053735
108540.00000 0.054246
108550.00000 0.054762
108560.00000 0.055283
108570.00000 0.055809
108580.00000 0.05634
108590.00000 0.056876
108600.00000 0.057419
108610.00000 0.057966
108620.00000 0.05852
108630.00000 0.059079
108640.00000 0.059645
108650.00000 0.060217
108660.00000 0.060795
108670.00000 0.06138
108680.00000 0.061972
108690.00000 0.062571
108700.00000 0.063176
108710.00000 0.063786
108720.00000 0.0644
108730.00000 0.065019
108740.00000 0.065642
108750.00000 0.066271
108760.00000 0.066905
108770.00000 0.067544
108780.00000 0.068189
108790.00000 0.06884
108800.00000 0.069498
108810.00000 0.070161
108820.00000 0.070832
108830.00000 0.07151
108840.00000 0.072195
108850.00000 0.072887
108860.00000 0.073587
108870.00000 0.074295
108880.00000 0.075011
108890.00000 0.075736
108900.00000 0.07647
108910.00000 0.077212
108920.00000 0.077964
108930.00000 0.078725
108940.00000 0.079494
108950.00000 0.08027
108960.00000 0.081051
108970.00000 0.081839
108980.00000 0.082634
108990.00000 0.083436
109000.00000 0.084245
109010.00000 0.085061
109020.00000 0.085885
109030.00000 0.086717
109040.00000 0.087557
109050.00000 0.088406
109060.00000 0.089263
109070.00000 0.090129
109080.00000 0.091005
109090.00000 0.09189
109100.00000 0.092785
109110.00000 0.09369
109120.00000 0.094605
109130.00000 0.09553
109140.00000 0.096467
109150.00000 0.097414
109160.00000 0.098373
109170.00000 0.099343
109180.00000 0.100323
109190.00000 0.101311
109200.00000 0.102307
109210.00000 0.103312
109220.00000 0.104325
109230.00000 0.105347
109240.00000 0.106379
109250.00000 0.10742
109260.00000 0.10847
109270.00000 0.109531
109280.00000 0.110602
109290.00000 0.111683
109300.00000 0.112775
109310.00000 0.113878
109320.00000 0.114992
109330.00000 0.116117
109340.00000 0.117254
109350.00000 0.118403
109360.00000 0.119564
109370.00000 0.120737
109380.00000 0.121923
109390.00000 0.123122
109400.00000 0.124334
109410.00000 0.125559
109420.00000 0.126796
109430.00000 0.128041
109440.00000 0.129297
109450.00000 0.130562
109460.00000 0.131838
109470.00000 0.133124
109480.00000 0.134421
109490.00000 0.13573
109500.00000 0.137049
109510.00000 0.138381
109520.00000 0.139725
109530.00000 0.141082
109540.00000 0.142451
109550.00000 0.143834
109560.00000 0.14523
109570.00000 0.146639
109580.00000 0.148063
109590.00000 0.149501
109600.00000 0.150954
109610.00000 0.152421
109620.00000 0.153904
109630.00000 0.155403
109640.00000 0.156917
109650.00000 0.158448
109660.00000 0.159992
109670.00000 0.161549
109680.00000 0.163118
109690.00000 0.1647
109700.00000 0.166294
109710.00000 0.167902
109720.00000 0.169523
109730.00000 0.171158
109740.00000 0.172807
109750.00000 0.17447
109760.00000 0.176148
109770.00000 0.17784
109780.00000 0.179546
109790.00000 0.181268
109800.00000 0.183006
109810.00000 0.184759
109820.00000 0.186528
109830.00000 0.188312
109840.00000 0.190114
109850.00000 0.191931
109860.00000 0.193766
109870.00000 0.195617
109880.00000 0.197486
109890.00000 0.199373
109900.00000 0.201275
109910.00000 0.203193
109920.00000 0.205125
109930.00000 0.207072
109940.00000 0.209034
109950.00000 0.211012
109960.00000 0.213005
109970.00000 0.215014
109980.00000 0.217038
109990.00000 0.219078
110000.00000 0.221134
110010.00000 0.223206
110020.00000 0.225295
110030.00000 0.227399
110040.00000 0.22952
110050.00000 0.231658
110060.00000 0.233813
110070.00000 0.235984
110080.00000 0.238172
110090.00000 0.240378
110100.00000 0.2426
110110.00000 0.24484
110120.00000 0.247098
110130.00000 0.249373
110140.00000 0.251666
110150.00000 0.253976
110160.00000 0.256303
110170.00000 0.258647
110180.00000 0.261008
110190.00000 0.263386
110200.00000 0.26578
110210.00000 0.268191
110220.00000 0.270619
110230.00000 0.273063
110240.00000 0.275524
110250.00000 0.278002
110260.00000 0.280495
110270.00000 0.283005
110280.00000 0.285531
110290.00000 0.288073
110300.00000 0.290631
110310.00000 0.293205
110320.00000 0.295795
110330.00000 0.298401
110340.00000 0.301022
110350.00000 0.303659
110360.00000 0.306312
110370.00000 0.30898
110380.00000 0.311664
110390.00000 0.314366
110400.00000 0.317088
110410.00000 0.319828
110420.00000 0.322586
110430.00000 0.325362
110440.00000 0.328155
110450.00000 0.330964
110460.00000 0.33379
110470.00000 0.336631
110480.00000 0.339487
110490.00000 0.342358
110500.00000 0.345244
110510.00000 0.348143
110520.00000 0.351056
110530.00000 0.353981
110540.00000 0.356919
110550.00000 0.35987
110560.00000 0.362831
110570.00000 0.365804
110580.00000 0.368788
110590.00000 0.371781
110600.00000 0.374785
110610.00000 0.377798
110620.00000 0.380819
110630.00000 0.383854
110640.00000 0.386907
110650.00000 0.389976
110660.00000 0.39306
110670.00000 0.39616
110680.00000 0.399273
110690.00000 0.402401
110700.00000 0.405541
110710.00000 0.408693
110720.00000 0.411857
110730.00000 0.415031
110740.00000 0.418215
110750.00000 0.421409
110760.00000 0.42461
110770.00000 0.42782
110780.00000 0.431037
110790.00000 0.43426
110800.00000 0.437489
110810.00000 0.440722
110820.00000 0.44396
110830.00000 0.447201
110840.00000 0.450445
110850.00000 0.453692
110860.00000 0.456939
110870.00000 0.460189
110880.00000 0.463452
110890.00000 0.466727
110900.00000 0.470015
110910.00000 0.473313
110920.00000 0.476621
110930.00000 0.479938
110940.00000 0.483263
110950.00000 0.486595
110960.00000 0.489932
110970.00000 0.493274
110980.00000 0.49662
110990.00000 0.499968
111000.00000 0.503318
111010.00000 0.506669
111020.00000 0.510019
111030.00000 0.513368
111040.00000 0.516715
111050.00000 0.520058
111060.00000 0.523397
111070.00000 0.52673
111080.00000 0.530057
111090.00000 0.533376
111100.00000 0.536686
111110.00000 0.539988
111120.00000 0.543286
111130.00000 0.546591
111140.00000 0.549901
111150.00000 0.553215
111160.00000 0.556533
111170.00000 0.559853
111180.00000 0.563173
111190.00000 0.566493
111200.00000 0.56981
111210.00000 0.573125
111220.00000 0.576435
111230.00000 0.57974
111240.00000 0.583038
111250.00000 0.586328
111260.00000 0.589609
111270.00000 0.592879
111280.00000 0.596138
111290.00000 0.599383
111300.00000 0.602615
111310.00000 0.605831
111320.00000 0.609031
111330.00000 0.612212
111340.00000 0.615375
111350.00000 0.618518
111360.00000 0.621639
111370.00000 0.62475
111380.00000 0.627855
111390.00000 0.630953
111400.00000 0.634045
111410.00000 0.637127
111420.00000 0.640201
111430.00000 0.643265
111440.00000 0.646317
111450.00000 0.649357
111460.00000 0.652384
111470.00000 0.655397
111480.00000 0.658395
111490.00000 0.661377
111500.00000 0.664341
111510.00000 0.667288
111520.00000 0.670216
111530.00000 0.673124
111540.00000 0.676011
111550.00000 0.678876
111560.00000 0.681718
111570.00000 0.684537
111580.00000 0.687331
111590.00000 0.690099
111600.00000 0.692841
111610.00000 0.695555
111620.00000 0.69825
111630.00000 0.700927
111640.00000 0.703587
111650.00000 0.706229
111660.00000 0.708853
111670.00000 0.711457
111680.00000 0.714042
111690.00000 0.716608
111700.00000 0.719153
111710.00000 0.721678
111720.00000 0.724182
111730.00000 0.726664
111740.00000 0.729125
111750.00000 0.731564
111760.00000 0.73398
111770.00000 0.736373
111780.00000 0.738742
111790.00000 0.741088
111800.00000 0.74341
111810.00000 0.745707
111820.00000 0.747979
111830.00000 0.750225
111840.00000 0.752446
111850.00000 0.75464
111860.00000 0.756808
111870.00000 0.758951
111880.00000 0.76107
111890.00000 0.763165
111900.00000 0.765236
111910.00000 0.767284
111920.00000 0.769308
111930.00000 0.771309
111940.00000 0.773286
111950.00000 0.77524
111960.00000 0.77717
111970.00000 0.779078
111980.00000 0.780962
111990.00000 0.782823
112000.00000 0.784662
112010.00000 0.786478
112020.00000 0.788271
112030.00000 0.790041
112040.00000 0.791789
112050.00000 0.793514
112060.00000 0.795217
112070.00000 0.796898
112080.00000 0.798557
112090.00000 0.800193
112100.00000 0.801808
112110.00000 0.8034
112120.00000 0.804968
112130.00000 0.806512
112140.00000 0.80803
112150.00000 0.809525
112160.00000 0.810995
112170.00000 0.812442
112180.00000 0.813866
112190.00000 0.815267
112200.00000 0.816646
112210.00000 0.818002
112220.00000 0.819337
112230.00000 0.820651
112240.00000 0.821943
112250.00000 0.823215
112260.00000 0.824467
112270.00000 0.825699
112280.00000 0.826911
112290.00000 0.828104
112300.00000 0.829278
112310.00000 0.830434
112320.00000 0.831571
112330.00000 0.832691
112340.00000 0.833793
112350.00000 0.834878
112360.00000 0.835947
112370.00000 0.836995
112380.00000 0.83802
112390.00000 0.839023
112400.00000 0.840004
112410.00000 0.840962
112420.00000 0.8419
112430.00000 0.842818
112440.00000 0.843715
112450.00000 0.844594
112460.00000 0.845453
112470.00000 0.846294
112480.00000 0.847117
112490.00000 0.847923
112500.00000 0.848713
112510.00000 0.849486
112520.00000 0.850243
112530.00000 0.850986
112540.00000 0.851713
112550.00000 0.852427
112560.00000 0.853127
112570.00000 0.853814
112580.00000 0.854489
112590.00000 0.855152
112600.00000 0.855803
112610.00000 0.856444
112620.00000 0.857071
112630.00000 0.85768
112640.00000 0.858271
112650.00000 0.858845
112660.00000 0.859401
112670.00000 0.85994
112680.00000 0.860464
112690.00000 0.860971
112700.00000 0.861464
112710.00000 0.861943
112720.00000 0.862408
112730.00000 0.862859
112740.00000 0.863298
112750.00000 0.863724
112760.00000 0.864139
112770.00000 0.864542
112780.00000 0.864936
112790.00000 0.865319
112800.00000 0.865692
112810.00000 0.866057
112820.00000 0.866413
112830.00000 0.866761
112840.00000 0.867102
112850.00000 0.867437
112860.00000 0.867765
112870.00000 0.868086
112880.00000 0.868397
112890.00000 0.868694
112900.00000 0.868979
112910.00000 0.869253
112920.00000 0.869514
112930.00000 0.869764
112940.00000 0.870003
112950.00000 0.870233
112960.00000 0.870452
112970.00000 0.870661
112980.00000 0.870862
112990.00000 0.871054
113000.00000 0.871238
113010.00000 0.871414
113020.00000 0.871582
113030.00000 0.871744
113040.00000 0.871899
113050.00000 0.872048
113060.00000 0.872192
113070.00000 0.87233
113080.00000 0.872463
113090.00000 0.872592
113100.00000 0.872717
113110.00000 0.872838
113120.00000 0.872956
113130.00000 0.87307
113140.00000 0.873175
113150.00000 0.873272
113160.00000 0.873361
113170.00000 0.873442
113180.00000 0.873516
113190.00000 0.873584
113200.00000 0.873644
113210.00000 0.873698
113220.00000 0.873746
113230.00000 0.873788
113240.00000 0.873825
113250.00000 0.873856
113260.00000 0.873883
113270.00000 0.873904
113280.00000 0.873922
113290.00000 0.873936
113300.00000 0.873945
113310.00000 0.873952
113320.00000 0.873955
113330.00000 0.873956
113340.00000 0.873954
113350.00000 0.873949
113360.00000 0.873943
113370.00000 0.873935
113380.00000 0.873926
113390.00000 0.873914
113400.00000 0.873897
113410.00000 0.873876
113420.00000 0.873852
113430.00000 0.873823
113440.00000 0.87379
113450.00000 0.873754
113460.00000 0.873714
113470.00000 0.87367
113480.00000 0.873622
113490.00000 0.873571
113500.00000 0.873517
113510.00000 0.87346
113520.00000 0.873399
113530.00000 0.873335
113540.00000 0.873268
113550.00000 0.873199
113560.00000 0.873126
113570.00000 0.873051
113580.00000 0.872973
113590.00000 0.872892
113600.00000 0.872809
113610.00000 0.872723
113620.00000 0.872635
113630.00000 0.872545
113640.00000 0.872453
113650.00000 0.87236
113660.00000 0.872266
113670.00000 0.872171
113680.00000 0.872075
113690.00000 0.871977
113700.00000 0.871877
113710.00000 0.871775
113720.00000 0.871671
113730.00000 0.871564
113740.00000 0.871454
113750.00000 0.871341
113760.00000 0.871223
113770.00000 0.871102
113780.00000 0.870977
113790.00000 0.870848
113800.00000 0.870713
113810.00000 0.870574
113820.00000 0.870429
113830.00000 0.870279
113840.00000 0.870123
113850.00000 0.86996
113860.00000 0.869791
113870.00000 0.869615
113880.00000 0.869433
113890.00000 0.869243
113900.00000 0.869046
113910.00000 0.868847
113920.00000 0.868647
113930.00000 0.868445
113940.00000 0.868241
113950.00000 0.868034
113960.00000 0.867823
113970.00000 0.867608
113980.00000 0.867388
113990.00000 0.867164
114000.00000 0.866933
114010.00000 0.866697
114020.00000 0.866453
114030.00000 0.866202
114040.00000 0.865944
114050.00000 0.865677
114060.00000 0.865401
114070.00000 0.865116
114080.00000 0.86482
114090.00000 0.864515
114100.00000 0.864198
114110.00000 0.863869
114120.00000 0.863529
114130.00000 0.863175
114140.00000 0.862809
114150.00000 0.862429
114160.00000 0.862035
114170.00000 0.861631
114180.00000 0.861219
114190.00000 0.860797
114200.00000 0.860366
114210.00000 0.859926
114220.00000 0.859476
114230.00000 0.859016
114240.00000 0.858547
114250.00000 0.858068
114260.00000 0.85758
114270.00000 0.857081
114280.00000 0.856572
114290.00000 0.856053
114300.00000 0.855523
114310.00000 0.854984
114320.00000 0.854433
114330.00000 0.853872
114340.00000 0.853301
114350.00000 0.852718
114360.00000 0.852125
114370.00000 0.85152
114380.00000 0.850905
114390.00000 0.850278
114400.00000 0.84964
114410.00000 0.84899
114420.00000 0.848329
114430.00000 0.847649
114440.00000 0.84695
114450.00000 0.846234
114460.00000 0.845502
114470.00000 0.844753
114480.00000 0.84399
114490.00000 0.843215
114500.00000 0.842426
114510.00000 0.841627
114520.00000 0.840819
114530.00000 0.840001
114540.00000 0.839175
114550.00000 0.838343
114560.00000 0.837506
114570.00000 0.836663
114580.00000 0.835818
114590.00000 0.834971
114600.00000 0.834122
114610.00000 0.833274
114620.00000 0.832427
114630.00000 0.831582
114640.00000 0.83074
114650.00000 0.829902
114660.00000 0.82907
114670.00000 0.828245
114680.00000 0.827428
114690.00000 0.826604
114700.00000 0.825766
114710.00000 0.824917
114720.00000 0.824056
114730.00000 0.823187
114740.00000 0.822311
114750.00000 0.821429
114760.00000 0.820544
114770.00000 0.819656
114780.00000 0.818769
114790.00000 0.817882
114800.00000 0.816998
114810.00000 0.81612
114820.00000 0.815248
114830.00000 0.814383
114840.00000 0.813529
114850.00000 0.812686
114860.00000 0.811856
114870.00000 0.811041
114880.00000 0.810242
114890.00000 0.809462
114900.00000 0.808701
114910.00000 0.807962
114920.00000 0.807246
114930.00000 0.806556
114940.00000 0.805891
114950.00000 0.805249
114960.00000 0.804618
114970.00000 0.803996
114980.00000 0.803385
114990.00000 0.802786
115000.00000 0.802198
115010.00000 0.801622
115020.00000 0.801059
115030.00000 0.800509
115040.00000 0.799972
115050.00000 0.79945
115060.00000 0.798943
115070.00000 0.798451
115080.00000 0.797975
115090.00000 0.797515
115100.00000 0.797072
115110.00000 0.796646
115120.00000 0.796239
115130.00000 0.795849
115140.00000 0.795478
115150.00000 0.795127
115160.00000 0.794795
115170.00000 0.794484
115180.00000 0.794194
115190.00000 0.793925
115200.00000 0.793678
115210.00000 0.793454
115220.00000 0.793253
115230.00000 0.793074
115240.00000 0.792918
115250.00000 0.792784
115260.00000 0.79267
115270.00000 0.792577
115280.00000 0.792504
115290.00000 0.79245
115300.00000 0.792414
115310.00000 0.792396
115320.00000 0.792396
115330.00000 0.792412
115340.00000 0.792444
115350.00000 0.792491
115360.00000 0.792553
115370.00000 0.792629
115380.00000 0.792719
115390.00000 0.792821
115400.00000 0.792936
115410.00000 0.793062
115420.00000 0.7932
115430.00000 0.793347
115440.00000 0.793505
115450.00000 0.793671
115460.00000 0.793846
115470.00000 0.794029
115480.00000 0.794221
115490.00000 0.794429
115500.00000 0.794652
115510.00000 0.79489
115520.00000 0.795142
115530.00000 0.795409
115540.00000 0.79569
115550.00000 0.795984
115560.00000 0.796291
115570.00000 0.79661
115580.00000 0.796942
115590.00000 0.797286
115600.00000 0.79764
115610.00000 0.798006
115620.00000 0.798382
115630.00000 0.798768
115640.00000 0.799164
115650.00000 0.799569
115660.00000 0.799983
115670.00000 0.800405
115680.00000 0.800835
115690.00000 0.801273
115700.00000 0.801718
115710.00000 0.80217
115720.00000 0.802628
115730.00000 0.803092
115740.00000 0.803562
115750.00000 0.80404
115760.00000 0.80453
115770.00000 0.805032
115780.00000 0.805546
115790.00000 0.806071
115800.00000 0.806607
115810.00000 0.807152
115820.00000 0.807707
115830.00000 0.808272
115840.00000 0.808845
115850.00000 0.809426
115860.00000 0.810015
115870.00000 0.810611
115880.00000 0.811214
115890.00000 0.811824
115900.00000 0.812439
115910.00000 0.81306
115920.00000 0.813685
115930.00000 0.814316
115940.00000 0.81495
115950.00000 0.815588
115960.00000 0.816229
115970.00000 0.816872
115980.00000 0.817518
115990.00000 0.818166
116000.00000 0.818815
116010.00000 0.819465
116020.00000 0.820122
116030.00000 0.820793
116040.00000 0.821475
116050.00000 0.822167
116060.00000 0.822869
116070.00000 0.823579
116080.00000 0.824297
116090.00000 0.825022
116100.00000 0.825752
116110.00000 0.826486
116120.00000 0.827223
116130.00000 0.827963
116140.00000 0.828705
116150.00000 0.829446
116160.00000 0.830187
116170.00000 0.830926
116180.00000 0.831662
116190.00000 0.832394
116200.00000 0.833122
116210.00000 0.833844
116220.00000 0.834559
116230.00000 0.835266
116240.00000 0.835964
116250.00000 0.836652
116260.00000 0.837329
116270.00000 0.837995
116280.00000 0.838647
116290.00000 0.839295
116300.00000 0.839945
116310.00000 0.840595
116320.00000 0.841245
116330.00000 0.841894
116340.00000 0.842541
116350.00000 0.843186
116360.00000 0.843827
116370.00000 0.844465
116380.00000 0.845097
116390.00000 0.845725
116400.00000 0.846346
116410.00000 0.84696
116420.00000 0.847566
116430.00000 0.848164
116440.00000 0.848753
116450.00000 0.849331
116460.00000 0.849899
116470.00000 0.850456
116480.00000 0.851
116490.00000 0.851531
116500.00000 0.852048
116510.00000 0.852551
116520.00000 0.853038
116530.00000 0.85351
116540.00000 0.853965
116550.00000 0.854402
116560.00000 0.854824
116570.00000 0.855233
116580.00000 0.855631
116590.00000 0.856015
116600.00000 0.856388
116610.00000 0.856749
116620.00000 0.857097
116630.00000 0.857435
116640.00000 0.85776
116650.00000 0.858075
116660.00000 0.858378
116670.00000 0.858669
116680.00000 0.85895
116690.00000 0.859221
116700.00000 0.85948
116710.00000 0.859729
116720.00000 0.859968
116730.00000 0.860197
116740.00000 0.860415
116750.00000 0.860624
116760.00000 0.860822
116770.00000 0.861012
116780.00000 0.861191
116790.00000 0.861362
116800.00000 0.861523
116810.00000 0.861675
116820.00000 0.861818
116830.00000 0.86195
116840.00000 0.862068
116850.00000 0.86217
116860.00000 0.862259
116870.00000 0.862334
116880.00000 0.862397
116890.00000 0.862447
116900.00000 0.862485
116910.00000 0.862514
116920.00000 0.862531
116930.00000 0.86254
116940.00000 0.862539
116950.00000 0.86253
116960.00000 0.862514
116970.00000 0.86249
116980.00000 0.862461
116990.00000 0.862426
117000.00000 0.862385
117010.00000 0.862341
117020.00000 0.862292
117030.00000 0.862241
117040.00000 0.862187
117050.00000 0.862131
117060.00000 0.862074
117070.00000 0.862017
117080.00000 0.861959
117090.00000 0.861903
117100.00000 0.861847
117110.00000 0.861785
117120.00000 0.861718
117130.00000 0.861644
117140.00000 0.861565
117150.00000 0.86148
117160.00000 0.861389
117170.00000 0.861294
117180.00000 0.861195
117190.00000 0.861091
117200.00000 0.860983
117210.00000 0.860871
117220.00000 0.860756
117230.00000 0.860638
117240.00000 0.860518
117250.00000 0.860395
117260.00000 0.860269
117270.00000 0.860142
117280.00000 0.860014
117290.00000 0.859884
117300.00000 0.859753
117310.00000 0.859622
117320.00000 0.859491
117330.00000 0.859359
117340.00000 0.859228
117350.00000 0.859098
117360.00000 0.858968
117370.00000 0.85884
117380.00000 0.858713
117390.00000 0.858589
117400.00000 0.858466
117410.00000 0.858344
117420.00000 0.858224
117430.00000 0.858103
117440.00000 0.857983
117450.00000 0.857862
117460.00000 0.857741
117470.00000 0.857619
117480.00000 0.857495
117490.00000 0.857369
117500.00000 0.857241
117510.00000 0.857111
117520.00000 0.856977
117530.00000 0.85684
117540.00000 0.856699
117550.00000 0.856553
117560.00000 0.856403
117570.00000 0.856249
117580.00000 0.856088
117590.00000 0.855922
117600.00000 0.85575
117610.00000 0.855571
117620.00000 0.855386
117630.00000 0.855193
117640.00000 0.854992
117650.00000 0.854784
117660.00000 0.854574
117670.00000 0.854367
117680.00000 0.854159
117690.00000 0.853951
117700.00000 0.853742
117710.00000 0.853531
117720.00000 0.853318
117730.00000 0.853101
117740.00000 0.85288
117750.00000 0.852655
117760.00000 0.852424
117770.00000 0.852186
117780.00000 0.851942
117790.00000 0.851689
117800.00000 0.851429
117810.00000 0.851159
117820.00000 0.850879
117830.00000 0.850588
117840.00000 0.850286
117850.00000 0.849972
117860.00000 0.849645
117870.00000 0.849304
117880.00000 0.848949
117890.00000 0.848579
117900.00000 0.848193
117910.00000 0.84779
117920.00000 0.84737
117930.00000 0.846935
117940.00000 0.846493
117950.00000 0.846046
117960.00000 0.845593
117970.00000 0.845132
117980.00000 0.844665
117990.00000 0.844188
118000.00000 0.843703
118010.00000 0.843207
118020.00000 0.8427
118030.00000 0.842181
118040.00000 0.841651
118050.00000 0.841107
118060.00000 0.840548
118070.00000 0.839975
118080.00000 0.839387
118090.00000 0.838782
118100.00000 0.83816
118110.00000 0.83752
118120.00000 0.836861
118130.00000 0.836183
118140.00000 0.835484
118150.00000 0.834764
118160.00000 0.834023
118170.00000 0.833259
118180.00000 0.832471
118190.00000 0.831659
118200.00000 0.830823
118210.00000 0.829963
118220.00000 0.829088
118230.00000 0.828199
118240.00000 0.827294
118250.00000 0.826373
118260.00000 0.825435
118270.00000 0.824482
118280.00000 0.82351
118290.00000 0.822521
118300.00000 0.821514
118310.00000 0.820488
118320.00000 0.819443
118330.00000 0.818378
118340.00000 0.817293
118350.00000 0.816187
118360.00000 0.81506
118370.00000 0.813911
118380.00000 0.812741
118390.00000 0.811548
118400.00000 0.810331
118410.00000 0.809091
118420.00000 0.807828
118430.00000 0.806539
118440.00000 0.805226
118450.00000 0.803888
118460.00000 0.802523
118470.00000 0.801132
118480.00000 0.799714
118490.00000 0.798269
118500.00000 0.796797
118510.00000 0.795298
118520.00000 0.793772
118530.00000 0.792221
118540.00000 0.790645
118550.00000 0.789044
118560.00000 0.787419
118570.00000 0.78577
118580.00000 0.784097
118590.00000 0.782403
118600.00000 0.780686
118610.00000 0.778947
118620.00000 0.777187
118630.00000 0.775407
118640.00000 0.773606
118650.00000 0.771786
118660.00000 0.769947
118670.00000 0.768089
118680.00000 0.766213
118690.00000 0.76432
118700.00000 0.762409
118710.00000 0.760482
118720.00000 0.758539
118730.00000 0.756581
118740.00000 0.754607
118750.00000 0.752619
118760.00000 0.750617
118770.00000 0.748599
118780.00000 0.746556
118790.00000 0.744488
118800.00000 0.742395
118810.00000 0.740279
118820.00000 0.73814
118830.00000 0.735979
118840.00000 0.733798
118850.00000 0.731597
118860.00000 0.729377
118870.00000 0.727139
118880.00000 0.724885
118890.00000 0.722615
118900.00000 0.72033
118910.00000 0.718031
118920.00000 0.715719
118930.00000 0.713395
118940.00000 0.711061
118950.00000 0.708716
118960.00000 0.706363
118970.00000 0.704001
118980.00000 0.701632
118990.00000 0.699257
119000.00000 0.696878
119010.00000 0.694493
119020.00000 0.692106
119030.00000 0.689717
119040.00000 0.687326
119050.00000 0.684934
119060.00000 0.682536
119070.00000 0.680129
119080.00000 0.677712
119090.00000 0.675287
119100.00000 0.672852
119110.00000 0.670408
119120.00000 0.667956
119130.00000 0.665494
119140.00000 0.663024
119150.00000 0.660546
119160.00000 0.658059
119170.00000 0.655563
119180.00000 0.653059
119190.00000 0.650546
119200.00000 0.648026
119210.00000 0.645497
119220.00000 0.64296
119230.00000 0.640415
119240.00000 0.637863
119250.00000 0.635302
119260.00000 0.632734
119270.00000 0.630158
119280.00000 0.627574
119290.00000 0.624983
119300.00000 0.622385
119310.00000 0.619779
119320.00000 0.617166
119330.00000 0.614546
119340.00000 0.611919
119350.00000 0.609285
119360.00000 0.606645
119370.00000 0.603999
119380.00000 0.601345
119390.00000 0.598685
119400.00000 0.596017
119410.00000 0.593342
119420.00000 0.59066
119430.00000 0.58797
119440.00000 0.585272
119450.00000 0.582566
119460.00000 0.579852
119470.00000 0.57713
119480.00000 0.574399
119490.00000 0.57166
119500.00000 0.568911
119510.00000 0.566154
119520.00000 0.563388
119530.00000 0.560612
119540.00000 0.557827
119550.00000 0.555032
119560.00000 0.552227
119570.00000 0.549412
119580.00000 0.546587
119590.00000 0.543752
119600.00000 0.540906
119610.00000 0.53805
119620.00000 0.535183
119630.00000 0.5323
119640.00000 0.529401
119650.00000 0.526487
119660.00000 0.523559
119670.00000 0.520616
119680.00000 0.517661
119690.00000 0.514694
119700.00000 0.511716
119710.00000 0.508728
119720.00000 0.50573
119730.00000 0.502723
119740.00000 0.499708
119750.00000 0.496687
119760.00000 0.493659
119770.00000 0.490626
119780.00000 0.487589
119790.00000 0.484548
119800.00000 0.481504
119810.00000 0.478458
119820.00000 0.475411
119830.00000 0.472363
119840.00000 0.469316
119850.00000 0.46627
119860.00000 0.463227
119870.00000 0.460186
119880.00000 0.457149
119890.00000 0.454116
119900.00000 0.451089
119910.00000 0.448065
119920.00000 0.44503
119930.00000 0.441985
119940.00000 0.438931
119950.00000 0.435869
119960.00000 0.432799
119970.00000 0.429724
119980.00000 0.426643
119990.00000 0.42356
120000.00000 0.420473
120010.00000 0.417386
120020.00000 0.414298
120030.00000 0.411211
120040.00000 0.408127
120050.00000 0.405045
120060.00000 0.401968
120070.00000 0.398896
120080.00000 0.395832
120090.00000 0.392774
120100.00000 0.389726
120110.00000 0.386688
120120.00000 0.383661
120130.00000 0.380647
120140.00000 0.377645
120150.00000 0.374659
120160.00000 0.371688
120170.00000 0.368734
120180.00000 0.365798
120190.00000 0.362881
120200.00000 0.359979
120210.00000 0.357082
120220.00000 0.35419
120230.00000 0.351304
120240.00000 0.348423
120250.00000 0.345549
120260.00000 0.342683
120270.00000 0.339824
120280.00000 0.336974
120290.00000 0.334133
120300.00000 0.331302
120310.00000 0.32848
120320.00000 0.32567
120330.00000 0.32287
120340.00000 0.320083
120350.00000 0.317308
120360.00000 0.314546
120370.00000 0.311798
120380.00000 0.309064
120390.00000 0.306345
120400.00000 0.303641
120410.00000 0.300954
120420.00000 0.298282
120430.00000 0.295628
120440.00000 0.292992
120450.00000 0.290374
120460.00000 0.287774
120470.00000 0.285194
120480.00000 0.282634
120490.00000 0.280092
120500.00000 0.277565
120510.00000 0.275052
120520.00000 0.272553
120530.00000 0.270069
120540.00000 0.267599
120550.00000 0.265144
120560.00000 0.262703
120570.00000 0.260278
120580.00000 0.257867
120590.00000 0.255471
120600.00000 0.25309
120610.00000 0.250725
120620.00000 0.248374
120630.00000 0.246039
120640.00000 0.24372
120650.00000 0.241415
120660.00000 0.239127
120670.00000 0.236854
120680.00000 0.234596
120690.00000 0.232355
120700.00000 0.23013
120710.00000 0.22792
120720.00000 0.225727
120730.00000 0.223549
120740.00000 0.221389
120750.00000 0.219244
120760.00000 0.217116
120770.00000 0.215004
120780.00000 0.212909
120790.00000 0.21083
120800.00000 0.208769
120810.00000 0.206723
120820.00000 0.204694
120830.00000 0.202681
120840.00000 0.200685
120850.00000 0.198704
120860.00000 0.196739
120870.00000 0.19479
120880.00000 0.192857
120890.00000 0.190939
120900.00000 0.189037
120910.00000 0.18715
120920.00000 0.185278
120930.00000 0.183421
120940.00000 0.181579
120950.00000 0.179751
120960.00000 0.177939
120970.00000 0.176141
120980.00000 0.174358
120990.00000 0.172589
121000.00000 0.170834
121010.00000 0.169093
121020.00000 0.167367
121030.00000 0.165654
121040.00000 0.163955
121050.00000 0.162269
121060.00000 0.160598
121070.00000 0.158939
121080.00000 0.157297
121090.00000 0.15567
121100.00000 0.154058
121110.00000 0.152461
121120.00000 0.15088
121130.00000 0.149313
121140.00000 0.147762
121150.00000 0.146225
121160.00000 0.144703
121170.00000 0.143195
121180.00000 0.141702
121190.00000 0.140222
121200.00000 0.138757
121210.00000 0.137305
121220.00000 0.135867
121230.00000 0.134442
121240.00000 0.133031
121250.00000 0.131633
121260.00000 0.130249
121270.00000 0.128877
121280.00000 0.127518
121290.00000 0.126171
121300.00000 0.124838
121310.00000 0.123516
121320.00000 0.122207
121330.00000 0.12091
121340.00000 0.119625
121350.00000 0.118352
121360.00000 0.11709
121370.00000 0.115842
121380.00000 0.114609
121390.00000 0.11339
121400.00000 0.112186
121410.00000 0.110996
121420.00000 0.10982
121430.00000 0.108657
121440.00000 0.107508
121450.00000 0.106372
121460.00000 0.105249
121470.00000 0.104139
121480.00000 0.103042
121490.00000 0.101957
121500.00000 0.100883
121510.00000 0.099822
121520.00000 0.098772
121530.00000 0.097734
121540.00000 0.096707
121550.00000 0.09569
121560.00000 0.094685
121570.00000 0.093689
121580.00000 0.092705
121590.00000 0.09173
121600.00000 0.090764
121610.00000 0.089808
121620.00000 0.088862
121630.00000 0.087925
121640.00000 0.086996
121650.00000 0.086076
121660.00000 0.085166
121670.00000 0.084268
121680.00000 0.083382
121690.00000 0.08251
121700.00000 0.08165
121710.00000 0.080802
121720.00000 0.079966
121730.00000 0.079141
121740.00000 0.078327
121750.00000 0.077524
121760.00000 0.076732
121770.00000 0.07595
121780.00000 0.075177
121790.00000 0.074415
121800.00000 0.073662
121810.00000 0.072918
121820.00000 0.072182
121830.00000 0.071455
121840.00000 0.070736
121850.00000 0.070025
121860.00000 0.069322
121870.00000 0.068625
121880.00000 0.067936
121890.00000 0.067254
121900.00000 0.066577
121910.00000 0.065907
121920.00000 0.065243
121930.00000 0.064584
121940.00000 0.06393
121950.00000 0.063281
121960.00000 0.062639
121970.00000 0.062007
121980.00000 0.061384
121990.00000 0.06077
122000.00000 0.060165
122010.00000 0.059569
122020.00000 0.058981
122030.00000 0.058402
122040.00000 0.05783
122050.00000 0.057267
122060.00000 0.05671
122070.00000 0.056161
122080.00000 0.055619
122090.00000 0.055083
122100.00000 0.054554
122110.00000 0.054031
122120.00000 0.053514
122130.00000 0.053002
122140.00000 0.052496
122150.00000 0.051995
122160.00000 0.051498
122170.00000 0.051007
122180.00000 0.05052
122190.00000 0.050036
122200.00000 0.049557
122210.00000 0.049081
122220.00000 0.048609
122230.00000 0.04814
122240.00000 0.047673
122250.00000 0.047209
122260.00000 0.04675
122270.00000 0.046297
122280.00000 0.04585
122290.00000 0.045409
122300.00000 0.044974
122310.00000 0.044544
122320.00000 0.04412
122330.00000 0.043701
122340.00000 0.043288
122350.00000 0.042879
122360.00000 0.042475
122370.00000 0.042076
122380.00000 0.041681
122390.00000 0.041291
122400.00000 0.040904
122410.00000 0.040522
122420.00000 0.040144
122430.00000 0.039769
122440.00000 0.039398
122450.00000 0.03903
122460.00000 0.038665
122470.00000 0.038304
122480.00000 0.037945
122490.00000 0.037589
122500.00000 0.037235
122510.00000 0.036885
122520.00000 0.036536
122530.00000 0.036189
122540.00000 0.035845
122550.00000 0.035502
122560.00000 0.035162
122570.00000 0.034826
122580.00000 0.034494
122590.00000 0.034165
122600.00000 0.03384
122610.00000 0.033518
122620.00000 0.033201
122630.00000 0.032886
122640.00000 0.032575
122650.00000 0.032267
122660.00000 0.031962
122670.00000 0.03166
122680.00000 0.031362
122690.00000 0.031066
122700.00000 0.030773
122710.00000 0.030483
122720.00000 0.030196
122730.00000 0.029912
122740.00000 0.02963
122750.00000 0.029351
122760.00000 0.029074
122770.00000 0.0288
122780.00000 0.028528
122790.00000 0.028259
122800.00000 0.027991
122810.00000 0.027726
122820.00000 0.027463
122830.00000 0.027202
122840.00000 0.026943
122850.00000 0.026686
122860.00000 0.026431
122870.00000 0.026179
122880.00000 0.02593
122890.00000 0.025684
122900.00000 0.025441
122910.00000 0.0252
122920.00000 0.024962
122930.00000 0.024727
122940.00000 0.024495
122950.00000 0.024264
122960.00000 0.024037
122970.00000 0.023811
122980.00000 0.023589
122990.00000 0.023368
123000.00000 0.02315
123010.00000 0.022934
123020.00000 0.02272
123030.00000 0.022509
123040.00000 0.022299
123050.00000 0.022092
123060.00000 0.021886
123070.00000 0.021683
123080.00000 0.021481
123090.00000 0.021282
123100.00000 0.021084
123110.00000 0.020888
123120.00000 0.020693
123130.00000 0.020501
123140.00000 0.020309
123150.00000 0.02012
123160.00000 0.019932
123170.00000 0.019747
123180.00000 0.019564
123190.00000 0.019384
123200.00000 0.019207
123210.00000 0.019031
123220.00000 0.018858
123230.00000 0.018687
123240.00000 0.018518
123250.00000 0.018351
123260.00000 0.018186
123270.00000 0.018023
123280.00000 0.017862
123290.00000 0.017703
123300.00000 0.017546
123310.00000 0.01739
123320.00000 0.017236
123330.00000 0.017083
123340.00000 0.016932
123350.00000 0.016783
123360.00000 0.016634
123370.00000 0.016487
123380.00000 0.016342
123390.00000 0.016197
123400.00000 0.016054
123410.00000 0.015912
123420.00000 0.01577
123430.00000 0.01563
123440.00000 0.01549
123450.00000 0.015351
123460.00000 0.015213
123470.00000 0.015077
123480.00000 0.014942
123490.00000 0.014809
123500.00000 0.014678
123510.00000 0.014548
123520.00000 0.014419
123530.00000 0.014292
123540.00000 0.014167
123550.00000 0.014043
123560.00000 0.01392
123570.00000 0.013799
123580.00000 0.013678
123590.00000 0.01356
123600.00000 0.013442
123610.00000 0.013325
123620.00000 0.01321
123630.00000 0.013095
123640.00000 0.012982
123650.00000 0.01287
123660.00000 0.012758
123670.00000 0.012648
123680.00000 0.012538
123690.00000 0.012429
123700.00000 0.012322
123710.00000 0.012214
123720.00000 0.012108
123730.00000 0.012002
123740.00000 0.011896
123750.00000 0.011792
123760.00000 0.011687
123770.00000 0.011584
123780.00000 0.011481
123790.00000 0.01138
123800.00000 0.011279
123810.00000 0.011179
123820.00000 0.011081
123830.00000 0.010983
123840.00000 0.010886
123850.00000 0.01079
123860.00000 0.010695
123870.00000 0.010601
123880.00000 0.010507
123890.00000 0.010415
123900.00000 0.010324
123910.00000 0.010233
123920.00000 0.010143
123930.00000 0.010054
123940.00000 0.009966
123950.00000 0.009879
123960.00000 0.009792
123970.00000 0.009706
123980.00000 0.009622
123990.00000 0.009538
124000.00000 0.009454
124010.00000 0.009372
124020.00000 0.00929
124030.00000 0.009209
124040.00000 0.009129
124050.00000 0.009049
124060.00000 0.00897
124070.00000 0.008892
124080.00000 0.008815
124090.00000 0.008739
124100.00000 0.008664
124110.00000 0.008589
124120.00000 0.008516
124130.00000 0.008443
124140.00000 0.008372
124150.00000 0.008301
124160.00000 0.008231
124170.00000 0.008162
124180.00000 0.008093
124190.00000 0.008026
124200.00000 0.007959
124210.00000 0.007893
124220.00000 0.007828
124230.00000 0.007763
124240.00000 0.007699
124250.00000 0.007636
124260.00000 0.007573
124270.00000 0.007511
124280.00000 0.00745
124290.00000 0.007389
124300.00000 0.007328
124310.00000 0.007269
124320.00000 0.007209
124330.00000 0.007151
124340.00000 0.007092
124350.00000 0.007035
124360.00000 0.006977
124370.00000 0.00692
124380.00000 0.006864
124390.00000 0.006808
124400.00000 0.006753
124410.00000 0.006699
124420.00000 0.006646
124430.00000 0.006593
124440.00000 0.006541
124450.00000 0.00649
124460.00000 0.00644
124470.00000 0.00639
124480.00000 0.006341
124490.00000 0.006292
124500.00000 0.006244
124510.00000 0.006197
124520.00000 0.00615
124530.00000 0.006103
124540.00000 0.006057
124550.00000 0.006012
124560.00000 0.005966
124570.00000 0.005921
124580.00000 0.005877
124590.00000 0.005833
124600.00000 0.005789
124610.00000 0.005745
124620.00000 0.005702
124630.00000 0.005658
124640.00000 0.005615
124650.00000 0.005572
124660.00000 0.005529
124670.00000 0.005486
124680.00000 0.005444
124690.00000 0.005401
124700.00000 0.005358
124710.00000 0.005316
124720.00000 0.005274
124730.00000 0.005233
124740.00000 0.005191
124750.00000 0.005151
124760.00000 0.00511
124770.00000 0.00507
124780.00000 0.00503
124790.00000 0.00499
124800.00000 0.00495
124810.00000 0.004911
124820.00000 0.004872
124830.00000 0.004834
124840.00000 0.004795
124850.00000 0.004757
124860.00000 0.004719
124870.00000 0.004682
124880.00000 0.004645
124890.00000 0.004608
124900.00000 0.004571
124910.00000 0.004535
124920.00000 0.004498
124930.00000 0.004462
124940.00000 0.004427
124950.00000 0.004391
124960.00000 0.004356
124970.00000 0.004321
124980.00000 0.004286
124990.00000 0.004252
125000.00000 0.004218
125010.00000 0.004184
125020.00000 0.00415
125030.00000 0.004117
125040.00000 0.004084
125050.00000 0.004051
125060.00000 0.004018
137566.00000 0.0
