# %ECSV 0.9
# ---
# datatype:
# - {name: wavelength, unit: Angstrom, datatype: float32}
# - {name: response, datatype: float32}
# meta: !!omap
# - {band_name: SiC}
# - {group_name: CanariCam}
wavelength response
89595.00000 0.0
99550.00000 0.004022
99560.00000 0.0041
99570.00000 0.004172
99580.00000 0.004238
99590.00000 0.004297
99600.00000 0.004348
99610.00000 0.004391
99620.00000 0.004423
99630.00000 0.00445
99640.00000 0.004474
99650.00000 0.0045
99660.00000 0.004528
99670.00000 0.004554
99680.00000 0.004581
99690.00000 0.004609
99700.00000 0.004641
99710.00000 0.004677
99720.00000 0.004718
99730.00000 0.00476
99740.00000 0.004804
99750.00000 0.004848
99760.00000 0.004894
99770.00000 0.004943
99780.00000 0.004992
99790.00000 0.00504
99800.00000 0.005083
99810.00000 0.005122
99820.00000 0.005159
99830.00000 0.005193
99840.00000 0.005224
99850.00000 0.005252
99860.00000 0.005276
99870.00000 0.005295
99880.00000 0.005312
99890.00000 0.00533
99900.00000 0.005349
99910.00000 0.00537
99920.00000 0.00539
99930.00000 0.005412
99940.00000 0.005436
99950.00000 0.005463
99960.00000 0.005493
99970.00000 0.005526
99980.00000 0.005561
99990.00000 0.005597
100000.00000 0.005632
100010.00000 0.005667
100020.00000 0.005705
100030.00000 0.005742
100040.00000 0.005776
100050.00000 0.005805
100060.00000 0.005829
100070.00000 0.005849
100080.00000 0.005867
100090.00000 0.005879
100100.00000 0.005888
100110.00000 0.00589
100120.00000 0.005888
100130.00000 0.005882
100140.00000 0.005872
100150.00000 0.005859
100160.00000 0.005841
100170.00000 0.005817
100180.00000 0.005791
100190.00000 0.005764
100200.00000 0.00574
100210.00000 0.005711
100220.00000 0.005674
100230.00000 0.005642
100240.00000 0.005625
100250.00000 0.005634
100260.00000 0.005657
100270.00000 0.005683
100280.00000 0.005734
100290.00000 0.005833
100300.00000 0.006003
100310.00000 0.006238
100320.00000 0.006516
100330.00000 0.006856
100340.00000 0.007275
100350.00000 0.007792
100360.00000 0.008417
100370.00000 0.00914
100380.00000 0.009947
100390.00000 0.010827
100400.00000 0.011767
100410.00000 0.012788
100420.00000 0.013916
100430.00000 0.015103
100440.00000 0.016298
100450.00000 0.017453
100460.00000 0.018575
100470.00000 0.019727
100480.00000 0.020856
100490.00000 0.021903
100500.00000 0.022809
100510.00000 0.023557
100520.00000 0.024209
100530.00000 0.024743
100540.00000 0.025136
100550.00000 0.025361
100560.00000 0.025397
100570.00000 0.025249
100580.00000 0.024944
100590.00000 0.02451
100600.00000 0.023974
100610.00000 0.023337
100620.00000 0.022539
100630.00000 0.021629
100640.00000 0.020662
100650.00000 0.019696
100660.00000 0.018759
100670.00000 0.017773
100680.00000 0.016769
100690.00000 0.015789
100700.00000 0.014879
100710.00000 0.014069
100720.00000 0.013319
100730.00000 0.012628
100740.00000 0.012005
100750.00000 0.011459
100760.00000 0.011
100770.00000 0.010634
100780.00000 0.010348
100790.00000 0.010126
100800.00000 0.009954
100810.00000 0.00982
100820.00000 0.009748
100830.00000 0.009731
100840.00000 0.009753
100850.00000 0.009796
100860.00000 0.009842
100870.00000 0.00991
100880.00000 0.010002
100890.00000 0.010108
100900.00000 0.010219
100910.00000 0.010327
100920.00000 0.010435
100930.00000 0.010549
100940.00000 0.010666
100950.00000 0.010784
100960.00000 0.010901
100970.00000 0.011018
100980.00000 0.011136
100990.00000 0.011254
101000.00000 0.011373
101010.00000 0.011492
101020.00000 0.011611
101030.00000 0.01173
101040.00000 0.01185
101050.00000 0.01197
101060.00000 0.01209
101070.00000 0.01221
101080.00000 0.012329
101090.00000 0.012449
101100.00000 0.012569
101110.00000 0.01269
101120.00000 0.012811
101130.00000 0.012932
101140.00000 0.013054
101150.00000 0.013177
101160.00000 0.013302
101170.00000 0.013429
101180.00000 0.013559
101190.00000 0.013691
101200.00000 0.013823
101210.00000 0.013956
101220.00000 0.014088
101230.00000 0.014222
101240.00000 0.014357
101250.00000 0.014491
101260.00000 0.014624
101270.00000 0.014754
101280.00000 0.014884
101290.00000 0.015012
101300.00000 0.015139
101310.00000 0.015263
101320.00000 0.015385
101330.00000 0.015503
101340.00000 0.015619
101350.00000 0.015734
101360.00000 0.015847
101370.00000 0.015959
101380.00000 0.01607
101390.00000 0.016179
101400.00000 0.016288
101410.00000 0.016397
101420.00000 0.016506
101430.00000 0.016615
101440.00000 0.016725
101450.00000 0.016835
101460.00000 0.016945
101470.00000 0.017056
101480.00000 0.017166
101490.00000 0.017276
101500.00000 0.017386
101510.00000 0.017497
101520.00000 0.017613
101530.00000 0.017732
101540.00000 0.017852
101550.00000 0.017975
101560.00000 0.018103
101570.00000 0.018235
101580.00000 0.018372
101590.00000 0.018514
101600.00000 0.018661
101610.00000 0.018812
101620.00000 0.01897
101630.00000 0.019136
101640.00000 0.019309
101650.00000 0.019489
101660.00000 0.019674
101670.00000 0.019863
101680.00000 0.020055
101690.00000 0.020253
101700.00000 0.020457
101710.00000 0.020664
101720.00000 0.020869
101730.00000 0.021069
101740.00000 0.021267
101750.00000 0.021466
101760.00000 0.021661
101770.00000 0.02185
101780.00000 0.022027
101790.00000 0.022193
101800.00000 0.022351
101810.00000 0.0225
101820.00000 0.022641
101830.00000 0.022772
101840.00000 0.022892
101850.00000 0.022998
101860.00000 0.023095
101870.00000 0.023188
101880.00000 0.023281
101890.00000 0.023377
101900.00000 0.023465
101910.00000 0.023552
101920.00000 0.023643
101930.00000 0.023746
101940.00000 0.023869
101950.00000 0.024001
101960.00000 0.024143
101970.00000 0.0243
101980.00000 0.024476
101990.00000 0.024676
102000.00000 0.024899
102010.00000 0.025144
102020.00000 0.025408
102030.00000 0.025689
102040.00000 0.025985
102050.00000 0.026301
102060.00000 0.026639
102070.00000 0.026992
102080.00000 0.027355
102090.00000 0.02772
102100.00000 0.028087
102110.00000 0.028465
102120.00000 0.028848
102130.00000 0.029232
102140.00000 0.029609
102150.00000 0.029976
102160.00000 0.030338
102170.00000 0.030695
102180.00000 0.031046
102190.00000 0.031391
102200.00000 0.031726
102210.00000 0.032052
102220.00000 0.032369
102230.00000 0.03268
102240.00000 0.032987
102250.00000 0.033292
102260.00000 0.033592
102270.00000 0.033887
102280.00000 0.034179
102290.00000 0.034471
102300.00000 0.034765
102310.00000 0.035062
102320.00000 0.03536
102330.00000 0.035659
102340.00000 0.035959
102350.00000 0.036262
102360.00000 0.036567
102370.00000 0.036875
102380.00000 0.037184
102390.00000 0.037496
102400.00000 0.03781
102410.00000 0.038126
102420.00000 0.038444
102430.00000 0.038763
102440.00000 0.039085
102450.00000 0.03941
102460.00000 0.039737
102470.00000 0.040065
102480.00000 0.040395
102490.00000 0.040728
102500.00000 0.041065
102510.00000 0.041408
102520.00000 0.041756
102530.00000 0.042108
102540.00000 0.042465
102550.00000 0.042827
102560.00000 0.043196
102570.00000 0.043572
102580.00000 0.043953
102590.00000 0.044341
102600.00000 0.044734
102610.00000 0.045134
102620.00000 0.04554
102630.00000 0.045953
102640.00000 0.046372
102650.00000 0.046797
102660.00000 0.047227
102670.00000 0.047659
102680.00000 0.048096
102690.00000 0.048537
102700.00000 0.048983
102710.00000 0.049431
102720.00000 0.049882
102730.00000 0.050335
102740.00000 0.050792
102750.00000 0.051252
102760.00000 0.051713
102770.00000 0.052176
102780.00000 0.052638
102790.00000 0.053102
102800.00000 0.053567
102810.00000 0.054032
102820.00000 0.054499
102830.00000 0.054967
102840.00000 0.055435
102850.00000 0.055904
102860.00000 0.056373
102870.00000 0.056844
102880.00000 0.057317
102890.00000 0.057791
102900.00000 0.058265
102910.00000 0.058741
102920.00000 0.059219
102930.00000 0.059702
102940.00000 0.06019
102950.00000 0.060681
102960.00000 0.061175
102970.00000 0.061673
102980.00000 0.062178
102990.00000 0.062688
103000.00000 0.063205
103010.00000 0.063726
103020.00000 0.064254
103030.00000 0.064786
103040.00000 0.065323
103050.00000 0.065867
103060.00000 0.066417
103070.00000 0.066972
103080.00000 0.06753
103090.00000 0.06809
103100.00000 0.068652
103110.00000 0.069218
103120.00000 0.069787
103130.00000 0.070357
103140.00000 0.070928
103150.00000 0.071497
103160.00000 0.072067
103170.00000 0.072637
103180.00000 0.073207
103190.00000 0.073778
103200.00000 0.07435
103210.00000 0.07492
103220.00000 0.07549
103230.00000 0.07606
103240.00000 0.076634
103250.00000 0.077211
103260.00000 0.077793
103270.00000 0.078376
103280.00000 0.078962
103290.00000 0.079554
103300.00000 0.080153
103310.00000 0.080761
103320.00000 0.081375
103330.00000 0.081996
103340.00000 0.082624
103350.00000 0.08326
103360.00000 0.083906
103370.00000 0.084561
103380.00000 0.085225
103390.00000 0.085897
103400.00000 0.086577
103410.00000 0.087265
103420.00000 0.087959
103430.00000 0.088663
103440.00000 0.089374
103450.00000 0.090091
103460.00000 0.090813
103470.00000 0.091539
103480.00000 0.09227
103490.00000 0.093006
103500.00000 0.093747
103510.00000 0.09449
103520.00000 0.095236
103530.00000 0.095984
103540.00000 0.096736
103550.00000 0.09749
103560.00000 0.098247
103570.00000 0.099006
103580.00000 0.099766
103590.00000 0.100529
103600.00000 0.101293
103610.00000 0.10206
103620.00000 0.102831
103630.00000 0.103606
103640.00000 0.104385
103650.00000 0.105167
103660.00000 0.105952
103670.00000 0.106742
103680.00000 0.107536
103690.00000 0.108335
103700.00000 0.109138
103710.00000 0.109945
103720.00000 0.110755
103730.00000 0.111571
103740.00000 0.112391
103750.00000 0.113215
103760.00000 0.114045
103770.00000 0.114877
103780.00000 0.115713
103790.00000 0.116551
103800.00000 0.117391
103810.00000 0.118234
103820.00000 0.11908
103830.00000 0.119929
103840.00000 0.120781
103850.00000 0.121637
103860.00000 0.122495
103870.00000 0.123357
103880.00000 0.124222
103890.00000 0.125092
103900.00000 0.125968
103910.00000 0.126846
103920.00000 0.127729
103930.00000 0.128617
103940.00000 0.129512
103950.00000 0.130417
103960.00000 0.131329
103970.00000 0.132249
103980.00000 0.133176
103990.00000 0.134112
104000.00000 0.135057
104010.00000 0.136011
104020.00000 0.136975
104030.00000 0.137947
104040.00000 0.138927
104050.00000 0.139916
104060.00000 0.140914
104070.00000 0.141922
104080.00000 0.142939
104090.00000 0.143964
104100.00000 0.144995
104110.00000 0.146031
104120.00000 0.147071
104130.00000 0.148119
104140.00000 0.149171
104150.00000 0.150228
104160.00000 0.151288
104170.00000 0.152349
104180.00000 0.153414
104190.00000 0.154482
104200.00000 0.155553
104210.00000 0.156625
104220.00000 0.157697
104230.00000 0.158768
104240.00000 0.159839
104250.00000 0.160912
104260.00000 0.161985
104270.00000 0.163059
104280.00000 0.164134
104290.00000 0.165209
104300.00000 0.166285
104310.00000 0.167362
104320.00000 0.168441
104330.00000 0.169523
104340.00000 0.170607
104350.00000 0.171691
104360.00000 0.172778
104370.00000 0.173869
104380.00000 0.174966
104390.00000 0.17607
104400.00000 0.177177
104410.00000 0.178289
104420.00000 0.179407
104430.00000 0.180531
104440.00000 0.181664
104450.00000 0.182803
104460.00000 0.18395
104470.00000 0.185103
104480.00000 0.186263
104490.00000 0.187431
104500.00000 0.188606
104510.00000 0.189789
104520.00000 0.19098
104530.00000 0.192176
104540.00000 0.193376
104550.00000 0.19458
104560.00000 0.195788
104570.00000 0.197003
104580.00000 0.19822
104590.00000 0.199439
104600.00000 0.200656
104610.00000 0.201873
104620.00000 0.203091
104630.00000 0.204309
104640.00000 0.205526
104650.00000 0.20674
104660.00000 0.207949
104670.00000 0.209154
104680.00000 0.210356
104690.00000 0.211556
104700.00000 0.212753
104710.00000 0.213947
104720.00000 0.215138
104730.00000 0.216325
104740.00000 0.217509
104750.00000 0.218693
104760.00000 0.219878
104770.00000 0.221066
104780.00000 0.222253
104790.00000 0.223441
104800.00000 0.224631
104810.00000 0.225825
104820.00000 0.227025
104830.00000 0.228232
104840.00000 0.229443
104850.00000 0.23066
104860.00000 0.231882
104870.00000 0.23311
104880.00000 0.234345
104890.00000 0.235587
104900.00000 0.236837
104910.00000 0.238091
104920.00000 0.239351
104930.00000 0.240614
104940.00000 0.24188
104950.00000 0.243152
104960.00000 0.244429
104970.00000 0.245708
104980.00000 0.246989
104990.00000 0.248269
105000.00000 0.249551
105010.00000 0.250835
105020.00000 0.252121
105030.00000 0.253406
105040.00000 0.254693
105050.00000 0.255979
105060.00000 0.257265
105070.00000 0.258552
105080.00000 0.25984
105090.00000 0.261129
105100.00000 0.26242
105110.00000 0.263712
105120.00000 0.265006
105130.00000 0.266301
105140.00000 0.267598
105150.00000 0.268897
105160.00000 0.270198
105170.00000 0.271502
105180.00000 0.272807
105190.00000 0.274114
105200.00000 0.275423
105210.00000 0.276732
105220.00000 0.278043
105230.00000 0.279356
105240.00000 0.28067
105250.00000 0.281984
105260.00000 0.283299
105270.00000 0.284613
105280.00000 0.285927
105290.00000 0.287242
105300.00000 0.288557
105310.00000 0.289872
105320.00000 0.291188
105330.00000 0.292504
105340.00000 0.293819
105350.00000 0.295135
105360.00000 0.296452
105370.00000 0.297769
105380.00000 0.299087
105390.00000 0.300405
105400.00000 0.301725
105410.00000 0.303044
105420.00000 0.304364
105430.00000 0.305684
105440.00000 0.307004
105450.00000 0.308325
105460.00000 0.309646
105470.00000 0.310966
105480.00000 0.312284
105490.00000 0.313601
105500.00000 0.314917
105510.00000 0.316232
105520.00000 0.317546
105530.00000 0.318857
105540.00000 0.320167
105550.00000 0.321474
105560.00000 0.322779
105570.00000 0.324082
105580.00000 0.325384
105590.00000 0.326684
105600.00000 0.327984
105610.00000 0.329283
105620.00000 0.33058
105630.00000 0.331876
105640.00000 0.333172
105650.00000 0.334469
105660.00000 0.335767
105670.00000 0.337065
105680.00000 0.338363
105690.00000 0.339661
105700.00000 0.340959
105710.00000 0.342258
105720.00000 0.343557
105730.00000 0.344857
105740.00000 0.346156
105750.00000 0.347455
105760.00000 0.34875
105770.00000 0.350043
105780.00000 0.351335
105790.00000 0.352625
105800.00000 0.353912
105810.00000 0.355196
105820.00000 0.356476
105830.00000 0.357751
105840.00000 0.359023
105850.00000 0.36029
105860.00000 0.361555
105870.00000 0.362815
105880.00000 0.364072
105890.00000 0.365325
105900.00000 0.366573
105910.00000 0.367818
105920.00000 0.369061
105930.00000 0.370301
105940.00000 0.37154
105950.00000 0.372776
105960.00000 0.374009
105970.00000 0.375241
105980.00000 0.376471
105990.00000 0.3777
106000.00000 0.378927
106010.00000 0.380153
106020.00000 0.381378
106030.00000 0.382601
106040.00000 0.383822
106050.00000 0.385041
106060.00000 0.38626
106070.00000 0.387476
106080.00000 0.388691
106090.00000 0.389904
106100.00000 0.391114
106110.00000 0.392322
106120.00000 0.393528
106130.00000 0.394731
106140.00000 0.395932
106150.00000 0.397129
106160.00000 0.398324
106170.00000 0.399516
106180.00000 0.400705
106190.00000 0.401891
106200.00000 0.403073
106210.00000 0.404252
106220.00000 0.405427
106230.00000 0.406599
106240.00000 0.407767
106250.00000 0.408931
106260.00000 0.410092
106270.00000 0.411249
106280.00000 0.412401
106290.00000 0.413549
106300.00000 0.414694
106310.00000 0.415835
106320.00000 0.416973
106330.00000 0.418108
106340.00000 0.419239
106350.00000 0.420366
106360.00000 0.421491
106370.00000 0.422614
106380.00000 0.423735
106390.00000 0.424855
106400.00000 0.425973
106410.00000 0.42709
106420.00000 0.428205
106430.00000 0.429319
106440.00000 0.430433
106450.00000 0.431548
106460.00000 0.432662
106470.00000 0.433776
106480.00000 0.434888
106490.00000 0.435998
106500.00000 0.437106
106510.00000 0.438214
106520.00000 0.43932
106530.00000 0.440423
106540.00000 0.441523
106550.00000 0.442616
106560.00000 0.443703
106570.00000 0.444787
106580.00000 0.445866
106590.00000 0.446938
106600.00000 0.448004
106610.00000 0.44906
106620.00000 0.450108
106630.00000 0.451149
106640.00000 0.452182
106650.00000 0.453207
106660.00000 0.454226
106670.00000 0.455238
106680.00000 0.45624
106690.00000 0.457236
106700.00000 0.458224
106710.00000 0.459207
106720.00000 0.460186
106730.00000 0.461162
106740.00000 0.462131
106750.00000 0.463095
106760.00000 0.464056
106770.00000 0.465015
106780.00000 0.465975
106790.00000 0.466933
106800.00000 0.46789
106810.00000 0.468845
106820.00000 0.4698
106830.00000 0.470755
106840.00000 0.471713
106850.00000 0.472671
106860.00000 0.473629
106870.00000 0.474589
106880.00000 0.475549
106890.00000 0.476512
106900.00000 0.477477
106910.00000 0.478444
106920.00000 0.479412
106930.00000 0.480383
106940.00000 0.481355
106950.00000 0.482329
106960.00000 0.483304
106970.00000 0.484282
106980.00000 0.485261
106990.00000 0.486242
107000.00000 0.487223
107010.00000 0.488205
107020.00000 0.489189
107030.00000 0.490174
107040.00000 0.491161
107050.00000 0.492146
107060.00000 0.493131
107070.00000 0.494112
107080.00000 0.495093
107090.00000 0.496073
107100.00000 0.497052
107110.00000 0.498027
107120.00000 0.498999
107130.00000 0.499967
107140.00000 0.500932
107150.00000 0.501894
107160.00000 0.502852
107170.00000 0.503807
107180.00000 0.504758
107190.00000 0.505704
107200.00000 0.506645
107210.00000 0.507582
107220.00000 0.508516
107230.00000 0.509448
107240.00000 0.510379
107250.00000 0.511307
107260.00000 0.512232
107270.00000 0.513156
107280.00000 0.514078
107290.00000 0.515002
107300.00000 0.515926
107310.00000 0.516851
107320.00000 0.517775
107330.00000 0.518699
107340.00000 0.519625
107350.00000 0.520554
107360.00000 0.521486
107370.00000 0.522421
107380.00000 0.523358
107390.00000 0.524297
107400.00000 0.525237
107410.00000 0.526179
107420.00000 0.527122
107430.00000 0.528069
107440.00000 0.529017
107450.00000 0.529965
107460.00000 0.530914
107470.00000 0.53186
107480.00000 0.532807
107490.00000 0.533755
107500.00000 0.534702
107510.00000 0.535647
107520.00000 0.53659
107530.00000 0.537529
107540.00000 0.538465
107550.00000 0.539398
107560.00000 0.540329
107570.00000 0.541257
107580.00000 0.542182
107590.00000 0.543103
107600.00000 0.544021
107610.00000 0.544936
107620.00000 0.545848
107630.00000 0.546758
107640.00000 0.547666
107650.00000 0.548574
107660.00000 0.549478
107670.00000 0.550381
107680.00000 0.551283
107690.00000 0.552183
107700.00000 0.553084
107710.00000 0.553985
107720.00000 0.554887
107730.00000 0.555787
107740.00000 0.556687
107750.00000 0.557585
107760.00000 0.558481
107770.00000 0.559377
107780.00000 0.560273
107790.00000 0.561167
107800.00000 0.562057
107810.00000 0.562942
107820.00000 0.563821
107830.00000 0.564696
107840.00000 0.565567
107850.00000 0.566433
107860.00000 0.567292
107870.00000 0.568143
107880.00000 0.568985
107890.00000 0.569819
107900.00000 0.570646
107910.00000 0.571465
107920.00000 0.572278
107930.00000 0.573084
107940.00000 0.573882
107950.00000 0.574672
107960.00000 0.575455
107970.00000 0.576232
107980.00000 0.577004
107990.00000 0.577774
108000.00000 0.57854
108010.00000 0.579301
108020.00000 0.580058
108030.00000 0.580812
108040.00000 0.581563
108050.00000 0.582312
108060.00000 0.583059
108070.00000 0.583804
108080.00000 0.584546
108090.00000 0.585286
108100.00000 0.586022
108110.00000 0.586754
108120.00000 0.587484
108130.00000 0.58821
108140.00000 0.588934
108150.00000 0.589653
108160.00000 0.590368
108170.00000 0.591078
108180.00000 0.591783
108190.00000 0.592484
108200.00000 0.59318
108210.00000 0.593874
108220.00000 0.594566
108230.00000 0.595256
108240.00000 0.595942
108250.00000 0.596626
108260.00000 0.597307
108270.00000 0.597989
108280.00000 0.598672
108290.00000 0.599357
108300.00000 0.600043
108310.00000 0.600728
108320.00000 0.601414
108330.00000 0.602102
108340.00000 0.602792
108350.00000 0.603485
108360.00000 0.604181
108370.00000 0.60488
108380.00000 0.605578
108390.00000 0.606276
108400.00000 0.60697
108410.00000 0.607663
108420.00000 0.608357
108430.00000 0.609049
108440.00000 0.609738
108450.00000 0.610421
108460.00000 0.611096
108470.00000 0.611765
108480.00000 0.612429
108490.00000 0.613088
108500.00000 0.613739
108510.00000 0.614383
108520.00000 0.615018
108530.00000 0.615643
108540.00000 0.61626
108550.00000 0.61687
108560.00000 0.617473
108570.00000 0.618071
108580.00000 0.618665
108590.00000 0.619252
108600.00000 0.619833
108610.00000 0.620409
108620.00000 0.620981
108630.00000 0.621552
108640.00000 0.622121
108650.00000 0.622689
108660.00000 0.623253
108670.00000 0.623815
108680.00000 0.624376
108690.00000 0.624935
108700.00000 0.625493
108710.00000 0.626051
108720.00000 0.626609
108730.00000 0.627164
108740.00000 0.627717
108750.00000 0.628266
108760.00000 0.628811
108770.00000 0.629354
108780.00000 0.629893
108790.00000 0.630429
108800.00000 0.630962
108810.00000 0.631492
108820.00000 0.632017
108830.00000 0.632538
108840.00000 0.633056
108850.00000 0.63357
108860.00000 0.634083
108870.00000 0.634595
108880.00000 0.635107
108890.00000 0.635616
108900.00000 0.636122
108910.00000 0.636629
108920.00000 0.637138
108930.00000 0.63765
108940.00000 0.638165
108950.00000 0.638683
108960.00000 0.639203
108970.00000 0.639725
108980.00000 0.64025
108990.00000 0.640779
109000.00000 0.641312
109010.00000 0.641849
109020.00000 0.64239
109030.00000 0.642932
109040.00000 0.643477
109050.00000 0.644022
109060.00000 0.644568
109070.00000 0.645116
109080.00000 0.645667
109090.00000 0.646217
109100.00000 0.646768
109110.00000 0.647316
109120.00000 0.647863
109130.00000 0.648409
109140.00000 0.648954
109150.00000 0.649499
109160.00000 0.650045
109170.00000 0.650591
109180.00000 0.651137
109190.00000 0.651682
109200.00000 0.652228
109210.00000 0.652775
109220.00000 0.653326
109230.00000 0.65388
109240.00000 0.654439
109250.00000 0.654999
109260.00000 0.655563
109270.00000 0.656131
109280.00000 0.656702
109290.00000 0.657277
109300.00000 0.657857
109310.00000 0.658443
109320.00000 0.659032
109330.00000 0.659623
109340.00000 0.660215
109350.00000 0.660806
109360.00000 0.661398
109370.00000 0.661993
109380.00000 0.662588
109390.00000 0.663181
109400.00000 0.66377
109410.00000 0.664352
109420.00000 0.664929
109430.00000 0.665503
109440.00000 0.666073
109450.00000 0.666637
109460.00000 0.667195
109470.00000 0.667744
109480.00000 0.668286
109490.00000 0.66882
109500.00000 0.669347
109510.00000 0.669869
109520.00000 0.670385
109530.00000 0.670897
109540.00000 0.671402
109550.00000 0.671901
109560.00000 0.672394
109570.00000 0.672884
109580.00000 0.67337
109590.00000 0.673855
109600.00000 0.674338
109610.00000 0.674818
109620.00000 0.675294
109630.00000 0.675768
109640.00000 0.67624
109650.00000 0.67671
109660.00000 0.677179
109670.00000 0.677646
109680.00000 0.678111
109690.00000 0.678573
109700.00000 0.679032
109710.00000 0.679486
109720.00000 0.679937
109730.00000 0.680385
109740.00000 0.680829
109750.00000 0.681269
109760.00000 0.681705
109770.00000 0.682137
109780.00000 0.682562
109790.00000 0.682983
109800.00000 0.6834
109810.00000 0.683813
109820.00000 0.684223
109830.00000 0.68463
109840.00000 0.685033
109850.00000 0.685432
109860.00000 0.685827
109870.00000 0.686221
109880.00000 0.686613
109890.00000 0.687006
109900.00000 0.687399
109910.00000 0.687789
109920.00000 0.688178
109930.00000 0.688568
109940.00000 0.688959
109950.00000 0.689353
109960.00000 0.689749
109970.00000 0.690146
109980.00000 0.690544
109990.00000 0.690944
110000.00000 0.691347
110010.00000 0.691751
110020.00000 0.692158
110030.00000 0.692568
110040.00000 0.69298
110050.00000 0.693393
110060.00000 0.693808
110070.00000 0.694223
110080.00000 0.694639
110090.00000 0.695058
110100.00000 0.695478
110110.00000 0.695899
110120.00000 0.696318
110130.00000 0.696736
110140.00000 0.697151
110150.00000 0.697567
110160.00000 0.697982
110170.00000 0.698395
110180.00000 0.698805
110190.00000 0.699212
110200.00000 0.699614
110210.00000 0.700013
110220.00000 0.70041
110230.00000 0.700803
110240.00000 0.701191
110250.00000 0.701575
110260.00000 0.701953
110270.00000 0.702326
110280.00000 0.702695
110290.00000 0.703059
110300.00000 0.703419
110310.00000 0.703776
110320.00000 0.704128
110330.00000 0.704476
110340.00000 0.704819
110350.00000 0.705158
110360.00000 0.705496
110370.00000 0.705832
110380.00000 0.706166
110390.00000 0.706498
110400.00000 0.706827
110410.00000 0.707155
110420.00000 0.707482
110430.00000 0.707811
110440.00000 0.708142
110450.00000 0.708474
110460.00000 0.708806
110470.00000 0.709138
110480.00000 0.709473
110490.00000 0.709811
110500.00000 0.710153
110510.00000 0.710497
110520.00000 0.710844
110530.00000 0.711194
110540.00000 0.711547
110550.00000 0.711902
110560.00000 0.712262
110570.00000 0.712625
110580.00000 0.712991
110590.00000 0.71336
110600.00000 0.713733
110610.00000 0.714108
110620.00000 0.714485
110630.00000 0.714865
110640.00000 0.715247
110650.00000 0.715632
110660.00000 0.71602
110670.00000 0.716409
110680.00000 0.716801
110690.00000 0.717194
110700.00000 0.71759
110710.00000 0.717987
110720.00000 0.718387
110730.00000 0.718789
110740.00000 0.719192
110750.00000 0.719598
110760.00000 0.720005
110770.00000 0.720414
110780.00000 0.720825
110790.00000 0.721238
110800.00000 0.721652
110810.00000 0.722068
110820.00000 0.722485
110830.00000 0.722905
110840.00000 0.723326
110850.00000 0.723747
110860.00000 0.724169
110870.00000 0.724591
110880.00000 0.725015
110890.00000 0.725439
110900.00000 0.725864
110910.00000 0.726288
110920.00000 0.726711
110930.00000 0.727132
110940.00000 0.727553
110950.00000 0.727973
110960.00000 0.728393
110970.00000 0.728811
110980.00000 0.729226
110990.00000 0.729639
111000.00000 0.73005
111010.00000 0.730459
111020.00000 0.730866
111030.00000 0.73127
111040.00000 0.731673
111050.00000 0.732072
111060.00000 0.732469
111070.00000 0.732862
111080.00000 0.733253
111090.00000 0.733643
111100.00000 0.734031
111110.00000 0.734418
111120.00000 0.734804
111130.00000 0.735187
111140.00000 0.735568
111150.00000 0.73595
111160.00000 0.736332
111170.00000 0.736717
111180.00000 0.737104
111190.00000 0.73749
111200.00000 0.737878
111210.00000 0.738268
111220.00000 0.738661
111230.00000 0.739058
111240.00000 0.739461
111250.00000 0.739867
111260.00000 0.740277
111270.00000 0.740691
111280.00000 0.741109
111290.00000 0.741531
111300.00000 0.741959
111310.00000 0.742392
111320.00000 0.74283
111330.00000 0.743272
111340.00000 0.743717
111350.00000 0.744165
111360.00000 0.744613
111370.00000 0.745066
111380.00000 0.745521
111390.00000 0.74598
111400.00000 0.746439
111410.00000 0.746896
111420.00000 0.747352
111430.00000 0.747805
111440.00000 0.74826
111450.00000 0.748713
111460.00000 0.749164
111470.00000 0.749612
111480.00000 0.750054
111490.00000 0.750492
111500.00000 0.750926
111510.00000 0.751356
111520.00000 0.751783
111530.00000 0.752204
111540.00000 0.752621
111550.00000 0.753032
111560.00000 0.753437
111570.00000 0.753837
111580.00000 0.754232
111590.00000 0.754623
111600.00000 0.755011
111610.00000 0.755396
111620.00000 0.755777
111630.00000 0.756153
111640.00000 0.756526
111650.00000 0.756897
111660.00000 0.757267
111670.00000 0.757639
111680.00000 0.75801
111690.00000 0.758378
111700.00000 0.758746
111710.00000 0.759115
111720.00000 0.759486
111730.00000 0.759861
111740.00000 0.76024
111750.00000 0.76062
111760.00000 0.761003
111770.00000 0.761389
111780.00000 0.761778
111790.00000 0.762172
111800.00000 0.76257
111810.00000 0.762973
111820.00000 0.76338
111830.00000 0.763791
111840.00000 0.764205
111850.00000 0.764622
111860.00000 0.765042
111870.00000 0.765467
111880.00000 0.765896
111890.00000 0.766328
111900.00000 0.766762
111910.00000 0.767197
111920.00000 0.767632
111930.00000 0.768069
111940.00000 0.768508
111950.00000 0.768948
111960.00000 0.769389
111970.00000 0.769828
111980.00000 0.770266
111990.00000 0.770703
112000.00000 0.771139
112010.00000 0.771576
112020.00000 0.77201
112030.00000 0.772442
112040.00000 0.772871
112050.00000 0.773295
112060.00000 0.773718
112070.00000 0.774137
112080.00000 0.774554
112090.00000 0.774967
112100.00000 0.775374
112110.00000 0.775776
112120.00000 0.776174
112130.00000 0.776568
112140.00000 0.776957
112150.00000 0.777341
112160.00000 0.777718
112170.00000 0.778089
112180.00000 0.778452
112190.00000 0.77881
112200.00000 0.779162
112210.00000 0.779507
112220.00000 0.779845
112230.00000 0.780178
112240.00000 0.780503
112250.00000 0.780821
112260.00000 0.781132
112270.00000 0.781438
112280.00000 0.781738
112290.00000 0.782035
112300.00000 0.782328
112310.00000 0.782614
112320.00000 0.782895
112330.00000 0.783172
112340.00000 0.783447
112350.00000 0.783722
112360.00000 0.784
112370.00000 0.784276
112380.00000 0.784551
112390.00000 0.784826
112400.00000 0.785101
112410.00000 0.78538
112420.00000 0.785662
112430.00000 0.78595
112440.00000 0.78624
112450.00000 0.786534
112460.00000 0.78683
112470.00000 0.78713
112480.00000 0.787432
112490.00000 0.787738
112500.00000 0.788049
112510.00000 0.788364
112520.00000 0.788682
112530.00000 0.789001
112540.00000 0.78932
112550.00000 0.789638
112560.00000 0.789956
112570.00000 0.790277
112580.00000 0.790597
112590.00000 0.790917
112600.00000 0.791235
112610.00000 0.79155
112620.00000 0.791861
112630.00000 0.79217
112640.00000 0.792478
112650.00000 0.792783
112660.00000 0.793086
112670.00000 0.793386
112680.00000 0.793684
112690.00000 0.793979
112700.00000 0.794271
112710.00000 0.794562
112720.00000 0.79485
112730.00000 0.795138
112740.00000 0.795425
112750.00000 0.795712
112760.00000 0.795997
112770.00000 0.796281
112780.00000 0.796564
112790.00000 0.796846
112800.00000 0.797128
112810.00000 0.79741
112820.00000 0.797692
112830.00000 0.797974
112840.00000 0.798255
112850.00000 0.798534
112860.00000 0.798811
112870.00000 0.799084
112880.00000 0.799356
112890.00000 0.799627
112900.00000 0.799896
112910.00000 0.800161
112920.00000 0.800423
112930.00000 0.800679
112940.00000 0.800932
112950.00000 0.80118
112960.00000 0.801425
112970.00000 0.801666
112980.00000 0.801903
112990.00000 0.802135
113000.00000 0.802363
113010.00000 0.802585
113020.00000 0.802803
113030.00000 0.803017
113040.00000 0.803228
113050.00000 0.803435
113060.00000 0.803641
113070.00000 0.803842
113080.00000 0.80404
113090.00000 0.804236
113100.00000 0.804428
113110.00000 0.804619
113120.00000 0.804808
113130.00000 0.804996
113140.00000 0.805182
113150.00000 0.805365
113160.00000 0.805547
113170.00000 0.805728
113180.00000 0.805909
113190.00000 0.80609
113200.00000 0.806271
113210.00000 0.806451
113220.00000 0.80663
113230.00000 0.80681
113240.00000 0.80699
113250.00000 0.807171
113260.00000 0.807352
113270.00000 0.807534
113280.00000 0.807715
113290.00000 0.807898
113300.00000 0.808082
113310.00000 0.808268
113320.00000 0.808456
113330.00000 0.808647
113340.00000 0.808839
113350.00000 0.809032
113360.00000 0.809227
113370.00000 0.809423
113380.00000 0.809619
113390.00000 0.809817
113400.00000 0.810017
113410.00000 0.810217
113420.00000 0.810418
113430.00000 0.810619
113440.00000 0.81082
113450.00000 0.811019
113460.00000 0.811221
113470.00000 0.811422
113480.00000 0.811623
113490.00000 0.811822
113500.00000 0.812017
113510.00000 0.812207
113520.00000 0.812396
113530.00000 0.812582
113540.00000 0.812765
113550.00000 0.812944
113560.00000 0.813118
113570.00000 0.813286
113580.00000 0.813448
113590.00000 0.813607
113600.00000 0.813761
113610.00000 0.813909
113620.00000 0.81405
113630.00000 0.814182
113640.00000 0.814304
113650.00000 0.814418
113660.00000 0.814524
113670.00000 0.814623
113680.00000 0.814712
113690.00000 0.814792
113700.00000 0.814861
113710.00000 0.81492
113720.00000 0.814969
113730.00000 0.815009
113740.00000 0.815039
113750.00000 0.81506
113760.00000 0.815071
113770.00000 0.815073
113780.00000 0.815062
113790.00000 0.81504
113800.00000 0.81501
113810.00000 0.814973
113820.00000 0.814931
113830.00000 0.814888
113840.00000 0.814839
113850.00000 0.814783
113860.00000 0.814721
113870.00000 0.814657
113880.00000 0.814594
113890.00000 0.814534
113900.00000 0.814479
113910.00000 0.814423
113920.00000 0.814368
113930.00000 0.814315
113940.00000 0.814266
113950.00000 0.814223
113960.00000 0.814187
113970.00000 0.814159
113980.00000 0.814138
113990.00000 0.814123
114000.00000 0.814112
114010.00000 0.814104
114020.00000 0.814096
114030.00000 0.81409
114040.00000 0.81409
114050.00000 0.814095
114060.00000 0.8141
114070.00000 0.814103
114080.00000 0.814099
114090.00000 0.814086
114100.00000 0.814067
114110.00000 0.814045
114120.00000 0.814019
114130.00000 0.813984
114140.00000 0.813937
114150.00000 0.813875
114160.00000 0.813794
114170.00000 0.813701
114180.00000 0.813595
114190.00000 0.813475
114200.00000 0.81334
114210.00000 0.81319
114220.00000 0.813021
114230.00000 0.812835
114240.00000 0.812631
114250.00000 0.812411
114260.00000 0.812176
114270.00000 0.811926
114280.00000 0.811663
114290.00000 0.811386
114300.00000 0.811093
114310.00000 0.810785
114320.00000 0.810463
114330.00000 0.810129
114340.00000 0.809785
114350.00000 0.809433
114360.00000 0.809071
114370.00000 0.808697
114380.00000 0.808312
114390.00000 0.807918
114400.00000 0.807515
114410.00000 0.807107
114420.00000 0.806693
114430.00000 0.806271
114440.00000 0.805841
114450.00000 0.805404
114460.00000 0.804961
114470.00000 0.804513
114480.00000 0.804061
114490.00000 0.803606
114500.00000 0.803144
114510.00000 0.802676
114520.00000 0.802205
114530.00000 0.801731
114540.00000 0.801255
114550.00000 0.800779
114560.00000 0.8003
114570.00000 0.799818
114580.00000 0.799334
114590.00000 0.798849
114600.00000 0.798366
114610.00000 0.797884
114620.00000 0.797405
114630.00000 0.796926
114640.00000 0.796447
114650.00000 0.795969
114660.00000 0.795495
114670.00000 0.795024
114680.00000 0.794559
114690.00000 0.794097
114700.00000 0.793638
114710.00000 0.793183
114720.00000 0.792732
114730.00000 0.792286
114740.00000 0.791846
114750.00000 0.791413
114760.00000 0.790985
114770.00000 0.790561
114780.00000 0.790143
114790.00000 0.789732
114800.00000 0.789329
114810.00000 0.788935
114820.00000 0.788548
114830.00000 0.788167
114840.00000 0.787793
114850.00000 0.787428
114860.00000 0.787074
114870.00000 0.786731
114880.00000 0.786401
114890.00000 0.786081
114900.00000 0.78577
114910.00000 0.785471
114920.00000 0.785185
114930.00000 0.784912
114940.00000 0.784656
114950.00000 0.784415
114960.00000 0.784187
114970.00000 0.783973
114980.00000 0.783774
114990.00000 0.78359
115000.00000 0.783422
115010.00000 0.783272
115020.00000 0.783138
115030.00000 0.783021
115040.00000 0.78292
115050.00000 0.782835
115060.00000 0.782764
115070.00000 0.782708
115080.00000 0.782666
115090.00000 0.78264
115100.00000 0.782631
115110.00000 0.782635
115120.00000 0.782653
115130.00000 0.782682
115140.00000 0.782722
115150.00000 0.782774
115160.00000 0.78284
115170.00000 0.782918
115180.00000 0.783007
115190.00000 0.783105
115200.00000 0.78321
115210.00000 0.783321
115220.00000 0.783441
115230.00000 0.78357
115240.00000 0.783707
115250.00000 0.78385
115260.00000 0.783999
115270.00000 0.784152
115280.00000 0.784308
115290.00000 0.784471
115300.00000 0.78464
115310.00000 0.784813
115320.00000 0.784989
115330.00000 0.785167
115340.00000 0.785346
115350.00000 0.785525
115360.00000 0.785707
115370.00000 0.785892
115380.00000 0.786077
115390.00000 0.786264
115400.00000 0.786449
115410.00000 0.786635
115420.00000 0.78682
115430.00000 0.787007
115440.00000 0.787194
115450.00000 0.78738
115460.00000 0.787565
115470.00000 0.787747
115480.00000 0.787928
115490.00000 0.788106
115500.00000 0.788283
115510.00000 0.788458
115520.00000 0.788633
115530.00000 0.788806
115540.00000 0.788978
115550.00000 0.789149
115560.00000 0.789319
115570.00000 0.789487
115580.00000 0.789654
115590.00000 0.789821
115600.00000 0.789988
115610.00000 0.790155
115620.00000 0.79032
115630.00000 0.790485
115640.00000 0.790649
115650.00000 0.790814
115660.00000 0.790981
115670.00000 0.791151
115680.00000 0.791324
115690.00000 0.791497
115700.00000 0.791673
115710.00000 0.791851
115720.00000 0.792031
115730.00000 0.792215
115740.00000 0.792404
115750.00000 0.792596
115760.00000 0.792791
115770.00000 0.792989
115780.00000 0.793191
115790.00000 0.793397
115800.00000 0.793608
115810.00000 0.793825
115820.00000 0.794047
115830.00000 0.794273
115840.00000 0.794505
115850.00000 0.79474
115860.00000 0.794981
115870.00000 0.795225
115880.00000 0.795474
115890.00000 0.795728
115900.00000 0.795987
115910.00000 0.79625
115920.00000 0.796517
115930.00000 0.796787
115940.00000 0.797061
115950.00000 0.797339
115960.00000 0.797621
115970.00000 0.797908
115980.00000 0.798197
115990.00000 0.79849
116000.00000 0.798784
116010.00000 0.799081
116020.00000 0.799379
116030.00000 0.799681
116040.00000 0.799985
116050.00000 0.800291
116060.00000 0.800599
116070.00000 0.800908
116080.00000 0.801218
116090.00000 0.80153
116100.00000 0.801844
116110.00000 0.802159
116120.00000 0.802475
116130.00000 0.802793
116140.00000 0.803111
116150.00000 0.80343
116160.00000 0.803751
116170.00000 0.804072
116180.00000 0.804395
116190.00000 0.804718
116200.00000 0.805041
116210.00000 0.805363
116220.00000 0.805686
116230.00000 0.80601
116240.00000 0.806334
116250.00000 0.806658
116260.00000 0.80698
116270.00000 0.8073
116280.00000 0.807615
116290.00000 0.80793
116300.00000 0.808244
116310.00000 0.808555
116320.00000 0.808864
116330.00000 0.809166
116340.00000 0.809462
116350.00000 0.80975
116360.00000 0.810033
116370.00000 0.810311
116380.00000 0.810583
116390.00000 0.810848
116400.00000 0.811104
116410.00000 0.811349
116420.00000 0.811584
116430.00000 0.811809
116440.00000 0.812025
116450.00000 0.812232
116460.00000 0.81243
116470.00000 0.812618
116480.00000 0.812797
116490.00000 0.812966
116500.00000 0.813123
116510.00000 0.81327
116520.00000 0.813409
116530.00000 0.81354
116540.00000 0.813665
116550.00000 0.813786
116560.00000 0.8139
116570.00000 0.814006
116580.00000 0.814105
116590.00000 0.814198
116600.00000 0.814289
116610.00000 0.814379
116620.00000 0.814468
116630.00000 0.814556
116640.00000 0.814641
116650.00000 0.814723
116660.00000 0.814804
116670.00000 0.814885
116680.00000 0.814964
116690.00000 0.815045
116700.00000 0.815126
116710.00000 0.815208
116720.00000 0.815289
116730.00000 0.815368
116740.00000 0.815445
116750.00000 0.815519
116760.00000 0.81559
116770.00000 0.81566
116780.00000 0.815729
116790.00000 0.815796
116800.00000 0.815858
116810.00000 0.815914
116820.00000 0.815963
116830.00000 0.816005
116840.00000 0.816042
116850.00000 0.816073
116860.00000 0.816098
116870.00000 0.816117
116880.00000 0.816128
116890.00000 0.816132
116900.00000 0.816127
116910.00000 0.816114
116920.00000 0.816094
116930.00000 0.816068
116940.00000 0.816034
116950.00000 0.815995
116960.00000 0.815951
116970.00000 0.815899
116980.00000 0.81584
116990.00000 0.815774
117000.00000 0.815704
117010.00000 0.81563
117020.00000 0.815553
117030.00000 0.815474
117040.00000 0.815392
117050.00000 0.815306
117060.00000 0.815216
117070.00000 0.815125
117080.00000 0.815031
117090.00000 0.814937
117100.00000 0.814843
117110.00000 0.814747
117120.00000 0.81465
117130.00000 0.814551
117140.00000 0.814452
117150.00000 0.814353
117160.00000 0.814253
117170.00000 0.814155
117180.00000 0.814056
117190.00000 0.813957
117200.00000 0.813858
117210.00000 0.813759
117220.00000 0.813659
117230.00000 0.813559
117240.00000 0.813459
117250.00000 0.813359
117260.00000 0.813258
117270.00000 0.813157
117280.00000 0.813056
117290.00000 0.812955
117300.00000 0.812854
117310.00000 0.812754
117320.00000 0.812653
117330.00000 0.812552
117340.00000 0.812451
117350.00000 0.81235
117360.00000 0.812249
117370.00000 0.812149
117380.00000 0.812048
117390.00000 0.811947
117400.00000 0.811845
117410.00000 0.811745
117420.00000 0.811645
117430.00000 0.811547
117440.00000 0.81145
117450.00000 0.811355
117460.00000 0.811261
117470.00000 0.811167
117480.00000 0.811076
117490.00000 0.810987
117500.00000 0.810902
117510.00000 0.810822
117520.00000 0.810744
117530.00000 0.810668
117540.00000 0.810596
117550.00000 0.810527
117560.00000 0.810464
117570.00000 0.810406
117580.00000 0.810355
117590.00000 0.810311
117600.00000 0.810271
117610.00000 0.810238
117620.00000 0.810209
117630.00000 0.810186
117640.00000 0.810169
117650.00000 0.810158
117660.00000 0.810154
117670.00000 0.810156
117680.00000 0.810165
117690.00000 0.810177
117700.00000 0.810193
117710.00000 0.810212
117720.00000 0.810231
117730.00000 0.810256
117740.00000 0.810286
117750.00000 0.810319
117760.00000 0.810353
117770.00000 0.810385
117780.00000 0.810415
117790.00000 0.810441
117800.00000 0.810466
117810.00000 0.810491
117820.00000 0.810514
117830.00000 0.810535
117840.00000 0.810551
117850.00000 0.810562
117860.00000 0.810567
117870.00000 0.810566
117880.00000 0.810561
117890.00000 0.810551
117900.00000 0.810538
117910.00000 0.81052
117920.00000 0.8105
117930.00000 0.810476
117940.00000 0.810445
117950.00000 0.81041
117960.00000 0.810372
117970.00000 0.810332
117980.00000 0.810291
117990.00000 0.810252
118000.00000 0.810215
118010.00000 0.810175
118020.00000 0.810135
118030.00000 0.810095
118040.00000 0.810056
118050.00000 0.81002
118060.00000 0.809987
118070.00000 0.809959
118080.00000 0.809933
118090.00000 0.80991
118100.00000 0.80989
118110.00000 0.809872
118120.00000 0.809856
118130.00000 0.809842
118140.00000 0.80983
118150.00000 0.809822
118160.00000 0.809817
118170.00000 0.809814
118180.00000 0.809811
118190.00000 0.809807
118200.00000 0.8098
118210.00000 0.809791
118220.00000 0.809783
118230.00000 0.809774
118240.00000 0.809763
118250.00000 0.80975
118260.00000 0.809733
118270.00000 0.809711
118280.00000 0.809683
118290.00000 0.809652
118300.00000 0.809617
118310.00000 0.809578
118320.00000 0.809534
118330.00000 0.809486
118340.00000 0.809434
118350.00000 0.809376
118360.00000 0.809313
118370.00000 0.809245
118380.00000 0.809172
118390.00000 0.809096
118400.00000 0.809017
118410.00000 0.808935
118420.00000 0.80885
118430.00000 0.808761
118440.00000 0.808669
118450.00000 0.808574
118460.00000 0.808476
118470.00000 0.808376
118480.00000 0.808273
118490.00000 0.80817
118500.00000 0.808063
118510.00000 0.807955
118520.00000 0.807845
118530.00000 0.807731
118540.00000 0.807616
118550.00000 0.807497
118560.00000 0.807376
118570.00000 0.807252
118580.00000 0.807126
118590.00000 0.806997
118600.00000 0.806866
118610.00000 0.806731
118620.00000 0.806592
118630.00000 0.80645
118640.00000 0.806304
118650.00000 0.806155
118660.00000 0.806003
118670.00000 0.805848
118680.00000 0.80569
118690.00000 0.805529
118700.00000 0.805366
118710.00000 0.8052
118720.00000 0.80503
118730.00000 0.804858
118740.00000 0.804684
118750.00000 0.804509
118760.00000 0.804333
118770.00000 0.804157
118780.00000 0.803979
118790.00000 0.803799
118800.00000 0.803618
118810.00000 0.803437
118820.00000 0.803257
118830.00000 0.803077
118840.00000 0.802899
118850.00000 0.802721
118860.00000 0.802543
118870.00000 0.802366
118880.00000 0.80219
118890.00000 0.802015
118900.00000 0.801841
118910.00000 0.80167
118920.00000 0.8015
118930.00000 0.801331
118940.00000 0.801163
118950.00000 0.800997
118960.00000 0.800833
118970.00000 0.800671
118980.00000 0.800512
118990.00000 0.800355
119000.00000 0.800199
119010.00000 0.800045
119020.00000 0.799894
119030.00000 0.799746
119040.00000 0.799602
119050.00000 0.799462
119060.00000 0.799325
119070.00000 0.79919
119080.00000 0.799059
119090.00000 0.798932
119100.00000 0.79881
119110.00000 0.798694
119120.00000 0.798585
119130.00000 0.79848
119140.00000 0.79838
119150.00000 0.798285
119160.00000 0.798196
119170.00000 0.798115
119180.00000 0.798041
119190.00000 0.797977
119200.00000 0.79792
119210.00000 0.79787
119220.00000 0.797828
119230.00000 0.797794
119240.00000 0.797769
119250.00000 0.797752
119260.00000 0.797745
119270.00000 0.797748
119280.00000 0.797761
119290.00000 0.797782
119300.00000 0.797813
119310.00000 0.797851
119320.00000 0.797898
119330.00000 0.797952
119340.00000 0.798015
119350.00000 0.798089
119360.00000 0.798171
119370.00000 0.798261
119380.00000 0.798357
119390.00000 0.798456
119400.00000 0.798558
119410.00000 0.798663
119420.00000 0.798777
119430.00000 0.798896
119440.00000 0.799018
119450.00000 0.799141
119460.00000 0.799263
119470.00000 0.79938
119480.00000 0.799493
119490.00000 0.799606
119500.00000 0.79972
119510.00000 0.799831
119520.00000 0.799938
119530.00000 0.800038
119540.00000 0.800129
119550.00000 0.80021
119560.00000 0.800283
119570.00000 0.80035
119580.00000 0.800409
119590.00000 0.80046
119600.00000 0.800504
119610.00000 0.800538
119620.00000 0.800563
119630.00000 0.800577
119640.00000 0.80058
119650.00000 0.800576
119660.00000 0.800563
119670.00000 0.800546
119680.00000 0.800524
119690.00000 0.8005
119700.00000 0.80047
119710.00000 0.800432
119720.00000 0.800389
119730.00000 0.800343
119740.00000 0.800296
119750.00000 0.800251
119760.00000 0.80021
119770.00000 0.800172
119780.00000 0.800133
119790.00000 0.800095
119800.00000 0.800058
119810.00000 0.800024
119820.00000 0.799995
119830.00000 0.799972
119840.00000 0.799955
119850.00000 0.799943
119860.00000 0.799937
119870.00000 0.799934
119880.00000 0.799935
119890.00000 0.799938
119900.00000 0.799943
119910.00000 0.799951
119920.00000 0.799963
119930.00000 0.79998
119940.00000 0.799999
119950.00000 0.800019
119960.00000 0.800037
119970.00000 0.800052
119980.00000 0.800063
119990.00000 0.800074
120000.00000 0.800084
120010.00000 0.800093
120020.00000 0.800099
120030.00000 0.800101
120040.00000 0.800099
120050.00000 0.800091
120060.00000 0.800077
120070.00000 0.800059
120080.00000 0.800036
120090.00000 0.80001
120100.00000 0.799981
120110.00000 0.799949
120120.00000 0.799914
120130.00000 0.799876
120140.00000 0.799833
120150.00000 0.799787
120160.00000 0.799738
120170.00000 0.799688
120180.00000 0.799639
120190.00000 0.799591
120200.00000 0.799544
120210.00000 0.799497
120220.00000 0.799449
120230.00000 0.799401
120240.00000 0.799355
120250.00000 0.79931
120260.00000 0.799268
120270.00000 0.799228
120280.00000 0.799192
120290.00000 0.799157
120300.00000 0.799125
120310.00000 0.799094
120320.00000 0.799064
120330.00000 0.799034
120340.00000 0.799006
120350.00000 0.79898
120360.00000 0.798956
120370.00000 0.798933
120380.00000 0.79891
120390.00000 0.798887
120400.00000 0.798863
120410.00000 0.798836
120420.00000 0.798808
120430.00000 0.798781
120440.00000 0.798752
120450.00000 0.798722
120460.00000 0.79869
120470.00000 0.798656
120480.00000 0.798619
120490.00000 0.798579
120500.00000 0.798537
120510.00000 0.798492
120520.00000 0.798445
120530.00000 0.798396
120540.00000 0.798345
120550.00000 0.798293
120560.00000 0.798239
120570.00000 0.798182
120580.00000 0.798123
120590.00000 0.798062
120600.00000 0.798001
120610.00000 0.797938
120620.00000 0.797876
120630.00000 0.797815
120640.00000 0.797753
120650.00000 0.79769
120660.00000 0.797627
120670.00000 0.797564
120680.00000 0.797502
120690.00000 0.797442
120700.00000 0.797384
120710.00000 0.797327
120720.00000 0.797272
120730.00000 0.797218
120740.00000 0.797165
120750.00000 0.797114
120760.00000 0.797066
120770.00000 0.797019
120780.00000 0.796976
120790.00000 0.796935
120800.00000 0.796895
120810.00000 0.796858
120820.00000 0.796823
120830.00000 0.79679
120840.00000 0.79676
120850.00000 0.796731
120860.00000 0.796705
120870.00000 0.796681
120880.00000 0.796659
120890.00000 0.79664
120900.00000 0.796621
120910.00000 0.796605
120920.00000 0.796589
120930.00000 0.796574
120940.00000 0.796562
120950.00000 0.796551
120960.00000 0.796541
120970.00000 0.796533
120980.00000 0.796525
120990.00000 0.796517
121000.00000 0.79651
121010.00000 0.796505
121020.00000 0.7965
121030.00000 0.796497
121040.00000 0.796493
121050.00000 0.79649
121060.00000 0.796486
121070.00000 0.796482
121080.00000 0.796478
121090.00000 0.796475
121100.00000 0.796473
121110.00000 0.796469
121120.00000 0.796465
121130.00000 0.796459
121140.00000 0.796451
121150.00000 0.796442
121160.00000 0.796433
121170.00000 0.796423
121180.00000 0.796411
121190.00000 0.796397
121200.00000 0.79638
121210.00000 0.79636
121220.00000 0.796336
121230.00000 0.79631
121240.00000 0.796281
121250.00000 0.796249
121260.00000 0.796214
121270.00000 0.796176
121280.00000 0.796135
121290.00000 0.796091
121300.00000 0.796043
121310.00000 0.795991
121320.00000 0.795936
121330.00000 0.795878
121340.00000 0.795819
121350.00000 0.795758
121360.00000 0.795696
121370.00000 0.795633
121380.00000 0.795566
121390.00000 0.795498
121400.00000 0.795428
121410.00000 0.795358
121420.00000 0.795289
121430.00000 0.795221
121440.00000 0.795155
121450.00000 0.795088
121460.00000 0.795022
121470.00000 0.794956
121480.00000 0.794891
121490.00000 0.794828
121500.00000 0.794766
121510.00000 0.794706
121520.00000 0.794648
121530.00000 0.794592
121540.00000 0.794538
121550.00000 0.794484
121560.00000 0.794432
121570.00000 0.79438
121580.00000 0.794328
121590.00000 0.794278
121600.00000 0.79423
121610.00000 0.794183
121620.00000 0.794136
121630.00000 0.794089
121640.00000 0.794041
121650.00000 0.793992
121660.00000 0.793942
121670.00000 0.793891
121680.00000 0.793841
121690.00000 0.793789
121700.00000 0.793736
121710.00000 0.793682
121720.00000 0.793625
121730.00000 0.793565
121740.00000 0.793503
121750.00000 0.79344
121760.00000 0.793374
121770.00000 0.793307
121780.00000 0.793237
121790.00000 0.793164
121800.00000 0.793089
121810.00000 0.793011
121820.00000 0.79293
121830.00000 0.792846
121840.00000 0.79276
121850.00000 0.792671
121860.00000 0.792581
121870.00000 0.792489
121880.00000 0.792394
121890.00000 0.792297
121900.00000 0.792198
121910.00000 0.792096
121920.00000 0.791993
121930.00000 0.791889
121940.00000 0.791783
121950.00000 0.791677
121960.00000 0.79157
121970.00000 0.791461
121980.00000 0.791351
121990.00000 0.79124
122000.00000 0.791129
122010.00000 0.791017
122020.00000 0.790906
122030.00000 0.790796
122040.00000 0.790685
122050.00000 0.790574
122060.00000 0.790463
122070.00000 0.790353
122080.00000 0.790242
122090.00000 0.790133
122100.00000 0.790024
122110.00000 0.789916
122120.00000 0.789809
122130.00000 0.789702
122140.00000 0.789596
122150.00000 0.78949
122160.00000 0.789384
122170.00000 0.789277
122180.00000 0.789171
122190.00000 0.789065
122200.00000 0.788959
122210.00000 0.788853
122220.00000 0.788747
122230.00000 0.788639
122240.00000 0.78853
122250.00000 0.788419
122260.00000 0.788307
122270.00000 0.788193
122280.00000 0.788079
122290.00000 0.787963
122300.00000 0.787845
122310.00000 0.787725
122320.00000 0.787602
122330.00000 0.787477
122340.00000 0.787348
122350.00000 0.787218
122360.00000 0.787084
122370.00000 0.786949
122380.00000 0.786812
122390.00000 0.786674
122400.00000 0.786533
122410.00000 0.786391
122420.00000 0.786246
122430.00000 0.786098
122440.00000 0.78595
122450.00000 0.7858
122460.00000 0.78565
122470.00000 0.7855
122480.00000 0.78535
122490.00000 0.785199
122500.00000 0.785047
122510.00000 0.784895
122520.00000 0.784743
122530.00000 0.784591
122540.00000 0.784439
122550.00000 0.784288
122560.00000 0.784139
122570.00000 0.783991
122580.00000 0.783843
122590.00000 0.783695
122600.00000 0.783546
122610.00000 0.783397
122620.00000 0.783246
122630.00000 0.783094
122640.00000 0.782942
122650.00000 0.782789
122660.00000 0.782636
122670.00000 0.782481
122680.00000 0.782324
122690.00000 0.782163
122700.00000 0.781997
122710.00000 0.781829
122720.00000 0.781658
122730.00000 0.781484
122740.00000 0.781307
122750.00000 0.781126
122760.00000 0.780941
122770.00000 0.780751
122780.00000 0.780555
122790.00000 0.780354
122800.00000 0.780148
122810.00000 0.779937
122820.00000 0.779723
122830.00000 0.779505
122840.00000 0.779283
122850.00000 0.77906
122860.00000 0.778832
122870.00000 0.7786
122880.00000 0.778364
122890.00000 0.778125
122900.00000 0.777884
122910.00000 0.777641
122920.00000 0.777398
122930.00000 0.777155
122940.00000 0.77691
122950.00000 0.776662
122960.00000 0.776413
122970.00000 0.776164
122980.00000 0.775914
122990.00000 0.775666
123000.00000 0.775418
123010.00000 0.775172
123020.00000 0.774926
123030.00000 0.774682
123040.00000 0.774437
123050.00000 0.774193
123060.00000 0.773948
123070.00000 0.773702
123080.00000 0.773456
123090.00000 0.77321
123100.00000 0.772965
123110.00000 0.77272
123120.00000 0.772473
123130.00000 0.772224
123140.00000 0.771972
123150.00000 0.771716
123160.00000 0.771455
123170.00000 0.771194
123180.00000 0.770931
123190.00000 0.770664
123200.00000 0.770393
123210.00000 0.770116
123220.00000 0.769833
123230.00000 0.769542
123240.00000 0.769244
123250.00000 0.768941
123260.00000 0.768632
123270.00000 0.768317
123280.00000 0.767996
123290.00000 0.767668
123300.00000 0.767334
123310.00000 0.766992
123320.00000 0.766643
123330.00000 0.766287
123340.00000 0.765925
123350.00000 0.765556
123360.00000 0.765183
123370.00000 0.764805
123380.00000 0.764424
123390.00000 0.764038
123400.00000 0.763645
123410.00000 0.763247
123420.00000 0.762845
123430.00000 0.76244
123440.00000 0.762033
123450.00000 0.761624
123460.00000 0.761216
123470.00000 0.760806
123480.00000 0.760393
123490.00000 0.759978
123500.00000 0.759562
123510.00000 0.759144
123520.00000 0.758726
123530.00000 0.758308
123540.00000 0.757889
123550.00000 0.75747
123560.00000 0.75705
123570.00000 0.75663
123580.00000 0.756208
123590.00000 0.755785
123600.00000 0.755359
123610.00000 0.754933
123620.00000 0.754504
123630.00000 0.754076
123640.00000 0.753645
123650.00000 0.753213
123660.00000 0.752779
123670.00000 0.752341
123680.00000 0.7519
123690.00000 0.751455
123700.00000 0.751007
123710.00000 0.750555
123720.00000 0.750101
123730.00000 0.749643
123740.00000 0.749182
123750.00000 0.748719
123760.00000 0.748252
123770.00000 0.747782
123780.00000 0.747308
123790.00000 0.74683
123800.00000 0.746349
123810.00000 0.745866
123820.00000 0.745382
123830.00000 0.744896
123840.00000 0.744411
123850.00000 0.743923
123860.00000 0.743433
123870.00000 0.742941
123880.00000 0.742448
123890.00000 0.741955
123900.00000 0.741464
123910.00000 0.740975
123920.00000 0.740489
123930.00000 0.740004
123940.00000 0.73952
123950.00000 0.739037
123960.00000 0.738555
123970.00000 0.738076
123980.00000 0.737599
123990.00000 0.737126
124000.00000 0.736656
124010.00000 0.736189
124020.00000 0.735726
124030.00000 0.735264
124040.00000 0.734805
124050.00000 0.734347
124060.00000 0.733892
124070.00000 0.733438
124080.00000 0.732986
124090.00000 0.732537
124100.00000 0.73209
124110.00000 0.731645
124120.00000 0.731201
124130.00000 0.730757
124140.00000 0.730313
124150.00000 0.729868
124160.00000 0.729424
124170.00000 0.72898
124180.00000 0.728537
124190.00000 0.728093
124200.00000 0.727649
124210.00000 0.727205
124220.00000 0.726759
124230.00000 0.726312
124240.00000 0.725864
124250.00000 0.725415
124260.00000 0.724966
124270.00000 0.724516
124280.00000 0.724066
124290.00000 0.723614
124300.00000 0.723162
124310.00000 0.72271
124320.00000 0.722256
124330.00000 0.721802
124340.00000 0.721347
124350.00000 0.720892
124360.00000 0.720435
124370.00000 0.719978
124380.00000 0.71952
124390.00000 0.719062
124400.00000 0.718603
124410.00000 0.718144
124420.00000 0.717684
124430.00000 0.717222
124440.00000 0.716759
124450.00000 0.716293
124460.00000 0.715826
124470.00000 0.715357
124480.00000 0.714888
124490.00000 0.714417
124500.00000 0.713943
124510.00000 0.713468
124520.00000 0.712989
124530.00000 0.712506
124540.00000 0.71202
124550.00000 0.711532
124560.00000 0.711041
124570.00000 0.710547
124580.00000 0.71005
124590.00000 0.70955
124600.00000 0.709045
124610.00000 0.708537
124620.00000 0.708024
124630.00000 0.707508
124640.00000 0.706988
124650.00000 0.706464
124660.00000 0.705937
124670.00000 0.705407
124680.00000 0.704874
124690.00000 0.704337
124700.00000 0.703797
124710.00000 0.703253
124720.00000 0.702705
124730.00000 0.702154
124740.00000 0.701601
124750.00000 0.701046
124760.00000 0.70049
124770.00000 0.699932
124780.00000 0.699371
124790.00000 0.698807
124800.00000 0.698241
124810.00000 0.697674
124820.00000 0.697106
124830.00000 0.696539
124840.00000 0.695972
124850.00000 0.695407
124860.00000 0.694839
124870.00000 0.694271
124880.00000 0.693704
124890.00000 0.693137
124900.00000 0.692572
124910.00000 0.69201
124920.00000 0.691452
124930.00000 0.690897
124940.00000 0.690344
124950.00000 0.689792
124960.00000 0.689243
124970.00000 0.688698
124980.00000 0.688157
124990.00000 0.687621
125000.00000 0.687091
125010.00000 0.686567
125020.00000 0.686047
125030.00000 0.685532
125040.00000 0.685022
125050.00000 0.684516
125060.00000 0.684016
125070.00000 0.683519
125080.00000 0.683028
125090.00000 0.682542
125100.00000 0.682062
125110.00000 0.681588
125120.00000 0.681117
125130.00000 0.68065
125140.00000 0.680185
125150.00000 0.679721
125160.00000 0.679259
125170.00000 0.6788
125180.00000 0.678345
125190.00000 0.677893
125200.00000 0.677443
125210.00000 0.676992
125220.00000 0.676541
125230.00000 0.676088
125240.00000 0.675632
125250.00000 0.675175
125260.00000 0.674718
125270.00000 0.674261
125280.00000 0.673802
125290.00000 0.673342
125300.00000 0.67288
125310.00000 0.672416
125320.00000 0.671949
125330.00000 0.67148
125340.00000 0.671008
125350.00000 0.670535
125360.00000 0.67006
125370.00000 0.669585
125380.00000 0.66911
125390.00000 0.668635
125400.00000 0.66816
125410.00000 0.667683
125420.00000 0.667205
125430.00000 0.666726
125440.00000 0.666249
125450.00000 0.665773
125460.00000 0.6653
125470.00000 0.664832
125480.00000 0.664366
125490.00000 0.663902
125500.00000 0.663439
125510.00000 0.66298
125520.00000 0.662523
125530.00000 0.662069
125540.00000 0.66162
125550.00000 0.661175
125560.00000 0.660734
125570.00000 0.660297
125580.00000 0.659863
125590.00000 0.659434
125600.00000 0.659007
125610.00000 0.658584
125620.00000 0.658164
125630.00000 0.657748
125640.00000 0.657335
125650.00000 0.656927
125660.00000 0.656522
125670.00000 0.656121
125680.00000 0.655722
125690.00000 0.655325
125700.00000 0.654929
125710.00000 0.654535
125720.00000 0.654143
125730.00000 0.653753
125740.00000 0.653365
125750.00000 0.652979
125760.00000 0.652594
125770.00000 0.652211
125780.00000 0.651829
125790.00000 0.651449
125800.00000 0.651069
125810.00000 0.650691
125820.00000 0.650314
125830.00000 0.649938
125840.00000 0.649565
125850.00000 0.649193
125860.00000 0.648823
125870.00000 0.648456
125880.00000 0.64809
125890.00000 0.647725
125900.00000 0.647362
125910.00000 0.647002
125920.00000 0.646644
125930.00000 0.646289
125940.00000 0.645937
125950.00000 0.645589
125960.00000 0.645244
125970.00000 0.644902
125980.00000 0.644563
125990.00000 0.644227
126000.00000 0.643893
126010.00000 0.643563
126020.00000 0.643235
126030.00000 0.64291
126040.00000 0.642589
126050.00000 0.64227
126060.00000 0.641955
126070.00000 0.641642
126080.00000 0.641332
126090.00000 0.641024
126100.00000 0.640718
126110.00000 0.640415
126120.00000 0.640114
126130.00000 0.639816
126140.00000 0.63952
126150.00000 0.639227
126160.00000 0.638937
126170.00000 0.638649
126180.00000 0.638365
126190.00000 0.638083
126200.00000 0.637803
126210.00000 0.637526
126220.00000 0.637252
126230.00000 0.636981
126240.00000 0.636714
126250.00000 0.636451
126260.00000 0.636194
126270.00000 0.635941
126280.00000 0.635692
126290.00000 0.635447
126300.00000 0.635206
126310.00000 0.634969
126320.00000 0.634738
126330.00000 0.634512
126340.00000 0.634293
126350.00000 0.634079
126360.00000 0.63387
126370.00000 0.633667
126380.00000 0.633469
126390.00000 0.633277
126400.00000 0.63309
126410.00000 0.632908
126420.00000 0.632732
126430.00000 0.632561
126440.00000 0.632397
126450.00000 0.632238
126460.00000 0.632084
126470.00000 0.631936
126480.00000 0.631792
126490.00000 0.631653
126500.00000 0.631518
126510.00000 0.631389
126520.00000 0.631264
126530.00000 0.631144
126540.00000 0.631029
126550.00000 0.630918
126560.00000 0.630812
126570.00000 0.630709
126580.00000 0.630611
126590.00000 0.630516
126600.00000 0.630425
126610.00000 0.630339
126620.00000 0.630257
126630.00000 0.630179
126640.00000 0.630104
126650.00000 0.630032
126660.00000 0.629962
126670.00000 0.629896
126680.00000 0.629834
126690.00000 0.629775
126700.00000 0.629719
126710.00000 0.629667
126720.00000 0.629615
126730.00000 0.629566
126740.00000 0.629517
126750.00000 0.62947
126760.00000 0.629426
126770.00000 0.629384
126780.00000 0.629344
126790.00000 0.629305
126800.00000 0.629266
126810.00000 0.629227
126820.00000 0.629186
126830.00000 0.629144
126840.00000 0.629103
126850.00000 0.629061
126860.00000 0.62902
126870.00000 0.628978
126880.00000 0.628935
126890.00000 0.628891
126900.00000 0.628846
126910.00000 0.628798
126920.00000 0.62875
126930.00000 0.6287
126940.00000 0.628649
126950.00000 0.628597
126960.00000 0.628544
126970.00000 0.62849
126980.00000 0.628436
126990.00000 0.62838
127000.00000 0.628323
127010.00000 0.628263
127020.00000 0.628203
127030.00000 0.628143
127040.00000 0.628082
127050.00000 0.628023
127060.00000 0.627965
127070.00000 0.627909
127080.00000 0.627854
127090.00000 0.627799
127100.00000 0.627745
127110.00000 0.627692
127120.00000 0.62764
127130.00000 0.62759
127140.00000 0.62754
127150.00000 0.627492
127160.00000 0.627446
127170.00000 0.627401
127180.00000 0.627358
127190.00000 0.627315
127200.00000 0.627274
127210.00000 0.627233
127220.00000 0.627192
127230.00000 0.627152
127240.00000 0.627114
127250.00000 0.627078
127260.00000 0.627043
127270.00000 0.627009
127280.00000 0.626973
127290.00000 0.626934
127300.00000 0.626893
127310.00000 0.626847
127320.00000 0.626799
127330.00000 0.62675
127340.00000 0.626698
127350.00000 0.626644
127360.00000 0.626587
127370.00000 0.626526
127380.00000 0.62646
127390.00000 0.62639
127400.00000 0.626317
127410.00000 0.626241
127420.00000 0.626161
127430.00000 0.626078
127440.00000 0.625989
127450.00000 0.625896
127460.00000 0.625795
127470.00000 0.625688
127480.00000 0.625574
127490.00000 0.625454
127500.00000 0.625329
127510.00000 0.625198
127520.00000 0.625061
127530.00000 0.624918
127540.00000 0.624769
127550.00000 0.624613
127560.00000 0.624452
127570.00000 0.624286
127580.00000 0.624115
127590.00000 0.623937
127600.00000 0.623753
127610.00000 0.623559
127620.00000 0.623357
127630.00000 0.623144
127640.00000 0.622922
127650.00000 0.622691
127660.00000 0.622452
127670.00000 0.622204
127680.00000 0.621946
127690.00000 0.621679
127700.00000 0.621402
127710.00000 0.621115
127720.00000 0.620817
127730.00000 0.62051
127740.00000 0.620195
127750.00000 0.619869
127760.00000 0.619533
127770.00000 0.619185
127780.00000 0.618826
127790.00000 0.618455
127800.00000 0.61807
127810.00000 0.617673
127820.00000 0.617264
127830.00000 0.616843
127840.00000 0.616411
127850.00000 0.615968
127860.00000 0.615513
127870.00000 0.615047
127880.00000 0.614571
127890.00000 0.614085
127900.00000 0.613587
127910.00000 0.613079
127920.00000 0.61256
127930.00000 0.612029
127940.00000 0.611486
127950.00000 0.61093
127960.00000 0.610362
127970.00000 0.609781
127980.00000 0.609189
127990.00000 0.608586
128000.00000 0.60797
128010.00000 0.607341
128020.00000 0.606699
128030.00000 0.606044
128040.00000 0.605374
128050.00000 0.604693
128060.00000 0.604
128070.00000 0.603294
128080.00000 0.602576
128090.00000 0.601842
128100.00000 0.601093
128110.00000 0.600327
128120.00000 0.599542
128130.00000 0.59874
128140.00000 0.597923
128150.00000 0.597091
128160.00000 0.596242
128170.00000 0.595375
128180.00000 0.59449
128190.00000 0.593586
128200.00000 0.592661
128210.00000 0.591714
128220.00000 0.59075
128230.00000 0.589768
128240.00000 0.588766
128250.00000 0.587745
128260.00000 0.586703
128270.00000 0.585638
128280.00000 0.58455
128290.00000 0.583437
128300.00000 0.582303
128310.00000 0.581148
128320.00000 0.57997
128330.00000 0.57877
128340.00000 0.577547
128350.00000 0.576301
128360.00000 0.57503
128370.00000 0.573735
128380.00000 0.572416
128390.00000 0.571074
128400.00000 0.569708
128410.00000 0.568319
128420.00000 0.566906
128430.00000 0.565468
128440.00000 0.564006
128450.00000 0.56252
128460.00000 0.561008
128470.00000 0.559473
128480.00000 0.557913
128490.00000 0.556329
128500.00000 0.55472
128510.00000 0.553088
128520.00000 0.551431
128530.00000 0.549751
128540.00000 0.548047
128550.00000 0.546317
128560.00000 0.544564
128570.00000 0.542786
128580.00000 0.540984
128590.00000 0.53916
128600.00000 0.537312
128610.00000 0.535443
128620.00000 0.533552
128630.00000 0.531638
128640.00000 0.5297
128650.00000 0.527739
128660.00000 0.525756
128670.00000 0.523751
128680.00000 0.521726
128690.00000 0.519682
128700.00000 0.517618
128710.00000 0.515534
128720.00000 0.513428
128730.00000 0.511301
128740.00000 0.509154
128750.00000 0.506988
128760.00000 0.504804
128770.00000 0.502604
128780.00000 0.500389
128790.00000 0.498157
128800.00000 0.495907
128810.00000 0.493639
128820.00000 0.491354
128830.00000 0.489053
128840.00000 0.486736
128850.00000 0.484406
128860.00000 0.482062
128870.00000 0.479706
128880.00000 0.477334
128890.00000 0.474945
128900.00000 0.472542
128910.00000 0.470126
128920.00000 0.467697
128930.00000 0.465258
128940.00000 0.462809
128950.00000 0.460352
128960.00000 0.457883
128970.00000 0.455402
128980.00000 0.45291
128990.00000 0.450407
129000.00000 0.447895
129010.00000 0.445375
129020.00000 0.442848
129030.00000 0.440316
129040.00000 0.437778
129050.00000 0.43523
129060.00000 0.432673
129070.00000 0.430109
129080.00000 0.427539
129090.00000 0.424964
129100.00000 0.422385
129110.00000 0.419803
129120.00000 0.417219
129130.00000 0.414631
129140.00000 0.412038
129150.00000 0.40944
129160.00000 0.406839
129170.00000 0.404235
129180.00000 0.401627
129190.00000 0.399018
129200.00000 0.396406
129210.00000 0.393792
129220.00000 0.391174
129230.00000 0.388553
129240.00000 0.385929
129250.00000 0.383304
129260.00000 0.380676
129270.00000 0.378048
129280.00000 0.375419
129290.00000 0.372789
129300.00000 0.370156
129310.00000 0.367521
129320.00000 0.364885
129330.00000 0.362248
129340.00000 0.359611
129350.00000 0.356975
129360.00000 0.35434
129370.00000 0.351707
129380.00000 0.349073
129390.00000 0.346437
129400.00000 0.343802
129410.00000 0.341169
129420.00000 0.338537
129430.00000 0.33591
129440.00000 0.333288
129450.00000 0.330672
129460.00000 0.32806
129470.00000 0.32545
129480.00000 0.322843
129490.00000 0.32024
129500.00000 0.317643
129510.00000 0.315053
129520.00000 0.312471
129530.00000 0.309897
129540.00000 0.307333
129550.00000 0.304775
129560.00000 0.302224
129570.00000 0.29968
129580.00000 0.297144
129590.00000 0.294617
129600.00000 0.292099
129610.00000 0.289593
129620.00000 0.287098
129630.00000 0.284612
129640.00000 0.282134
129650.00000 0.279666
129660.00000 0.277208
129670.00000 0.274761
129680.00000 0.272325
129690.00000 0.269902
129700.00000 0.267492
129710.00000 0.265095
129720.00000 0.262708
129730.00000 0.260332
129740.00000 0.257968
129750.00000 0.255617
129760.00000 0.253279
129770.00000 0.250954
129780.00000 0.248645
129790.00000 0.24635
129800.00000 0.244067
129810.00000 0.241796
129820.00000 0.239539
129830.00000 0.237296
129840.00000 0.235068
129850.00000 0.232856
129860.00000 0.230662
129870.00000 0.228486
129880.00000 0.226328
129890.00000 0.224185
129900.00000 0.222059
129910.00000 0.219949
129920.00000 0.217856
129930.00000 0.21578
129940.00000 0.213722
129950.00000 0.211681
129960.00000 0.20966
129970.00000 0.207656
129980.00000 0.205669
129990.00000 0.203701
130000.00000 0.201749
130010.00000 0.199815
130020.00000 0.197899
130030.00000 0.196
130040.00000 0.194118
130050.00000 0.192254
130060.00000 0.19041
130070.00000 0.188584
130080.00000 0.186775
130090.00000 0.184982
130100.00000 0.183204
130110.00000 0.18144
130120.00000 0.179689
130130.00000 0.17795
130140.00000 0.176228
130150.00000 0.174521
130160.00000 0.172829
130170.00000 0.17115
130180.00000 0.169485
130190.00000 0.167831
130200.00000 0.166189
130210.00000 0.164558
130220.00000 0.162939
130230.00000 0.161333
130240.00000 0.15974
130250.00000 0.158159
130260.00000 0.156589
130270.00000 0.15503
130280.00000 0.15348
130290.00000 0.15194
130300.00000 0.150409
130310.00000 0.148888
130320.00000 0.147376
130330.00000 0.145875
130340.00000 0.144384
130350.00000 0.142904
130360.00000 0.141435
130370.00000 0.139977
130380.00000 0.13853
130390.00000 0.137093
130400.00000 0.135666
130410.00000 0.13425
130420.00000 0.132844
130430.00000 0.13145
130440.00000 0.130068
130450.00000 0.128697
130460.00000 0.12734
130470.00000 0.125994
130480.00000 0.12466
130490.00000 0.123337
130500.00000 0.122025
130510.00000 0.120726
130520.00000 0.119439
130530.00000 0.118166
130540.00000 0.116907
130550.00000 0.115661
130560.00000 0.11443
130570.00000 0.113211
130580.00000 0.112006
130590.00000 0.110814
130600.00000 0.109635
130610.00000 0.108469
130620.00000 0.107316
130630.00000 0.106177
130640.00000 0.10505
130650.00000 0.103938
130660.00000 0.102839
130670.00000 0.101753
130680.00000 0.10068
130690.00000 0.09962
130700.00000 0.098571
130710.00000 0.097535
130720.00000 0.096509
130730.00000 0.095496
130740.00000 0.094496
130750.00000 0.093508
130760.00000 0.092532
130770.00000 0.091568
130780.00000 0.090615
130790.00000 0.089672
130800.00000 0.088739
130810.00000 0.087817
130820.00000 0.086906
130830.00000 0.086006
130840.00000 0.085117
130850.00000 0.084238
130860.00000 0.08337
130870.00000 0.082511
130880.00000 0.081661
130890.00000 0.080821
130900.00000 0.079989
130910.00000 0.079168
130920.00000 0.078356
130930.00000 0.077554
130940.00000 0.076762
130950.00000 0.075979
130960.00000 0.075204
130970.00000 0.074439
130980.00000 0.073682
130990.00000 0.072935
131000.00000 0.072197
131010.00000 0.071469
131020.00000 0.07075
131030.00000 0.070039
131040.00000 0.069336
131050.00000 0.06864
131060.00000 0.067952
131070.00000 0.067271
131080.00000 0.066599
131090.00000 0.065935
131100.00000 0.065279
131110.00000 0.06463
131120.00000 0.063989
131130.00000 0.063354
131140.00000 0.062726
131150.00000 0.062105
131160.00000 0.061491
131170.00000 0.060885
131180.00000 0.060287
131190.00000 0.059695
131200.00000 0.059109
131210.00000 0.058529
131220.00000 0.057955
131230.00000 0.057384
131240.00000 0.056819
131250.00000 0.056259
131260.00000 0.055704
131270.00000 0.055155
131280.00000 0.054611
131290.00000 0.054072
131300.00000 0.053539
131310.00000 0.05301
131320.00000 0.052485
131330.00000 0.051966
131340.00000 0.051453
131350.00000 0.050944
131360.00000 0.050441
131370.00000 0.049942
131380.00000 0.049447
131390.00000 0.048956
131400.00000 0.048468
131410.00000 0.047983
131420.00000 0.047502
131430.00000 0.047025
131440.00000 0.046551
131450.00000 0.046082
131460.00000 0.045616
131470.00000 0.045153
131480.00000 0.044695
131490.00000 0.04424
131500.00000 0.04379
131510.00000 0.043343
131520.00000 0.042901
131530.00000 0.042462
131540.00000 0.042028
131550.00000 0.041596
131560.00000 0.041168
131570.00000 0.040742
131580.00000 0.04032
131590.00000 0.0399
131600.00000 0.039482
131610.00000 0.039068
131620.00000 0.038656
131630.00000 0.038249
131640.00000 0.037845
131650.00000 0.037445
131660.00000 0.03705
131670.00000 0.03666
131680.00000 0.036274
131690.00000 0.035892
131700.00000 0.035514
131710.00000 0.03514
131720.00000 0.034771
131730.00000 0.034405
131740.00000 0.034044
131750.00000 0.033687
131760.00000 0.033334
131770.00000 0.032985
131780.00000 0.03264
131790.00000 0.032299
131800.00000 0.031962
131810.00000 0.03163
131820.00000 0.031302
131830.00000 0.03098
131840.00000 0.030662
131850.00000 0.03035
131860.00000 0.030043
131870.00000 0.029742
131880.00000 0.029445
131890.00000 0.029152
131900.00000 0.028863
131910.00000 0.028577
131920.00000 0.028295
131930.00000 0.028015
131940.00000 0.02774
131950.00000 0.027468
131960.00000 0.027199
131970.00000 0.026935
131980.00000 0.026673
131990.00000 0.026415
132000.00000 0.026159
132010.00000 0.025906
132020.00000 0.025656
132030.00000 0.02541
132040.00000 0.025167
132050.00000 0.024928
132060.00000 0.024691
132070.00000 0.024456
132080.00000 0.024224
132090.00000 0.023993
132100.00000 0.023764
132110.00000 0.023536
132120.00000 0.02331
132130.00000 0.023086
132140.00000 0.022864
132150.00000 0.022645
132160.00000 0.022427
132170.00000 0.022212
132180.00000 0.021999
132190.00000 0.021789
132200.00000 0.02158
132210.00000 0.021375
132220.00000 0.021172
132230.00000 0.020971
132240.00000 0.020772
132250.00000 0.020575
132260.00000 0.020381
132270.00000 0.020188
132280.00000 0.019998
132290.00000 0.019809
132300.00000 0.019623
132310.00000 0.019439
132320.00000 0.019257
132330.00000 0.019077
132340.00000 0.018899
132350.00000 0.018724
132360.00000 0.01855
132370.00000 0.01838
132380.00000 0.018211
132390.00000 0.018045
132400.00000 0.017882
132410.00000 0.01772
132420.00000 0.017561
132430.00000 0.017403
132440.00000 0.017246
132450.00000 0.017091
132460.00000 0.016938
132470.00000 0.016786
132480.00000 0.016637
132490.00000 0.016489
132500.00000 0.016342
132510.00000 0.016197
132520.00000 0.016054
132530.00000 0.015912
132540.00000 0.015772
132550.00000 0.015633
132560.00000 0.015496
132570.00000 0.015361
132580.00000 0.015227
132590.00000 0.015095
132600.00000 0.014964
132610.00000 0.014834
132620.00000 0.014705
132630.00000 0.014577
132640.00000 0.01445
132650.00000 0.014324
132660.00000 0.0142
132670.00000 0.014076
132680.00000 0.013954
132690.00000 0.013833
132700.00000 0.013712
132710.00000 0.013592
132720.00000 0.013474
132730.00000 0.013356
132740.00000 0.01324
132750.00000 0.013124
132760.00000 0.01301
132770.00000 0.012896
132780.00000 0.012783
132790.00000 0.01267
132800.00000 0.012558
132810.00000 0.012446
132820.00000 0.012335
132830.00000 0.012225
132840.00000 0.012116
132850.00000 0.012007
132860.00000 0.011899
132870.00000 0.01179
132880.00000 0.011683
132890.00000 0.011575
132900.00000 0.011468
132910.00000 0.011362
132920.00000 0.011255
132930.00000 0.01115
132940.00000 0.011044
132950.00000 0.010939
132960.00000 0.010834
132970.00000 0.010729
132980.00000 0.010623
132990.00000 0.010517
133000.00000 0.010412
133010.00000 0.010307
133020.00000 0.010201
133030.00000 0.010096
133040.00000 0.00999
133050.00000 0.009884
133060.00000 0.009778
133070.00000 0.009671
133080.00000 0.009564
133090.00000 0.009457
133100.00000 0.009349
133110.00000 0.009241
133120.00000 0.009133
133130.00000 0.009024
133140.00000 0.008916
133150.00000 0.008808
133160.00000 0.0087
133170.00000 0.008591
133180.00000 0.008482
133190.00000 0.008372
133200.00000 0.008263
133210.00000 0.008154
133220.00000 0.008045
133230.00000 0.007938
133240.00000 0.007832
133250.00000 0.007728
133260.00000 0.007624
133270.00000 0.00752
133280.00000 0.007417
133290.00000 0.007315
133300.00000 0.007214
133310.00000 0.007116
133320.00000 0.007021
133330.00000 0.006928
133340.00000 0.006839
133350.00000 0.006752
133360.00000 0.006666
133370.00000 0.006583
133380.00000 0.006502
133390.00000 0.006424
133400.00000 0.00635
133410.00000 0.006278
133420.00000 0.00621
133430.00000 0.006146
133440.00000 0.006085
133450.00000 0.006028
133460.00000 0.005974
133470.00000 0.005922
133480.00000 0.005874
133490.00000 0.005828
133500.00000 0.005783
133510.00000 0.005741
133520.00000 0.005702
133530.00000 0.005666
133540.00000 0.005633
133550.00000 0.005603
133560.00000 0.005574
133570.00000 0.005546
133580.00000 0.00552
133590.00000 0.005492
133600.00000 0.005464
133610.00000 0.005436
133620.00000 0.005409
133630.00000 0.005384
133640.00000 0.005359
133650.00000 0.005333
133660.00000 0.005307
133670.00000 0.00528
133680.00000 0.00525
133690.00000 0.005219
133700.00000 0.005185
133710.00000 0.00515
133720.00000 0.005114
133730.00000 0.005076
133740.00000 0.005037
133750.00000 0.004997
133760.00000 0.004955
133770.00000 0.004911
133780.00000 0.004866
133790.00000 0.004818
133800.00000 0.004768
133810.00000 0.004716
133820.00000 0.004662
133830.00000 0.004608
133840.00000 0.004552
133850.00000 0.004497
133860.00000 0.004442
133870.00000 0.004388
133880.00000 0.004333
133890.00000 0.004277
133900.00000 0.004221
133910.00000 0.004164
133920.00000 0.004108
133930.00000 0.004053
133940.00000 0.004
147334.00000 0.0
