# %ECSV 0.9
# ---
# datatype:
# - {name: wavelength, unit: Angstrom, datatype: float32}
# - {name: response, datatype: float32}
# meta: !!omap
# - {band_name: PAH2}
# - {group_name: CanariCam}
wavelength response
94221.00000 0.0
104690.00000 0.004004
104700.00000 0.004039
104710.00000 0.004073
104720.00000 0.004104
104730.00000 0.004135
104740.00000 0.004165
104750.00000 0.004194
104760.00000 0.004221
104770.00000 0.004247
104780.00000 0.004269
104790.00000 0.004291
104800.00000 0.004311
104810.00000 0.00433
104820.00000 0.00435
104830.00000 0.004369
104840.00000 0.004386
104850.00000 0.004404
104860.00000 0.004422
104870.00000 0.004441
104880.00000 0.004463
104890.00000 0.004486
104900.00000 0.00451
104910.00000 0.004536
104920.00000 0.004563
104930.00000 0.004593
104940.00000 0.004625
104950.00000 0.00466
104960.00000 0.004697
104970.00000 0.004734
104980.00000 0.004773
104990.00000 0.004812
105000.00000 0.004853
105010.00000 0.004895
105020.00000 0.004938
105030.00000 0.00498
105040.00000 0.00502
105050.00000 0.005058
105060.00000 0.005096
105070.00000 0.005133
105080.00000 0.005169
105090.00000 0.005201
105100.00000 0.005231
105110.00000 0.005258
105120.00000 0.005282
105130.00000 0.005304
105140.00000 0.005323
105150.00000 0.005341
105160.00000 0.005357
105170.00000 0.00537
105180.00000 0.005381
105190.00000 0.005391
105200.00000 0.005401
105210.00000 0.005413
105220.00000 0.005425
105230.00000 0.005436
105240.00000 0.005448
105250.00000 0.005462
105260.00000 0.005479
105270.00000 0.005501
105280.00000 0.005525
105290.00000 0.005552
105300.00000 0.005583
105310.00000 0.005617
105320.00000 0.005656
105330.00000 0.0057
105340.00000 0.005749
105350.00000 0.005802
105360.00000 0.005858
105370.00000 0.005916
105380.00000 0.005977
105390.00000 0.006041
105400.00000 0.006109
105410.00000 0.006178
105420.00000 0.006247
105430.00000 0.006314
105440.00000 0.00638
105450.00000 0.006447
105460.00000 0.006514
105470.00000 0.006577
105480.00000 0.006637
105490.00000 0.006692
105500.00000 0.006743
105510.00000 0.006791
105520.00000 0.006835
105530.00000 0.006875
105540.00000 0.006912
105550.00000 0.006943
105560.00000 0.006969
105570.00000 0.006991
105580.00000 0.007011
105590.00000 0.00703
105600.00000 0.007049
105610.00000 0.007065
105620.00000 0.007079
105630.00000 0.007093
105640.00000 0.007108
105650.00000 0.007128
105660.00000 0.007151
105670.00000 0.007177
105680.00000 0.007205
105690.00000 0.007236
105700.00000 0.007274
105710.00000 0.007317
105720.00000 0.007367
105730.00000 0.007423
105740.00000 0.007484
105750.00000 0.007549
105760.00000 0.007619
105770.00000 0.007693
105780.00000 0.007773
105790.00000 0.007858
105800.00000 0.007947
105810.00000 0.008035
105820.00000 0.008123
105830.00000 0.008212
105840.00000 0.008302
105850.00000 0.008393
105860.00000 0.008483
105870.00000 0.008569
105880.00000 0.00865
105890.00000 0.008728
105900.00000 0.008803
105910.00000 0.008875
105920.00000 0.008944
105930.00000 0.009008
105940.00000 0.009068
105950.00000 0.009123
105960.00000 0.009173
105970.00000 0.009222
105980.00000 0.009269
105990.00000 0.009316
106000.00000 0.009361
106010.00000 0.009403
106020.00000 0.009444
106030.00000 0.009487
106040.00000 0.009533
106050.00000 0.009583
106060.00000 0.009635
106070.00000 0.009689
106080.00000 0.009746
106090.00000 0.009808
106100.00000 0.009875
106110.00000 0.009949
106120.00000 0.010027
106130.00000 0.01011
106140.00000 0.010197
106150.00000 0.010288
106160.00000 0.010382
106170.00000 0.010481
106180.00000 0.010585
106190.00000 0.010692
106200.00000 0.0108
106210.00000 0.01091
106220.00000 0.011019
106230.00000 0.01113
106240.00000 0.011243
106250.00000 0.011356
106260.00000 0.011468
106270.00000 0.011577
106280.00000 0.011684
106290.00000 0.011791
106300.00000 0.011896
106310.00000 0.011999
106320.00000 0.012101
106330.00000 0.012199
106340.00000 0.012295
106350.00000 0.012389
106360.00000 0.01248
106370.00000 0.012571
106380.00000 0.01266
106390.00000 0.012748
106400.00000 0.012834
106410.00000 0.012918
106420.00000 0.013002
106430.00000 0.013087
106440.00000 0.013172
106450.00000 0.013258
106460.00000 0.013343
106470.00000 0.013429
106480.00000 0.013517
106490.00000 0.013607
106500.00000 0.013701
106510.00000 0.013798
106520.00000 0.013896
106530.00000 0.013998
106540.00000 0.014103
106550.00000 0.014212
106560.00000 0.014327
106570.00000 0.014445
106580.00000 0.014567
106590.00000 0.014694
106600.00000 0.014824
106610.00000 0.014958
106620.00000 0.015097
106630.00000 0.01524
106640.00000 0.015388
106650.00000 0.015538
106660.00000 0.01569
106670.00000 0.015843
106680.00000 0.015999
106690.00000 0.016158
106700.00000 0.016319
106710.00000 0.01648
106720.00000 0.016641
106730.00000 0.016802
106740.00000 0.016962
106750.00000 0.017124
106760.00000 0.017285
106770.00000 0.017446
106780.00000 0.017606
106790.00000 0.017765
106800.00000 0.017923
106810.00000 0.01808
106820.00000 0.018238
106830.00000 0.018397
106840.00000 0.018558
106850.00000 0.018719
106860.00000 0.018881
106870.00000 0.019044
106880.00000 0.019209
106890.00000 0.019376
106900.00000 0.019547
106910.00000 0.01972
106920.00000 0.019894
106930.00000 0.020072
106940.00000 0.020252
106950.00000 0.020436
106960.00000 0.020623
106970.00000 0.020814
106980.00000 0.021008
106990.00000 0.021205
107000.00000 0.021404
107010.00000 0.021604
107020.00000 0.021806
107030.00000 0.02201
107040.00000 0.022216
107050.00000 0.022423
107060.00000 0.022633
107070.00000 0.022844
107080.00000 0.023056
107090.00000 0.02327
107100.00000 0.023486
107110.00000 0.023705
107120.00000 0.023926
107130.00000 0.02415
107140.00000 0.024375
107150.00000 0.024602
107160.00000 0.024833
107170.00000 0.025069
107180.00000 0.025311
107190.00000 0.025559
107200.00000 0.025812
107210.00000 0.026069
107220.00000 0.026333
107230.00000 0.026602
107240.00000 0.026877
107250.00000 0.02716
107260.00000 0.027448
107270.00000 0.027742
107280.00000 0.028042
107290.00000 0.028347
107300.00000 0.028656
107310.00000 0.028972
107320.00000 0.029295
107330.00000 0.029621
107340.00000 0.02995
107350.00000 0.030279
107360.00000 0.030608
107370.00000 0.03094
107380.00000 0.031274
107390.00000 0.031608
107400.00000 0.031942
107410.00000 0.032274
107420.00000 0.032604
107430.00000 0.032933
107440.00000 0.033261
107450.00000 0.033589
107460.00000 0.033915
107470.00000 0.034239
107480.00000 0.034561
107490.00000 0.03488
107500.00000 0.035198
107510.00000 0.035517
107520.00000 0.035839
107530.00000 0.036164
107540.00000 0.03649
107550.00000 0.036817
107560.00000 0.037146
107570.00000 0.037481
107580.00000 0.037824
107590.00000 0.038175
107600.00000 0.038531
107610.00000 0.038893
107620.00000 0.039263
107630.00000 0.039642
107640.00000 0.040033
107650.00000 0.040436
107660.00000 0.040849
107670.00000 0.041273
107680.00000 0.041706
107690.00000 0.042151
107700.00000 0.042606
107710.00000 0.043073
107720.00000 0.043552
107730.00000 0.044041
107740.00000 0.04454
107750.00000 0.045048
107760.00000 0.045563
107770.00000 0.046088
107780.00000 0.046622
107790.00000 0.047165
107800.00000 0.047715
107810.00000 0.048272
107820.00000 0.048834
107830.00000 0.049402
107840.00000 0.049977
107850.00000 0.050558
107860.00000 0.051146
107870.00000 0.05174
107880.00000 0.052339
107890.00000 0.052943
107900.00000 0.053553
107910.00000 0.05417
107920.00000 0.054794
107930.00000 0.055427
107940.00000 0.056068
107950.00000 0.056717
107960.00000 0.057373
107970.00000 0.058037
107980.00000 0.05871
107990.00000 0.059394
108000.00000 0.060086
108010.00000 0.060788
108020.00000 0.061499
108030.00000 0.062219
108040.00000 0.062949
108050.00000 0.06369
108060.00000 0.064441
108070.00000 0.065203
108080.00000 0.065975
108090.00000 0.066756
108100.00000 0.067545
108110.00000 0.068341
108120.00000 0.069145
108130.00000 0.069957
108140.00000 0.070777
108150.00000 0.071605
108160.00000 0.072441
108170.00000 0.073285
108180.00000 0.074137
108190.00000 0.074997
108200.00000 0.075864
108210.00000 0.07674
108220.00000 0.077624
108230.00000 0.078516
108240.00000 0.079413
108250.00000 0.080318
108260.00000 0.081231
108270.00000 0.082157
108280.00000 0.083095
108290.00000 0.084048
108300.00000 0.085012
108310.00000 0.085988
108320.00000 0.086976
108330.00000 0.087978
108340.00000 0.088994
108350.00000 0.090023
108360.00000 0.091064
108370.00000 0.092118
108380.00000 0.093187
108390.00000 0.094272
108400.00000 0.095374
108410.00000 0.096495
108420.00000 0.097632
108430.00000 0.098785
108440.00000 0.099955
108450.00000 0.10114
108460.00000 0.102341
108470.00000 0.103555
108480.00000 0.104783
108490.00000 0.106027
108500.00000 0.107289
108510.00000 0.108571
108520.00000 0.109875
108530.00000 0.1112
108540.00000 0.112545
108550.00000 0.113909
108560.00000 0.115294
108570.00000 0.1167
108580.00000 0.118126
108590.00000 0.119571
108600.00000 0.121036
108610.00000 0.122522
108620.00000 0.124029
108630.00000 0.125561
108640.00000 0.127116
108650.00000 0.128698
108660.00000 0.130304
108670.00000 0.131933
108680.00000 0.133581
108690.00000 0.135248
108700.00000 0.136931
108710.00000 0.138633
108720.00000 0.140353
108730.00000 0.142093
108740.00000 0.143851
108750.00000 0.145627
108760.00000 0.147421
108770.00000 0.149234
108780.00000 0.151066
108790.00000 0.152916
108800.00000 0.154782
108810.00000 0.156665
108820.00000 0.158562
108830.00000 0.160471
108840.00000 0.162396
108850.00000 0.164339
108860.00000 0.166303
108870.00000 0.168291
108880.00000 0.170303
108890.00000 0.172335
108900.00000 0.174389
108910.00000 0.176466
108920.00000 0.178569
108930.00000 0.1807
108940.00000 0.182858
108950.00000 0.185039
108960.00000 0.187247
108970.00000 0.189483
108980.00000 0.191751
108990.00000 0.194054
109000.00000 0.196393
109010.00000 0.198765
109020.00000 0.20117
109030.00000 0.203608
109040.00000 0.206078
109050.00000 0.208581
109060.00000 0.211117
109070.00000 0.213686
109080.00000 0.216287
109090.00000 0.218922
109100.00000 0.221588
109110.00000 0.224286
109120.00000 0.227017
109130.00000 0.229781
109140.00000 0.232578
109150.00000 0.235405
109160.00000 0.238261
109170.00000 0.241145
109180.00000 0.244056
109190.00000 0.246997
109200.00000 0.249967
109210.00000 0.252965
109220.00000 0.255992
109230.00000 0.259048
109240.00000 0.262132
109250.00000 0.265245
109260.00000 0.268387
109270.00000 0.271557
109280.00000 0.274754
109290.00000 0.277979
109300.00000 0.281231
109310.00000 0.284512
109320.00000 0.28782
109330.00000 0.291155
109340.00000 0.294518
109350.00000 0.297909
109360.00000 0.301327
109370.00000 0.304774
109380.00000 0.308248
109390.00000 0.311748
109400.00000 0.315274
109410.00000 0.318824
109420.00000 0.3224
109430.00000 0.326001
109440.00000 0.329629
109450.00000 0.33328
109460.00000 0.336953
109470.00000 0.340648
109480.00000 0.344365
109490.00000 0.348107
109500.00000 0.351871
109510.00000 0.355656
109520.00000 0.35946
109530.00000 0.363281
109540.00000 0.367122
109550.00000 0.370982
109560.00000 0.374862
109570.00000 0.37876
109580.00000 0.382675
109590.00000 0.386606
109600.00000 0.390553
109610.00000 0.394519
109620.00000 0.398501
109630.00000 0.402499
109640.00000 0.406512
109650.00000 0.41054
109660.00000 0.414583
109670.00000 0.418642
109680.00000 0.422716
109690.00000 0.426803
109700.00000 0.430902
109710.00000 0.435012
109720.00000 0.439136
109730.00000 0.443276
109740.00000 0.447427
109750.00000 0.451586
109760.00000 0.455751
109770.00000 0.459918
109780.00000 0.464092
109790.00000 0.468275
109800.00000 0.472463
109810.00000 0.476653
109820.00000 0.480839
109830.00000 0.485017
109840.00000 0.489193
109850.00000 0.49337
109860.00000 0.497545
109870.00000 0.501711
109880.00000 0.505864
109890.00000 0.510001
109900.00000 0.514123
109910.00000 0.518234
109920.00000 0.522333
109930.00000 0.526417
109940.00000 0.530484
109950.00000 0.534532
109960.00000 0.538562
109970.00000 0.542576
109980.00000 0.546574
109990.00000 0.550553
110000.00000 0.554512
110010.00000 0.55845
110020.00000 0.562367
110030.00000 0.566264
110040.00000 0.570142
110050.00000 0.573999
110060.00000 0.577838
110070.00000 0.581657
110080.00000 0.585458
110090.00000 0.589243
110100.00000 0.593009
110110.00000 0.596753
110120.00000 0.600473
110130.00000 0.604166
110140.00000 0.607832
110150.00000 0.611478
110160.00000 0.615099
110170.00000 0.618693
110180.00000 0.622256
110190.00000 0.625788
110200.00000 0.629287
110210.00000 0.632762
110220.00000 0.636208
110230.00000 0.639619
110240.00000 0.642991
110250.00000 0.646319
110260.00000 0.6496
110270.00000 0.652841
110280.00000 0.656043
110290.00000 0.659202
110300.00000 0.662316
110310.00000 0.665383
110320.00000 0.668402
110330.00000 0.671378
110340.00000 0.674309
110350.00000 0.677192
110360.00000 0.680027
110370.00000 0.682811
110380.00000 0.685542
110390.00000 0.688219
110400.00000 0.690846
110410.00000 0.693423
110420.00000 0.695954
110430.00000 0.698439
110440.00000 0.70088
110450.00000 0.703274
110460.00000 0.705622
110470.00000 0.707924
110480.00000 0.710181
110490.00000 0.712394
110500.00000 0.714564
110510.00000 0.716687
110520.00000 0.718765
110530.00000 0.720798
110540.00000 0.72279
110550.00000 0.724742
110560.00000 0.726657
110570.00000 0.728534
110580.00000 0.730371
110590.00000 0.732169
110600.00000 0.733925
110610.00000 0.735641
110620.00000 0.737315
110630.00000 0.738947
110640.00000 0.740537
110650.00000 0.742086
110660.00000 0.743595
110670.00000 0.745064
110680.00000 0.746496
110690.00000 0.747889
110700.00000 0.749242
110710.00000 0.750557
110720.00000 0.751832
110730.00000 0.753069
110740.00000 0.754268
110750.00000 0.755427
110760.00000 0.756545
110770.00000 0.757624
110780.00000 0.758665
110790.00000 0.759672
110800.00000 0.760646
110810.00000 0.761586
110820.00000 0.762491
110830.00000 0.763361
110840.00000 0.764197
110850.00000 0.765001
110860.00000 0.765774
110870.00000 0.766517
110880.00000 0.767226
110890.00000 0.767902
110900.00000 0.768547
110910.00000 0.769165
110920.00000 0.769758
110930.00000 0.770327
110940.00000 0.770869
110950.00000 0.771383
110960.00000 0.771872
110970.00000 0.772336
110980.00000 0.77278
110990.00000 0.773203
111000.00000 0.773604
111010.00000 0.773981
111020.00000 0.774337
111030.00000 0.774672
111040.00000 0.774988
111050.00000 0.775286
111060.00000 0.775566
111070.00000 0.775827
111080.00000 0.776068
111090.00000 0.776291
111100.00000 0.776495
111110.00000 0.776683
111120.00000 0.776853
111130.00000 0.777004
111140.00000 0.777138
111150.00000 0.777254
111160.00000 0.777353
111170.00000 0.777436
111180.00000 0.777501
111190.00000 0.777548
111200.00000 0.777578
111210.00000 0.777592
111220.00000 0.777591
111230.00000 0.777576
111240.00000 0.777547
111250.00000 0.777503
111260.00000 0.777443
111270.00000 0.77737
111280.00000 0.777284
111290.00000 0.777187
111300.00000 0.77708
111310.00000 0.776959
111320.00000 0.776826
111330.00000 0.776681
111340.00000 0.776527
111350.00000 0.776364
111360.00000 0.776195
111370.00000 0.776018
111380.00000 0.775832
111390.00000 0.775638
111400.00000 0.775436
111410.00000 0.775227
111420.00000 0.775012
111430.00000 0.77479
111440.00000 0.77456
111450.00000 0.774324
111460.00000 0.774081
111470.00000 0.773834
111480.00000 0.773583
111490.00000 0.773328
111500.00000 0.773068
111510.00000 0.772804
111520.00000 0.772535
111530.00000 0.772263
111540.00000 0.771987
111550.00000 0.771709
111560.00000 0.771426
111570.00000 0.771139
111580.00000 0.770848
111590.00000 0.770556
111600.00000 0.770263
111610.00000 0.769969
111620.00000 0.769674
111630.00000 0.769378
111640.00000 0.76908
111650.00000 0.768781
111660.00000 0.76848
111670.00000 0.768178
111680.00000 0.767873
111690.00000 0.767566
111700.00000 0.767258
111710.00000 0.766949
111720.00000 0.766639
111730.00000 0.766329
111740.00000 0.76602
111750.00000 0.76571
111760.00000 0.765399
111770.00000 0.765089
111780.00000 0.764778
111790.00000 0.764468
111800.00000 0.764159
111810.00000 0.763849
111820.00000 0.763539
111830.00000 0.76323
111840.00000 0.762923
111850.00000 0.762618
111860.00000 0.762316
111870.00000 0.762016
111880.00000 0.761718
111890.00000 0.761423
111900.00000 0.761129
111910.00000 0.760837
111920.00000 0.760547
111930.00000 0.760258
111940.00000 0.759972
111950.00000 0.759687
111960.00000 0.759405
111970.00000 0.759123
111980.00000 0.758844
111990.00000 0.758565
112000.00000 0.758289
112010.00000 0.758014
112020.00000 0.757741
112030.00000 0.757469
112040.00000 0.757198
112050.00000 0.756929
112060.00000 0.756661
112070.00000 0.756393
112080.00000 0.756128
112090.00000 0.755864
112100.00000 0.755603
112110.00000 0.755345
112120.00000 0.755089
112130.00000 0.754835
112140.00000 0.754583
112150.00000 0.754334
112160.00000 0.754089
112170.00000 0.753848
112180.00000 0.75361
112190.00000 0.753374
112200.00000 0.753142
112210.00000 0.752914
112220.00000 0.752689
112230.00000 0.752469
112240.00000 0.752253
112250.00000 0.752041
112260.00000 0.751833
112270.00000 0.751629
112280.00000 0.751429
112290.00000 0.751233
112300.00000 0.751042
112310.00000 0.750855
112320.00000 0.750672
112330.00000 0.750494
112340.00000 0.750319
112350.00000 0.750149
112360.00000 0.749982
112370.00000 0.749819
112380.00000 0.749662
112390.00000 0.749508
112400.00000 0.749358
112410.00000 0.74921
112420.00000 0.749064
112430.00000 0.748921
112440.00000 0.748781
112450.00000 0.748645
112460.00000 0.748511
112470.00000 0.748376
112480.00000 0.748241
112490.00000 0.748103
112500.00000 0.747966
112510.00000 0.747829
112520.00000 0.747692
112530.00000 0.747552
112540.00000 0.747409
112550.00000 0.747261
112560.00000 0.747109
112570.00000 0.746953
112580.00000 0.746795
112590.00000 0.746632
112600.00000 0.746467
112610.00000 0.746298
112620.00000 0.746125
112630.00000 0.745947
112640.00000 0.745765
112650.00000 0.745581
112660.00000 0.745396
112670.00000 0.745212
112680.00000 0.74503
112690.00000 0.744845
112700.00000 0.74466
112710.00000 0.744475
112720.00000 0.744292
112730.00000 0.744113
112740.00000 0.74394
112750.00000 0.743771
112760.00000 0.743605
112770.00000 0.743442
112780.00000 0.743283
112790.00000 0.743128
112800.00000 0.742978
112810.00000 0.742832
112820.00000 0.742692
112830.00000 0.742557
112840.00000 0.742425
112850.00000 0.742294
112860.00000 0.742164
112870.00000 0.742033
112880.00000 0.741904
112890.00000 0.741778
112900.00000 0.741652
112910.00000 0.741525
112920.00000 0.741396
112930.00000 0.741262
112940.00000 0.741125
112950.00000 0.740986
112960.00000 0.740844
112970.00000 0.740699
112980.00000 0.740551
112990.00000 0.740399
113000.00000 0.740243
113010.00000 0.740082
113020.00000 0.739917
113030.00000 0.739749
113040.00000 0.739579
113050.00000 0.739408
113060.00000 0.739236
113070.00000 0.739063
113080.00000 0.738888
113090.00000 0.738711
113100.00000 0.738534
113110.00000 0.738358
113120.00000 0.738182
113130.00000 0.738008
113140.00000 0.737834
113150.00000 0.737661
113160.00000 0.737488
113170.00000 0.737316
113180.00000 0.737143
113190.00000 0.736971
113200.00000 0.736802
113210.00000 0.736634
113220.00000 0.736465
113230.00000 0.736296
113240.00000 0.736122
113250.00000 0.735944
113260.00000 0.735762
113270.00000 0.735579
113280.00000 0.735393
113290.00000 0.735203
113300.00000 0.735007
113310.00000 0.734804
113320.00000 0.734594
113330.00000 0.734379
113340.00000 0.734158
113350.00000 0.733932
113360.00000 0.733697
113370.00000 0.733453
113380.00000 0.733199
113390.00000 0.732935
113400.00000 0.732662
113410.00000 0.73238
113420.00000 0.73209
113430.00000 0.731792
113440.00000 0.731486
113450.00000 0.731172
113460.00000 0.73085
113470.00000 0.730519
113480.00000 0.730181
113490.00000 0.729835
113500.00000 0.729481
113510.00000 0.72912
113520.00000 0.728751
113530.00000 0.728372
113540.00000 0.727986
113550.00000 0.727594
113560.00000 0.727197
113570.00000 0.726796
113580.00000 0.726391
113590.00000 0.725981
113600.00000 0.725565
113610.00000 0.725145
113620.00000 0.72472
113630.00000 0.72429
113640.00000 0.723855
113650.00000 0.723415
113660.00000 0.72297
113670.00000 0.72252
113680.00000 0.722065
113690.00000 0.721606
113700.00000 0.721143
113710.00000 0.720676
113720.00000 0.720207
113730.00000 0.719733
113740.00000 0.719253
113750.00000 0.718768
113760.00000 0.718275
113770.00000 0.717773
113780.00000 0.717265
113790.00000 0.71675
113800.00000 0.716228
113810.00000 0.715699
113820.00000 0.715162
113830.00000 0.714618
113840.00000 0.714066
113850.00000 0.713508
113860.00000 0.712943
113870.00000 0.71237
113880.00000 0.711787
113890.00000 0.711194
113900.00000 0.710591
113910.00000 0.709978
113920.00000 0.709357
113930.00000 0.708726
113940.00000 0.708084
113950.00000 0.707432
113960.00000 0.706768
113970.00000 0.706094
113980.00000 0.705413
113990.00000 0.704721
114000.00000 0.704017
114010.00000 0.703297
114020.00000 0.702561
114030.00000 0.701806
114040.00000 0.701038
114050.00000 0.700256
114060.00000 0.699457
114070.00000 0.69864
114080.00000 0.697803
114090.00000 0.696942
114100.00000 0.69606
114110.00000 0.695161
114120.00000 0.694242
114130.00000 0.6933
114140.00000 0.692334
114150.00000 0.691341
114160.00000 0.690319
114170.00000 0.689272
114180.00000 0.6882
114190.00000 0.687102
114200.00000 0.685978
114210.00000 0.684827
114220.00000 0.683648
114230.00000 0.682441
114240.00000 0.681207
114250.00000 0.679946
114260.00000 0.678659
114270.00000 0.677346
114280.00000 0.676008
114290.00000 0.674645
114300.00000 0.673253
114310.00000 0.671834
114320.00000 0.670391
114330.00000 0.668925
114340.00000 0.667437
114350.00000 0.665931
114360.00000 0.664404
114370.00000 0.662851
114380.00000 0.661277
114390.00000 0.659684
114400.00000 0.658075
114410.00000 0.656455
114420.00000 0.654824
114430.00000 0.653176
114440.00000 0.65151
114450.00000 0.649831
114460.00000 0.648143
114470.00000 0.646451
114480.00000 0.644759
114490.00000 0.643066
114500.00000 0.641364
114510.00000 0.639656
114520.00000 0.637946
114530.00000 0.636238
114540.00000 0.634533
114550.00000 0.632837
114560.00000 0.631144
114570.00000 0.629455
114580.00000 0.627769
114590.00000 0.626086
114600.00000 0.624406
114610.00000 0.622728
114620.00000 0.621055
114630.00000 0.619389
114640.00000 0.617727
114650.00000 0.616067
114660.00000 0.614405
114670.00000 0.612739
114680.00000 0.611067
114690.00000 0.609392
114700.00000 0.607719
114710.00000 0.606042
114720.00000 0.604359
114730.00000 0.602665
114740.00000 0.600958
114750.00000 0.599235
114760.00000 0.597502
114770.00000 0.59576
114780.00000 0.594005
114790.00000 0.592237
114800.00000 0.590454
114810.00000 0.588655
114820.00000 0.586838
114830.00000 0.585007
114840.00000 0.583161
114850.00000 0.5813
114860.00000 0.579424
114870.00000 0.577533
114880.00000 0.575626
114890.00000 0.573702
114900.00000 0.571762
114910.00000 0.569807
114920.00000 0.567839
114930.00000 0.56586
114940.00000 0.563871
114950.00000 0.561873
114960.00000 0.55986
114970.00000 0.557836
114980.00000 0.555801
114990.00000 0.55376
115000.00000 0.551712
115010.00000 0.549662
115020.00000 0.547604
115030.00000 0.545537
115040.00000 0.543464
115050.00000 0.541387
115060.00000 0.539309
115070.00000 0.537234
115080.00000 0.535162
115090.00000 0.533088
115100.00000 0.531014
115110.00000 0.528941
115120.00000 0.526869
115130.00000 0.5248
115140.00000 0.522734
115150.00000 0.520673
115160.00000 0.518614
115170.00000 0.516559
115180.00000 0.514505
115190.00000 0.512454
115200.00000 0.510406
115210.00000 0.508359
115220.00000 0.506317
115230.00000 0.50428
115240.00000 0.502245
115250.00000 0.50021
115260.00000 0.498173
115270.00000 0.496132
115280.00000 0.494087
115290.00000 0.492042
115300.00000 0.489996
115310.00000 0.487947
115320.00000 0.485892
115330.00000 0.483831
115340.00000 0.48176
115350.00000 0.479682
115360.00000 0.4776
115370.00000 0.47551
115380.00000 0.473413
115390.00000 0.471307
115400.00000 0.46919
115410.00000 0.467062
115420.00000 0.464922
115430.00000 0.462774
115440.00000 0.460615
115450.00000 0.458447
115460.00000 0.456269
115470.00000 0.454083
115480.00000 0.451886
115490.00000 0.449679
115500.00000 0.447462
115510.00000 0.445237
115520.00000 0.443003
115530.00000 0.440762
115540.00000 0.438516
115550.00000 0.436262
115560.00000 0.433999
115570.00000 0.431728
115580.00000 0.429451
115590.00000 0.42717
115600.00000 0.424886
115610.00000 0.4226
115620.00000 0.420309
115630.00000 0.418013
115640.00000 0.415713
115650.00000 0.413411
115660.00000 0.411108
115670.00000 0.408807
115680.00000 0.406508
115690.00000 0.404207
115700.00000 0.401904
115710.00000 0.399602
115720.00000 0.397302
115730.00000 0.395005
115740.00000 0.392714
115750.00000 0.390427
115760.00000 0.388142
115770.00000 0.38586
115780.00000 0.383582
115790.00000 0.381308
115800.00000 0.37904
115810.00000 0.376779
115820.00000 0.374523
115830.00000 0.372272
115840.00000 0.370027
115850.00000 0.367786
115860.00000 0.365551
115870.00000 0.363319
115880.00000 0.361093
115890.00000 0.358872
115900.00000 0.356656
115910.00000 0.354445
115920.00000 0.352238
115930.00000 0.350033
115940.00000 0.34783
115950.00000 0.345629
115960.00000 0.343432
115970.00000 0.341237
115980.00000 0.339045
115990.00000 0.336855
116000.00000 0.334665
116010.00000 0.332474
116020.00000 0.330284
116030.00000 0.328094
116040.00000 0.325906
116050.00000 0.323718
116060.00000 0.321531
116070.00000 0.319346
116080.00000 0.317163
116090.00000 0.314979
116100.00000 0.312795
116110.00000 0.310613
116120.00000 0.308433
116130.00000 0.306257
116140.00000 0.304085
116150.00000 0.301919
116160.00000 0.299754
116170.00000 0.297591
116180.00000 0.295433
116190.00000 0.293281
116200.00000 0.291135
116210.00000 0.288998
116220.00000 0.286868
116230.00000 0.284745
116240.00000 0.282627
116250.00000 0.280517
116260.00000 0.278415
116270.00000 0.276323
116280.00000 0.274241
116290.00000 0.272168
116300.00000 0.270103
116310.00000 0.268048
116320.00000 0.266002
116330.00000 0.263965
116340.00000 0.261937
116350.00000 0.25992
116360.00000 0.257912
116370.00000 0.255913
116380.00000 0.253924
116390.00000 0.251945
116400.00000 0.249974
116410.00000 0.248013
116420.00000 0.246061
116430.00000 0.244119
116440.00000 0.242186
116450.00000 0.240262
116460.00000 0.238347
116470.00000 0.236441
116480.00000 0.234545
116490.00000 0.232656
116500.00000 0.230777
116510.00000 0.228906
116520.00000 0.227045
116530.00000 0.225192
116540.00000 0.22335
116550.00000 0.221518
116560.00000 0.219696
116570.00000 0.217883
116580.00000 0.216081
116590.00000 0.214288
116600.00000 0.212504
116610.00000 0.210731
116620.00000 0.208968
116630.00000 0.207215
116640.00000 0.205471
116650.00000 0.203738
116660.00000 0.202014
116670.00000 0.200301
116680.00000 0.198598
116690.00000 0.196907
116700.00000 0.195226
116710.00000 0.193557
116720.00000 0.191897
116730.00000 0.190248
116740.00000 0.188608
116750.00000 0.186978
116760.00000 0.185357
116770.00000 0.183745
116780.00000 0.182142
116790.00000 0.18055
116800.00000 0.178966
116810.00000 0.177392
116820.00000 0.175828
116830.00000 0.174273
116840.00000 0.172729
116850.00000 0.171194
116860.00000 0.169669
116870.00000 0.168153
116880.00000 0.166644
116890.00000 0.165144
116900.00000 0.163651
116910.00000 0.162166
116920.00000 0.16069
116930.00000 0.159222
116940.00000 0.157763
116950.00000 0.156313
116960.00000 0.154873
116970.00000 0.153443
116980.00000 0.152021
116990.00000 0.150609
117000.00000 0.149206
117010.00000 0.147813
117020.00000 0.146428
117030.00000 0.145053
117040.00000 0.143686
117050.00000 0.142327
117060.00000 0.140978
117070.00000 0.139638
117080.00000 0.13831
117090.00000 0.136994
117100.00000 0.135691
117110.00000 0.134399
117120.00000 0.133118
117130.00000 0.131849
117140.00000 0.130592
117150.00000 0.129347
117160.00000 0.128114
117170.00000 0.126894
117180.00000 0.125684
117190.00000 0.124486
117200.00000 0.1233
117210.00000 0.122127
117220.00000 0.120968
117230.00000 0.119823
117240.00000 0.118694
117250.00000 0.117578
117260.00000 0.116477
117270.00000 0.115389
117280.00000 0.114314
117290.00000 0.113252
117300.00000 0.112202
117310.00000 0.111164
117320.00000 0.110139
117330.00000 0.109127
117340.00000 0.108128
117350.00000 0.107141
117360.00000 0.106167
117370.00000 0.105206
117380.00000 0.104258
117390.00000 0.103324
117400.00000 0.102403
117410.00000 0.101495
117420.00000 0.100597
117430.00000 0.099709
117440.00000 0.098831
117450.00000 0.097963
117460.00000 0.097106
117470.00000 0.09626
117480.00000 0.095424
117490.00000 0.094598
117500.00000 0.09378
117510.00000 0.092971
117520.00000 0.092172
117530.00000 0.091383
117540.00000 0.090604
117550.00000 0.089833
117560.00000 0.089069
117570.00000 0.088311
117580.00000 0.087556
117590.00000 0.086808
117600.00000 0.086066
117610.00000 0.085331
117620.00000 0.084601
117630.00000 0.083876
117640.00000 0.083155
117650.00000 0.082438
117660.00000 0.081726
117670.00000 0.081019
117680.00000 0.080316
117690.00000 0.079618
117700.00000 0.078923
117710.00000 0.078232
117720.00000 0.077543
117730.00000 0.076857
117740.00000 0.076174
117750.00000 0.075494
117760.00000 0.074818
117770.00000 0.074148
117780.00000 0.073483
117790.00000 0.072823
117800.00000 0.072168
117810.00000 0.071517
117820.00000 0.070872
117830.00000 0.070232
117840.00000 0.069597
117850.00000 0.06897
117860.00000 0.06835
117870.00000 0.067735
117880.00000 0.067126
117890.00000 0.066523
117900.00000 0.065927
117910.00000 0.065338
117920.00000 0.064756
117930.00000 0.064182
117940.00000 0.063616
117950.00000 0.063057
117960.00000 0.062505
117970.00000 0.06196
117980.00000 0.061421
117990.00000 0.060888
118000.00000 0.060362
118010.00000 0.059842
118020.00000 0.059329
118030.00000 0.058822
118040.00000 0.058321
118050.00000 0.057825
118060.00000 0.057333
118070.00000 0.056845
118080.00000 0.056364
118090.00000 0.055887
118100.00000 0.055416
118110.00000 0.054949
118120.00000 0.054485
118130.00000 0.054024
118140.00000 0.053565
118150.00000 0.05311
118160.00000 0.052659
118170.00000 0.05221
118180.00000 0.051765
118190.00000 0.051322
118200.00000 0.050881
118210.00000 0.050442
118220.00000 0.050005
118230.00000 0.049571
118240.00000 0.049139
118250.00000 0.048709
118260.00000 0.048282
118270.00000 0.047857
118280.00000 0.047434
118290.00000 0.047013
118300.00000 0.046594
118310.00000 0.046178
118320.00000 0.045765
118330.00000 0.045354
118340.00000 0.044947
118350.00000 0.044543
118360.00000 0.044141
118370.00000 0.043742
118380.00000 0.043346
118390.00000 0.042954
118400.00000 0.042566
118410.00000 0.042183
118420.00000 0.041804
118430.00000 0.041429
118440.00000 0.041057
118450.00000 0.04069
118460.00000 0.040328
118470.00000 0.039969
118480.00000 0.039615
118490.00000 0.039267
118500.00000 0.038922
118510.00000 0.038583
118520.00000 0.038248
118530.00000 0.037917
118540.00000 0.03759
118550.00000 0.037268
118560.00000 0.036951
118570.00000 0.036638
118580.00000 0.03633
118590.00000 0.036026
118600.00000 0.035726
118610.00000 0.035429
118620.00000 0.035135
118630.00000 0.034843
118640.00000 0.034555
118650.00000 0.03427
118660.00000 0.033988
118670.00000 0.033709
118680.00000 0.033432
118690.00000 0.033156
118700.00000 0.032882
118710.00000 0.03261
118720.00000 0.032341
118730.00000 0.032073
118740.00000 0.031808
118750.00000 0.031543
118760.00000 0.031279
118770.00000 0.031016
118780.00000 0.030753
118790.00000 0.030492
118800.00000 0.030231
118810.00000 0.029973
118820.00000 0.029715
118830.00000 0.02946
118840.00000 0.029206
118850.00000 0.028954
118860.00000 0.028703
118870.00000 0.028454
118880.00000 0.028207
118890.00000 0.027962
118900.00000 0.027721
118910.00000 0.027482
118920.00000 0.027245
118930.00000 0.02701
118940.00000 0.026778
118950.00000 0.026549
118960.00000 0.026323
118970.00000 0.026102
118980.00000 0.025886
118990.00000 0.025674
119000.00000 0.025465
119010.00000 0.025261
119020.00000 0.025061
119030.00000 0.024865
119040.00000 0.024672
119050.00000 0.024484
119060.00000 0.024301
119070.00000 0.024122
119080.00000 0.023946
119090.00000 0.023775
119100.00000 0.023607
119110.00000 0.023442
119120.00000 0.023281
119130.00000 0.023123
119140.00000 0.02297
119150.00000 0.02282
119160.00000 0.022673
119170.00000 0.022528
119180.00000 0.022385
119190.00000 0.022242
119200.00000 0.0221
119210.00000 0.021961
119220.00000 0.021824
119230.00000 0.021688
119240.00000 0.021553
119250.00000 0.021418
119260.00000 0.021284
119270.00000 0.02115
119280.00000 0.021017
119290.00000 0.020884
119300.00000 0.020753
119310.00000 0.020621
119320.00000 0.02049
119330.00000 0.020359
119340.00000 0.020228
119350.00000 0.020097
119360.00000 0.019966
119370.00000 0.019835
119380.00000 0.019705
119390.00000 0.019576
119400.00000 0.019448
119410.00000 0.019321
119420.00000 0.019195
119430.00000 0.01907
119440.00000 0.018946
119450.00000 0.018822
119460.00000 0.0187
119470.00000 0.018578
119480.00000 0.018457
119490.00000 0.018337
119500.00000 0.018218
119510.00000 0.0181
119520.00000 0.017982
119530.00000 0.017865
119540.00000 0.017747
119550.00000 0.01763
119560.00000 0.017513
119570.00000 0.017396
119580.00000 0.01728
119590.00000 0.017164
119600.00000 0.017047
119610.00000 0.016929
119620.00000 0.016811
119630.00000 0.016691
119640.00000 0.016571
119650.00000 0.01645
119660.00000 0.01633
119670.00000 0.016208
119680.00000 0.016087
119690.00000 0.015965
119700.00000 0.015843
119710.00000 0.01572
119720.00000 0.015597
119730.00000 0.015474
119740.00000 0.015352
119750.00000 0.015231
119760.00000 0.015111
119770.00000 0.014992
119780.00000 0.014874
119790.00000 0.014756
119800.00000 0.014639
119810.00000 0.014525
119820.00000 0.014412
119830.00000 0.014303
119840.00000 0.014197
119850.00000 0.014093
119860.00000 0.013991
119870.00000 0.013891
119880.00000 0.013794
119890.00000 0.0137
119900.00000 0.01361
119910.00000 0.013522
119920.00000 0.013438
119930.00000 0.013357
119940.00000 0.013279
119950.00000 0.013204
119960.00000 0.013132
119970.00000 0.013061
119980.00000 0.012994
119990.00000 0.01293
120000.00000 0.012868
120010.00000 0.01281
120020.00000 0.012753
120030.00000 0.012698
120040.00000 0.012645
120050.00000 0.012591
120060.00000 0.01254
120070.00000 0.012491
120080.00000 0.012444
120090.00000 0.012397
120100.00000 0.01235
120110.00000 0.012303
120120.00000 0.012255
120130.00000 0.012207
120140.00000 0.01216
120150.00000 0.012113
120160.00000 0.012065
120170.00000 0.012016
120180.00000 0.011966
120190.00000 0.011912
120200.00000 0.011857
120210.00000 0.0118
120220.00000 0.011742
120230.00000 0.011682
120240.00000 0.01162
120250.00000 0.011555
120260.00000 0.011488
120270.00000 0.011418
120280.00000 0.011345
120290.00000 0.011269
120300.00000 0.011191
120310.00000 0.01111
120320.00000 0.011028
120330.00000 0.010944
120340.00000 0.010858
120350.00000 0.01077
120360.00000 0.010679
120370.00000 0.010587
120380.00000 0.010492
120390.00000 0.010397
120400.00000 0.010303
120410.00000 0.010208
120420.00000 0.010113
120430.00000 0.010017
120440.00000 0.00992
120450.00000 0.009823
120460.00000 0.009727
120470.00000 0.009632
120480.00000 0.009539
120490.00000 0.009448
120500.00000 0.009357
120510.00000 0.009268
120520.00000 0.00918
120530.00000 0.009093
120540.00000 0.009009
120550.00000 0.008926
120560.00000 0.008845
120570.00000 0.008766
120580.00000 0.00869
120590.00000 0.008615
120600.00000 0.008541
120610.00000 0.00847
120620.00000 0.008399
120630.00000 0.008331
120640.00000 0.008264
120650.00000 0.008199
120660.00000 0.008136
120670.00000 0.008074
120680.00000 0.008013
120690.00000 0.007953
120700.00000 0.007895
120710.00000 0.007837
120720.00000 0.00778
120730.00000 0.007724
120740.00000 0.00767
120750.00000 0.007617
120760.00000 0.007564
120770.00000 0.007513
120780.00000 0.007463
120790.00000 0.007413
120800.00000 0.007365
120810.00000 0.007317
120820.00000 0.007271
120830.00000 0.007226
120840.00000 0.007182
120850.00000 0.007139
120860.00000 0.007097
120870.00000 0.007057
120880.00000 0.007018
120890.00000 0.00698
120900.00000 0.006943
120910.00000 0.006907
120920.00000 0.006873
120930.00000 0.006839
120940.00000 0.006807
120950.00000 0.006777
120960.00000 0.006747
120970.00000 0.006719
120980.00000 0.00669
120990.00000 0.006663
121000.00000 0.006635
121010.00000 0.006609
121020.00000 0.006584
121030.00000 0.006559
121040.00000 0.006534
121050.00000 0.006509
121060.00000 0.006484
121070.00000 0.006459
121080.00000 0.006433
121090.00000 0.006408
121100.00000 0.006383
121110.00000 0.006357
121120.00000 0.006331
121130.00000 0.006304
121140.00000 0.006276
121150.00000 0.006247
121160.00000 0.006217
121170.00000 0.006187
121180.00000 0.006155
121190.00000 0.006123
121200.00000 0.006091
121210.00000 0.006057
121220.00000 0.006022
121230.00000 0.005986
121240.00000 0.00595
121250.00000 0.005912
121260.00000 0.005874
121270.00000 0.005835
121280.00000 0.005796
121290.00000 0.005757
121300.00000 0.005717
121310.00000 0.005676
121320.00000 0.005634
121330.00000 0.005593
121340.00000 0.005551
121350.00000 0.00551
121360.00000 0.005469
121370.00000 0.005429
121380.00000 0.005389
121390.00000 0.005348
121400.00000 0.005308
121410.00000 0.005269
121420.00000 0.00523
121430.00000 0.005193
121440.00000 0.005156
121450.00000 0.00512
121460.00000 0.005085
121470.00000 0.00505
121480.00000 0.005017
121490.00000 0.004984
121500.00000 0.004953
121510.00000 0.004922
121520.00000 0.004893
121530.00000 0.004865
121540.00000 0.004838
121550.00000 0.004812
121560.00000 0.004787
121570.00000 0.004763
121580.00000 0.00474
121590.00000 0.004719
121600.00000 0.004699
121610.00000 0.00468
121620.00000 0.004662
121630.00000 0.004644
121640.00000 0.004628
121650.00000 0.004612
121660.00000 0.004596
121670.00000 0.004583
121680.00000 0.00457
121690.00000 0.004558
121700.00000 0.004546
121710.00000 0.004534
121720.00000 0.004521
121730.00000 0.004507
121740.00000 0.004493
121750.00000 0.00448
121760.00000 0.004466
121770.00000 0.004452
121780.00000 0.004437
121790.00000 0.004419
121800.00000 0.004399
121810.00000 0.004377
121820.00000 0.004353
121830.00000 0.004328
121840.00000 0.004301
121850.00000 0.004272
121860.00000 0.00424
121870.00000 0.004206
121880.00000 0.004168
121890.00000 0.004127
121900.00000 0.004083
121910.00000 0.004037
134101.00000 0.0
