# %ECSV 0.9
# ---
# datatype:
# - {name: wavelength, unit: Angstrom, datatype: float32}
# - {name: response, datatype: float32}
# meta: !!omap
# - {band_name: sdss_r}
# - {group_name: OSIRIS}
wavelength response
4752.00000 0.0
5280.00000 0.034983
5290.00000 0.032476
5300.00000 0.039149
5310.00000 0.040731
5320.00000 0.054376
5330.00000 0.035054
5340.00000 0.028344
5350.00000 0.050684
5360.00000 0.042914
5370.00000 0.02319
5380.00000 0.034502
5390.00000 0.01615
5400.00000 0.016206
5410.00000 0.031278
5420.00000 0.043814
5430.00000 0.06719
5440.00000 0.108715
5450.00000 0.144549
5460.00000 0.179635
5470.00000 0.224303
5480.00000 0.265315
5490.00000 0.307698
5500.00000 0.351062
5510.00000 0.392272
5520.00000 0.431861
5530.00000 0.470727
5540.00000 0.509244
5550.00000 0.546905
5560.00000 0.583504
5570.00000 0.619488
5580.00000 0.651271
5590.00000 0.680096
5600.00000 0.706325
5610.00000 0.727798
5620.00000 0.744961
5630.00000 0.759259
5640.00000 0.770695
5650.00000 0.779445
5660.00000 0.785793
5670.00000 0.791621
5680.00000 0.797722
5690.00000 0.803018
5700.00000 0.809692
5710.00000 0.816012
5720.00000 0.824717
5730.00000 0.836119
5740.00000 0.846438
5750.00000 0.85495
5760.00000 0.867244
5770.00000 0.876919
5780.00000 0.88702
5790.00000 0.894596
5800.00000 0.900501
5810.00000 0.904624
5820.00000 0.904662
5830.00000 0.901657
5840.00000 0.904811
5850.00000 0.90638
5860.00000 0.904268
5870.00000 0.904236
5880.00000 0.904205
5890.00000 0.904244
5900.00000 0.906421
5910.00000 0.909229
5920.00000 0.913516
5930.00000 0.917081
5940.00000 0.922567
5950.00000 0.926671
5960.00000 0.930619
5970.00000 0.934523
5980.00000 0.932235
5990.00000 0.931965
6000.00000 0.93234
6010.00000 0.929333
6020.00000 0.922277
6030.00000 0.915251
6040.00000 0.905125
6050.00000 0.893671
6060.00000 0.884193
6070.00000 0.874223
6080.00000 0.865017
6090.00000 0.856001
6100.00000 0.849692
6110.00000 0.844102
6120.00000 0.841148
6130.00000 0.841219
6140.00000 0.842028
6150.00000 0.844095
6160.00000 0.848566
6170.00000 0.854162
6180.00000 0.858641
6190.00000 0.864773
6200.00000 0.87032
6210.00000 0.874584
6220.00000 0.879426
6230.00000 0.884155
6240.00000 0.886479
6250.00000 0.889323
6260.00000 0.89033
6270.00000 0.89019
6280.00000 0.890051
6290.00000 0.889183
6300.00000 0.887791
6310.00000 0.885882
6320.00000 0.883852
6330.00000 0.881903
6340.00000 0.881144
6350.00000 0.880906
6360.00000 0.881254
6370.00000 0.882766
6380.00000 0.884849
6390.00000 0.888015
6400.00000 0.892385
6410.00000 0.897823
6420.00000 0.901567
6430.00000 0.906957
6440.00000 0.912321
6450.00000 0.917091
6460.00000 0.922408
6470.00000 0.925995
6480.00000 0.930094
6490.00000 0.933612
6500.00000 0.936553
6510.00000 0.93945
6520.00000 0.94015
6530.00000 0.940251
6540.00000 0.941409
6550.00000 0.940946
6560.00000 0.940418
6570.00000 0.939296
6580.00000 0.938174
6590.00000 0.93649
6600.00000 0.93443
6610.00000 0.932163
6620.00000 0.929381
6630.00000 0.925547
6640.00000 0.920144
6650.00000 0.91527
6660.00000 0.908851
6670.00000 0.902411
6680.00000 0.896039
6690.00000 0.888621
6700.00000 0.880286
6710.00000 0.871905
6720.00000 0.863972
6730.00000 0.8552
6740.00000 0.845468
6750.00000 0.836161
6760.00000 0.825975
6770.00000 0.816467
6780.00000 0.807858
6790.00000 0.799708
6800.00000 0.791599
6810.00000 0.785554
6820.00000 0.780043
6830.00000 0.775453
6840.00000 0.773279
6850.00000 0.772617
6860.00000 0.773847
6870.00000 0.775188
6880.00000 0.778524
6890.00000 0.784236
6900.00000 0.790831
6910.00000 0.798517
6920.00000 0.807989
6930.00000 0.816555
6940.00000 0.82652
6950.00000 0.836322
6960.00000 0.845721
6970.00000 0.85513
6980.00000 0.863549
6990.00000 0.869978
7000.00000 0.876413
7010.00000 0.881353
7020.00000 0.885741
7030.00000 0.88908
7040.00000 0.891926
7050.00000 0.894278
7060.00000 0.895073
7070.00000 0.895872
7080.00000 0.895714
7090.00000 0.896463
7100.00000 0.897725
7110.00000 0.899045
7120.00000 0.90037
7130.00000 0.9016
7140.00000 0.903352
7150.00000 0.903618
7160.00000 0.903269
7170.00000 0.899858
7180.00000 0.892209
7190.00000 0.879345
7200.00000 0.861165
7210.00000 0.837093
7220.00000 0.807499
7230.00000 0.771865
7240.00000 0.731472
7250.00000 0.687341
7260.00000 0.638603
7270.00000 0.589278
7280.00000 0.540068
7290.00000 0.490382
7300.00000 0.442677
7310.00000 0.398431
7320.00000 0.358128
7330.00000 0.322493
7340.00000 0.290551
7350.00000 0.262771
7360.00000 0.237982
7370.00000 0.218196
7380.00000 0.200578
7390.00000 0.18483
7400.00000 0.171769
7410.00000 0.161218
7420.00000 0.152031
7430.00000 0.144054
7440.00000 0.137071
7450.00000 0.131261
7460.00000 0.126133
7470.00000 0.121245
7480.00000 0.116137
7490.00000 0.111439
7500.00000 0.106502
8250.00000 0.0
