# %ECSV 0.9
# ---
# datatype:
# - {name: wavelength, unit: Angstrom, datatype: float32}
# - {name: response, datatype: float32}
# meta: !!omap
# - {band_name: Ks}
# - {group_name: LRIS}
wavelength response
17114.84961 0.0
19016.50000 0.017807
19026.09961 0.016837
19035.80078 0.017437
19045.40039 0.020123
19055.00000 0.022839
19064.59961 0.02099
19074.30078 0.017624
19083.90039 0.014938
19093.50000 0.015743
19103.09961 0.016192
19112.80078 0.01767
19122.40039 0.019922
19132.00000 0.020816
19141.59961 0.020461
19151.30078 0.019133
19160.90039 0.017158
19170.50000 0.015312
19180.19922 0.014968
19189.80078 0.0167
19199.40039 0.019735
19209.00000 0.019414
19218.69922 0.017033
19228.30078 0.015819
19237.90039 0.015633
19247.50000 0.015621
19257.19922 0.015563
19266.80078 0.016315
19276.40039 0.017158
19286.00000 0.017277
19295.69922 0.017006
19305.30078 0.016616
19314.90039 0.016158
19324.59961 0.015796
19334.19922 0.015578
19343.80078 0.01523
19353.40039 0.015377
19363.09961 0.015763
19372.69922 0.016564
19382.30078 0.017393
19391.90039 0.017938
19401.59961 0.018636
19411.19922 0.017151
19420.80078 0.016566
19430.40039 0.016786
19440.09961 0.017002
19449.69922 0.017424
19459.30078 0.017669
19469.00000 0.01802
19478.59961 0.018549
19488.19922 0.018825
19497.80078 0.01945
19507.50000 0.019524
19517.09961 0.020268
19526.69922 0.021352
19536.30078 0.022274
19546.00000 0.023445
19555.59961 0.024399
19565.19922 0.025312
19574.80078 0.026622
19584.50000 0.027887
19594.09961 0.029271
19603.69922 0.030844
19613.30078 0.032599
19623.00000 0.034775
19632.59961 0.037064
19642.19922 0.039396
19651.90039 0.041966
19661.50000 0.044675
19671.09961 0.047997
19680.69922 0.051741
19690.40039 0.055854
19700.00000 0.060326
19709.59961 0.065535
19719.19922 0.071487
19728.90039 0.077758
19738.50000 0.084801
19748.09961 0.092535
19757.80078 0.101279
19767.40039 0.111002
19777.00000 0.121261
19786.59961 0.132847
19796.30078 0.146067
19805.90039 0.160718
19815.50000 0.176215
19825.09961 0.193124
19834.80078 0.211599
19844.40039 0.231658
19854.00000 0.253059
19863.59961 0.27587
19873.30078 0.301859
19882.90039 0.327677
19892.50000 0.354515
19902.09961 0.382827
19911.80078 0.412537
19921.40039 0.443069
19931.00000 0.472839
19940.69922 0.503908
19950.30078 0.53449
19959.90039 0.564149
19969.50000 0.593826
19979.19922 0.622301
19988.80078 0.649733
19998.40039 0.676058
20008.00000 0.700241
20017.69922 0.721342
20027.30078 0.743929
20036.90039 0.764389
20046.50000 0.781515
20056.19922 0.796984
20065.80078 0.810578
20075.40039 0.822483
20085.09961 0.832092
20094.69922 0.840473
20104.30078 0.846771
20113.90039 0.853225
20123.59961 0.858256
20133.19922 0.860753
20142.80078 0.862244
20152.40039 0.862789
20162.09961 0.864218
20171.69922 0.863608
20181.30078 0.862703
20190.90039 0.861795
20200.59961 0.860518
20210.19922 0.858115
20219.80078 0.85635
20229.50000 0.854508
20239.09961 0.852059
20248.69922 0.850254
20258.30078 0.847855
20268.00000 0.845817
20277.59961 0.843858
20287.19922 0.842747
20296.80078 0.841082
20306.50000 0.840267
20316.09961 0.838812
20325.69922 0.838293
20335.30078 0.837949
20345.00000 0.836997
20354.59961 0.836553
20364.19922 0.836645
20373.90039 0.837156
20383.50000 0.838259
20393.09961 0.839033
20402.69922 0.841295
20412.40039 0.842371
20422.00000 0.843755
20431.59961 0.844819
20441.19922 0.847556
20450.90039 0.849499
20460.50000 0.851806
20470.09961 0.854167
20479.69922 0.85682
20489.40039 0.858948
20499.00000 0.860955
20508.59961 0.863161
20518.30078 0.866389
20527.90039 0.868746
20537.50000 0.870799
20547.09961 0.873357
20556.80078 0.875531
20566.40039 0.877978
20576.00000 0.880537
20585.59961 0.883489
20595.30078 0.884825
20604.90039 0.88661
20614.50000 0.888889
20624.09961 0.890571
20633.80078 0.891631
20643.40039 0.892947
20653.00000 0.895201
20662.69922 0.895848
20672.30078 0.896672
20681.90039 0.897097
20691.50000 0.898566
20701.19922 0.899342
20710.80078 0.899181
20720.40039 0.900254
20730.00000 0.900459
20739.69922 0.900597
20749.30078 0.900327
20758.90039 0.901202
20768.50000 0.901207
20778.19922 0.901517
20787.80078 0.901535
20797.40039 0.902083
20807.09961 0.902409
20816.69922 0.90158
20826.30078 0.901366
20835.90039 0.902044
20845.59961 0.902526
20855.19922 0.902205
20864.80078 0.9027
20874.40039 0.903188
20884.09961 0.903354
20893.69922 0.903556
20903.30078 0.903463
20912.90039 0.903811
20922.59961 0.904478
20932.19922 0.904874
20941.80078 0.904799
20951.50000 0.905967
20961.09961 0.905715
20970.69922 0.90642
20980.30078 0.906569
20990.00000 0.908342
20999.59961 0.908621
21009.19922 0.908623
21018.80078 0.908587
21028.50000 0.90958
21038.09961 0.909741
21047.69922 0.910771
21057.30078 0.911412
21067.00000 0.911644
21076.59961 0.912263
21086.19922 0.912081
21095.90039 0.912786
21105.50000 0.912282
21115.09961 0.912476
21124.69922 0.911982
21134.40039 0.91271
21144.00000 0.912886
21153.59961 0.91244
21163.19922 0.91182
21172.90039 0.91162
21182.50000 0.911544
21192.09961 0.911165
21201.69922 0.909942
21211.40039 0.909191
21221.00000 0.908894
21230.59961 0.908193
21240.30078 0.907514
21249.90039 0.906547
21259.50000 0.905633
21269.09961 0.904444
21278.80078 0.902769
21288.40039 0.901886
21298.00000 0.900589
21307.59961 0.898614
21317.30078 0.896637
21326.90039 0.8962
21336.50000 0.894395
21346.09961 0.893311
21355.80078 0.891389
21365.40039 0.88976
21375.00000 0.888187
21384.59961 0.886437
21394.30078 0.884279
21403.90039 0.883113
21413.50000 0.881498
21423.19922 0.879817
21432.80078 0.8775
21442.40039 0.876558
21452.00000 0.87531
21461.69922 0.873924
21471.30078 0.871941
21480.90039 0.870184
21490.50000 0.868377
21500.19922 0.86675
21509.80078 0.864885
21519.40039 0.863705
21529.00000 0.863099
21538.69922 0.861869
21548.30078 0.859913
21557.90039 0.858297
21567.59961 0.857804
21577.19922 0.856271
21586.80078 0.854429
21596.40039 0.853684
21606.09961 0.853244
21615.69922 0.852222
21625.30078 0.850333
21634.90039 0.849947
21644.59961 0.8498
21654.19922 0.848812
21663.80078 0.847726
21673.40039 0.847437
21683.09961 0.847205
21692.69922 0.846709
21702.30078 0.846449
21712.00000 0.844791
21721.59961 0.845525
21731.19922 0.845788
21740.80078 0.845591
21750.50000 0.845037
21760.09961 0.845441
21769.69922 0.84545
21779.30078 0.844948
21789.00000 0.844623
21798.59961 0.844447
21808.19922 0.84576
21817.80078 0.845372
21827.50000 0.845045
21837.09961 0.845217
21846.69922 0.845308
21856.40039 0.845203
21866.00000 0.845297
21875.59961 0.844514
21885.19922 0.844827
21894.90039 0.845352
21904.50000 0.844949
21914.09961 0.844706
21923.69922 0.845011
21933.40039 0.844907
21943.00000 0.844059
21952.59961 0.843378
21962.19922 0.843054
21971.90039 0.843236
21981.50000 0.842839
21991.09961 0.841294
22000.80078 0.842242
22010.40039 0.842731
22020.00000 0.842589
22029.59961 0.841237
22039.30078 0.841628
22048.90039 0.841547
22058.50000 0.841953
22068.09961 0.840752
22077.80078 0.840746
22087.40039 0.842373
22097.00000 0.842515
22106.59961 0.84271
22116.30078 0.843024
22125.90039 0.844055
22135.50000 0.845065
22145.19922 0.845882
22154.80078 0.845343
22164.40039 0.846301
22174.00000 0.847802
22183.69922 0.848399
22193.30078 0.848569
22202.90039 0.848634
22212.50000 0.850389
22222.19922 0.850727
22231.80078 0.851131
22241.40039 0.850798
22251.00000 0.85243
22260.69922 0.853253
22270.30078 0.852778
22279.90039 0.85312
22289.59961 0.853467
22299.19922 0.854592
22308.80078 0.853959
22318.40039 0.853739
22328.09961 0.853418
22337.69922 0.854539
22347.30078 0.854207
22356.90039 0.852924
22366.59961 0.852002
22376.19922 0.853221
22385.80078 0.853953
22395.40039 0.852441
22405.09961 0.851661
22414.69922 0.851629
22424.30078 0.851462
22434.00000 0.850396
22443.59961 0.849838
22453.19922 0.849348
22462.80078 0.849772
22472.50000 0.849007
22482.09961 0.846949
22491.69922 0.846407
22501.30078 0.846468
22511.00000 0.847069
22520.59961 0.845368
22530.19922 0.844775
22539.80078 0.844573
22549.50000 0.845706
22559.09961 0.845031
22568.69922 0.843687
22578.40039 0.843371
22588.00000 0.844188
22597.59961 0.844258
22607.19922 0.842353
22616.90039 0.842021
22626.50000 0.843361
22636.09961 0.843442
22645.69922 0.84249
22655.40039 0.841589
22665.00000 0.841018
22674.59961 0.841322
22684.19922 0.840569
22693.90039 0.838579
22703.50000 0.836892
22713.09961 0.83576
22722.80078 0.835113
22732.40039 0.832357
22742.00000 0.828439
22751.59961 0.825847
22761.30078 0.82373
22770.90039 0.819162
22780.50000 0.813365
22790.09961 0.808304
22799.80078 0.804182
22809.40039 0.799112
22819.00000 0.791764
22828.59961 0.783714
22838.30078 0.776084
22847.90039 0.767766
22857.50000 0.757674
22867.19922 0.746268
22876.80078 0.734518
22886.40039 0.723793
22896.00000 0.711736
22905.69922 0.696836
22915.30078 0.68113
22924.90039 0.665236
22934.50000 0.650631
22944.19922 0.633285
22953.80078 0.613643
22963.40039 0.594967
22973.00000 0.577147
22982.69922 0.558572
22992.30078 0.53808
23001.90039 0.516311
23011.59961 0.4964
23021.19922 0.476421
23030.80078 0.455968
23040.40039 0.435112
23050.09961 0.413363
23059.69922 0.393251
23069.30078 0.374064
23078.90039 0.353437
23088.59961 0.333315
23098.19922 0.313968
23107.80078 0.296015
23117.40039 0.278068
23127.09961 0.259841
23136.69922 0.242494
23146.30078 0.227022
23156.00000 0.211315
23165.59961 0.19698
23175.19922 0.182599
23184.80078 0.169664
23194.50000 0.15737
23204.09961 0.146542
23213.69922 0.135778
23223.30078 0.125309
23233.00000 0.115869
23242.59961 0.108168
23252.19922 0.100159
23261.80078 0.092714
23271.50000 0.086835
23281.09961 0.081393
23290.69922 0.076215
23300.40039 0.071432
23310.00000 0.066418
23319.59961 0.06278
23329.19922 0.059128
23338.90039 0.055963
23348.50000 0.053033
23358.09961 0.050716
23367.69922 0.048417
23377.40039 0.046469
23387.00000 0.044306
23396.59961 0.042083
23406.19922 0.041349
23415.90039 0.039576
23425.50000 0.038423
23435.09961 0.037994
23444.80078 0.03673
23454.40039 0.03553
23464.00000 0.035101
23473.59961 0.03432
23483.30078 0.033462
23492.90039 0.032959
23502.50000 0.03124
23512.09961 0.03046
23521.80078 0.029847
23531.40039 0.029083
23541.00000 0.028819
23550.59961 0.027632
23560.30078 0.027728
23569.90039 0.027776
23579.50000 0.026914
23589.19922 0.026668
23598.80078 0.026169
23608.40039 0.026149
23618.00000 0.026637
23627.69922 0.026423
23637.30078 0.02606
23646.90039 0.026495
23656.50000 0.026735
23666.19922 0.026598
23675.80078 0.025322
23685.40039 0.02485
23695.00000 0.02581
23704.69922 0.025084
23714.30078 0.024645
23723.90039 0.025235
23733.59961 0.024658
23743.19922 0.024532
23752.80078 0.024837
23762.40039 0.024629
23772.09961 0.024114
23781.69922 0.024192
23791.30078 0.023963
23800.90039 0.024267
23810.59961 0.02431
23820.19922 0.023887
23829.80078 0.023195
23839.40039 0.023357
23849.09961 0.023905
23858.69922 0.024195
23868.30078 0.024119
23877.90039 0.023715
23887.59961 0.02346
23897.19922 0.023219
23906.80078 0.023515
23916.50000 0.023552
23926.09961 0.022818
23935.69922 0.023011
26329.26953 0.0
