# %ECSV 0.9
# ---
# datatype:
# - {name: wavelength, unit: Angstrom, datatype: float32}
# - {name: response, datatype: float32}
# meta: !!omap
# - {band_name: Har_B6}
# - {group_name: PFIP}
wavelength response
3168.00000 0.0
3520.00000 0.004914
3525.00000 0.006171
3530.00000 0.007774
3535.00000 0.009568
3540.00000 0.011658
3545.00000 0.013998
3550.00000 0.016681
3555.00000 0.019816
3560.00000 0.02323
3565.00000 0.026939
3570.00000 0.031171
3575.00000 0.035582
3580.00000 0.040621
3585.00000 0.045695
3590.00000 0.05121
3595.00000 0.057221
3600.00000 0.063386
3605.00000 0.070004
3610.00000 0.07716
3615.00000 0.084299
3620.00000 0.09127
3625.00000 0.098859
3630.00000 0.106621
3635.00000 0.114564
3640.00000 0.122656
3645.00000 0.130659
3650.00000 0.138625
3655.00000 0.147304
3660.00000 0.155927
3665.00000 0.164286
3670.00000 0.172676
3675.00000 0.181807
3680.00000 0.189864
3685.00000 0.198712
3690.00000 0.202491
3695.00000 0.215768
3700.00000 0.224425
3705.00000 0.23306
3710.00000 0.24126
3715.00000 0.249698
3720.00000 0.25841
3725.00000 0.266142
3730.00000 0.274252
3735.00000 0.282571
3740.00000 0.290554
3745.00000 0.297872
3750.00000 0.306029
3755.00000 0.313
3760.00000 0.320847
3765.00000 0.328698
3770.00000 0.335351
3775.00000 0.34282
3780.00000 0.350673
3785.00000 0.356585
3790.00000 0.363467
3795.00000 0.370943
3800.00000 0.377181
3805.00000 0.383676
3810.00000 0.39045
3815.00000 0.396256
3820.00000 0.402785
3825.00000 0.408991
3830.00000 0.415025
3835.00000 0.420528
3840.00000 0.426466
3845.00000 0.431998
3850.00000 0.437383
3855.00000 0.443353
3860.00000 0.449369
3865.00000 0.453384
3870.00000 0.459455
3875.00000 0.464258
3880.00000 0.468904
3885.00000 0.474241
3890.00000 0.47902
3895.00000 0.483184
3900.00000 0.488644
3905.00000 0.492942
3910.00000 0.497255
3915.00000 0.501778
3920.00000 0.506017
3925.00000 0.509971
3930.00000 0.514627
3935.00000 0.51883
3940.00000 0.522045
3945.00000 0.525765
3950.00000 0.529965
3955.00000 0.532795
3960.00000 0.536921
3965.00000 0.540567
3970.00000 0.543072
3975.00000 0.547372
3980.00000 0.549955
3985.00000 0.552396
3990.00000 0.555967
3995.00000 0.559064
4000.00000 0.562057
4005.00000 0.564937
4010.00000 0.568325
4015.00000 0.570153
4020.00000 0.573121
4025.00000 0.577024
4030.00000 0.577814
4035.00000 0.580974
4040.00000 0.583271
4045.00000 0.585079
4050.00000 0.587941
4055.00000 0.590428
4060.00000 0.592403
4065.00000 0.595066
4070.00000 0.597354
4075.00000 0.599255
4080.00000 0.601367
4085.00000 0.603845
4090.00000 0.604719
4095.00000 0.607657
4100.00000 0.60966
4105.00000 0.610828
4110.00000 0.612798
4115.00000 0.615063
4120.00000 0.616581
4125.00000 0.61803
4130.00000 0.620353
4135.00000 0.621049
4140.00000 0.622458
4145.00000 0.624909
4150.00000 0.625858
4155.00000 0.627608
4160.00000 0.629907
4165.00000 0.63005
4170.00000 0.631961
4175.00000 0.633618
4180.00000 0.635151
4185.00000 0.63634
4190.00000 0.637706
4195.00000 0.638766
4200.00000 0.63978
4205.00000 0.64205
4210.00000 0.642329
4215.00000 0.643446
4220.00000 0.645018
4225.00000 0.644692
4230.00000 0.645883
4235.00000 0.647122
4240.00000 0.647461
4245.00000 0.647825
4250.00000 0.64885
4255.00000 0.649035
4260.00000 0.649653
4265.00000 0.650704
4270.00000 0.650847
4275.00000 0.650992
4280.00000 0.652519
4285.00000 0.652938
4290.00000 0.652375
4295.00000 0.653676
4300.00000 0.654237
4305.00000 0.653021
4310.00000 0.654745
4315.00000 0.654309
4320.00000 0.653782
4325.00000 0.654972
4330.00000 0.654554
4335.00000 0.654507
4340.00000 0.654947
4345.00000 0.655411
4350.00000 0.654463
4355.00000 0.655137
4360.00000 0.655105
4365.00000 0.654043
4370.00000 0.654695
4375.00000 0.654574
4380.00000 0.654199
4385.00000 0.654767
4390.00000 0.65441
4395.00000 0.653114
4400.00000 0.653342
4405.00000 0.654122
4410.00000 0.652609
4415.00000 0.652747
4420.00000 0.653468
4425.00000 0.65114
4430.00000 0.651563
4435.00000 0.650309
4440.00000 0.649186
4445.00000 0.64911
4450.00000 0.647491
4455.00000 0.64639
4460.00000 0.646007
4465.00000 0.645008
4470.00000 0.643491
4475.00000 0.642134
4480.00000 0.640984
4485.00000 0.639178
4490.00000 0.637686
4495.00000 0.636835
4500.00000 0.634155
4505.00000 0.633456
4510.00000 0.632221
4515.00000 0.630305
4520.00000 0.628595
4525.00000 0.627594
4530.00000 0.626023
4535.00000 0.624408
4540.00000 0.623249
4545.00000 0.620685
4550.00000 0.61888
4555.00000 0.617502
4560.00000 0.615303
4565.00000 0.613132
4570.00000 0.611609
4575.00000 0.608444
4580.00000 0.605972
4585.00000 0.604084
4590.00000 0.600682
4595.00000 0.597879
4600.00000 0.595587
4605.00000 0.592217
4610.00000 0.589023
4615.00000 0.586311
4620.00000 0.58227
4625.00000 0.57819
4630.00000 0.575484
4635.00000 0.571298
4640.00000 0.566661
4645.00000 0.563327
4650.00000 0.557927
4655.00000 0.5531
4660.00000 0.548819
4665.00000 0.543539
4670.00000 0.538101
4675.00000 0.533227
4680.00000 0.527465
4685.00000 0.5206
4690.00000 0.515754
4695.00000 0.50943
4700.00000 0.502657
4705.00000 0.497114
4710.00000 0.490471
4715.00000 0.483952
4720.00000 0.477616
4725.00000 0.470984
4730.00000 0.464084
4735.00000 0.458194
4740.00000 0.451456
4745.00000 0.444653
4750.00000 0.438151
4755.00000 0.430969
4760.00000 0.423542
4765.00000 0.418
4770.00000 0.41078
4775.00000 0.403533
4780.00000 0.396852
4785.00000 0.389729
4790.00000 0.382632
4795.00000 0.375909
4800.00000 0.368706
4805.00000 0.36134
4810.00000 0.3544
4815.00000 0.347292
4820.00000 0.339309
4825.00000 0.333017
4830.00000 0.325638
4835.00000 0.318414
4840.00000 0.311632
4845.00000 0.304395
4850.00000 0.297332
4855.00000 0.290694
4860.00000 0.283947
4865.00000 0.277061
4870.00000 0.270829
4875.00000 0.264625
4880.00000 0.257715
4885.00000 0.251967
4890.00000 0.245953
4895.00000 0.239649
4900.00000 0.234
4905.00000 0.228483
4910.00000 0.222823
4915.00000 0.217584
4920.00000 0.212334
4925.00000 0.207108
4930.00000 0.202262
4935.00000 0.197832
4940.00000 0.192918
4945.00000 0.188372
4950.00000 0.184308
4955.00000 0.180047
4960.00000 0.175961
4965.00000 0.172262
4970.00000 0.16822
4975.00000 0.164681
4980.00000 0.160981
4985.00000 0.157163
4990.00000 0.15346
4995.00000 0.149982
5000.00000 0.146147
5005.00000 0.142298
5010.00000 0.138568
5015.00000 0.134666
5020.00000 0.130646
5025.00000 0.126877
5030.00000 0.122692
5035.00000 0.118678
5040.00000 0.114504
5045.00000 0.110398
5050.00000 0.106425
5055.00000 0.102675
5060.00000 0.098702
5065.00000 0.095013
5070.00000 0.091477
5075.00000 0.087845
5080.00000 0.08455
5085.00000 0.08149
5090.00000 0.07839
5095.00000 0.075431
5100.00000 0.072661
5105.00000 0.069936
5110.00000 0.067328
5115.00000 0.064871
5120.00000 0.062492
5125.00000 0.060156
5130.00000 0.057895
5135.00000 0.055678
5140.00000 0.053419
5145.00000 0.051368
5150.00000 0.049286
5155.00000 0.047231
5160.00000 0.045306
5165.00000 0.043288
5170.00000 0.041384
5175.00000 0.039547
5180.00000 0.037725
5185.00000 0.035998
5190.00000 0.034287
5195.00000 0.032681
5200.00000 0.031017
5205.00000 0.029562
5210.00000 0.028091
5215.00000 0.026636
5220.00000 0.025274
5225.00000 0.024043
5230.00000 0.022734
5235.00000 0.021509
5240.00000 0.020425
5245.00000 0.019372
5250.00000 0.018344
5255.00000 0.017379
5260.00000 0.016429
5265.00000 0.015647
5270.00000 0.014831
5275.00000 0.014069
5280.00000 0.0134
5285.00000 0.012725
5290.00000 0.012141
5295.00000 0.011586
5300.00000 0.011054
5305.00000 0.010603
5310.00000 0.010143
5315.00000 0.009692
5320.00000 0.009335
5325.00000 0.008993
5330.00000 0.008695
5335.00000 0.008406
5340.00000 0.00814
5345.00000 0.007896
5350.00000 0.007669
5355.00000 0.007498
5360.00000 0.007292
5365.00000 0.007145
5370.00000 0.007009
5375.00000 0.0069
5380.00000 0.006764
5385.00000 0.006705
5390.00000 0.006593
5395.00000 0.006539
5400.00000 0.006482
5405.00000 0.006468
5410.00000 0.006425
5415.00000 0.006416
5420.00000 0.006414
5425.00000 0.006429
5430.00000 0.006475
5435.00000 0.006527
5440.00000 0.006581
5445.00000 0.006648
5450.00000 0.006756
5455.00000 0.006859
5460.00000 0.007012
5465.00000 0.007156
5470.00000 0.007305
5475.00000 0.007491
5480.00000 0.007714
5485.00000 0.007914
5490.00000 0.008142
5495.00000 0.008396
5500.00000 0.008664
5505.00000 0.008942
5510.00000 0.009246
5515.00000 0.009538
5520.00000 0.009837
5525.00000 0.010125
5530.00000 0.01045
5535.00000 0.010744
5540.00000 0.011093
5545.00000 0.011362
5550.00000 0.01162
5555.00000 0.011928
5560.00000 0.012136
5565.00000 0.012351
5570.00000 0.012497
5575.00000 0.012665
5580.00000 0.012747
5585.00000 0.012875
5590.00000 0.012953
5595.00000 0.01294
5600.00000 0.012978
5605.00000 0.012895
5610.00000 0.012816
5615.00000 0.01275
5620.00000 0.012609
5625.00000 0.012427
5630.00000 0.012277
5635.00000 0.012025
5640.00000 0.011817
5645.00000 0.011591
5650.00000 0.011299
5655.00000 0.010987
5660.00000 0.010664
5665.00000 0.010329
5670.00000 0.009974
5675.00000 0.009634
5680.00000 0.009246
5685.00000 0.008855
5690.00000 0.008696
5695.00000 0.008066
5700.00000 0.00768
5705.00000 0.007273
5710.00000 0.006878
5715.00000 0.006478
5720.00000 0.006092
5725.00000 0.005692
5730.00000 0.00534
5735.00000 0.004986
5740.00000 0.004648
5745.00000 0.004311
6319.50000 0.0
