# %ECSV 0.9
# ---
# datatype:
# - {name: wavelength, unit: Angstrom, datatype: float32}
# - {name: response, datatype: float32}
# meta: !!omap
# - {band_name: SDSS_g}
# - {group_name: DOLORES}
wavelength response
3496.50000 0.0
3885.00000 0.005341
3890.00000 0.008167
3895.00000 0.012237
3900.00000 0.017718
3905.00000 0.02496
3910.00000 0.034135
3915.00000 0.045168
3920.00000 0.058531
3925.00000 0.074297
3930.00000 0.092193
3935.00000 0.112709
3940.00000 0.13466
3945.00000 0.158804
3950.00000 0.184897
3955.00000 0.211632
3960.00000 0.240267
3965.00000 0.268946
3970.00000 0.297646
3975.00000 0.32639
3980.00000 0.354368
3985.00000 0.3821
3990.00000 0.409321
3995.00000 0.435046
4000.00000 0.460963
4005.00000 0.485684
4010.00000 0.508812
4015.00000 0.531792
4020.00000 0.552175
4025.00000 0.571885
4030.00000 0.589515
4035.00000 0.60445
4040.00000 0.61805
4045.00000 0.629403
4050.00000 0.638876
4055.00000 0.647276
4060.00000 0.654484
4065.00000 0.660951
4070.00000 0.667751
4075.00000 0.673276
4080.00000 0.679935
4085.00000 0.686143
4090.00000 0.692434
4095.00000 0.699704
4100.00000 0.705815
4105.00000 0.712888
4110.00000 0.719669
4115.00000 0.726119
4120.00000 0.732761
4125.00000 0.739212
4130.00000 0.745101
4135.00000 0.750736
4140.00000 0.755823
4145.00000 0.760687
4150.00000 0.764932
4155.00000 0.768068
4160.00000 0.77091
4165.00000 0.772755
4170.00000 0.773239
4175.00000 0.773553
4180.00000 0.772671
4185.00000 0.771724
4190.00000 0.769902
4195.00000 0.768288
4200.00000 0.767368
4205.00000 0.766181
4210.00000 0.766292
4215.00000 0.76754
4220.00000 0.769502
4225.00000 0.772315
4230.00000 0.777135
4235.00000 0.781524
4240.00000 0.78681
4245.00000 0.79327
4250.00000 0.798563
4255.00000 0.804194
4260.00000 0.808465
4265.00000 0.812562
4270.00000 0.81571
4275.00000 0.817328
4280.00000 0.818743
4285.00000 0.818893
4290.00000 0.818587
4295.00000 0.818102
4300.00000 0.817819
4305.00000 0.817294
4310.00000 0.817234
4315.00000 0.818118
4320.00000 0.820072
4325.00000 0.821464
4330.00000 0.824067
4335.00000 0.826598
4340.00000 0.830324
4345.00000 0.832547
4350.00000 0.836022
4355.00000 0.838469
4360.00000 0.84053
4365.00000 0.841754
4370.00000 0.842086
4375.00000 0.842368
4380.00000 0.842145
4385.00000 0.84074
4390.00000 0.83968
4395.00000 0.838663
4400.00000 0.837592
4405.00000 0.836794
4410.00000 0.836845
4415.00000 0.837324
4420.00000 0.838632
4425.00000 0.8405
4430.00000 0.842614
4435.00000 0.845336
4440.00000 0.848447
4445.00000 0.851453
4450.00000 0.854747
4455.00000 0.857763
4460.00000 0.860214
4465.00000 0.862278
4470.00000 0.864264
4475.00000 0.865506
4480.00000 0.865983
4485.00000 0.866419
4490.00000 0.866515
4495.00000 0.866169
4500.00000 0.865496
4505.00000 0.865549
4510.00000 0.86509
4515.00000 0.865382
4520.00000 0.865524
4525.00000 0.866241
4530.00000 0.867235
4535.00000 0.868491
4540.00000 0.869716
4545.00000 0.871528
4550.00000 0.872982
4555.00000 0.874211
4560.00000 0.875369
4565.00000 0.876609
4570.00000 0.877372
4575.00000 0.877431
4580.00000 0.877266
4585.00000 0.877181
4590.00000 0.876432
4595.00000 0.875297
4600.00000 0.874006
4605.00000 0.873065
4610.00000 0.871815
4615.00000 0.8709
4620.00000 0.8701
4625.00000 0.869824
4630.00000 0.86962
4635.00000 0.870361
4640.00000 0.871119
4645.00000 0.872507
4650.00000 0.874207
4655.00000 0.876106
4660.00000 0.87864
4665.00000 0.881136
4670.00000 0.883547
4675.00000 0.886496
4680.00000 0.88879
4685.00000 0.891162
4690.00000 0.893533
4695.00000 0.895253
4700.00000 0.896694
4705.00000 0.897948
4710.00000 0.898827
4715.00000 0.899577
4720.00000 0.900064
4725.00000 0.900079
4730.00000 0.900572
4735.00000 0.900185
4740.00000 0.900225
4745.00000 0.900402
4750.00000 0.900234
4755.00000 0.90055
4760.00000 0.900479
4765.00000 0.90135
4770.00000 0.901889
4775.00000 0.90205
4780.00000 0.903219
4785.00000 0.904143
4790.00000 0.90498
4795.00000 0.906061
4800.00000 0.906974
4805.00000 0.907404
4810.00000 0.907975
4815.00000 0.90858
4820.00000 0.908913
4825.00000 0.909033
4830.00000 0.908717
4835.00000 0.908707
4840.00000 0.908624
4845.00000 0.907615
4850.00000 0.907092
4855.00000 0.90597
4860.00000 0.905829
4865.00000 0.905077
4870.00000 0.903981
4875.00000 0.903278
4880.00000 0.902887
4885.00000 0.901789
4890.00000 0.90193
4895.00000 0.901742
4900.00000 0.901503
4905.00000 0.901765
4910.00000 0.902135
4915.00000 0.902601
4920.00000 0.903277
4925.00000 0.903573
4930.00000 0.90508
4935.00000 0.905772
4940.00000 0.90679
4945.00000 0.908376
4950.00000 0.909281
4955.00000 0.910435
4960.00000 0.911591
4965.00000 0.912959
4970.00000 0.914473
4975.00000 0.915286
4980.00000 0.91652
4985.00000 0.917703
4990.00000 0.918913
4995.00000 0.919098
5000.00000 0.920398
5005.00000 0.920771
5010.00000 0.921618
5015.00000 0.922339
5020.00000 0.922529
5025.00000 0.923437
5030.00000 0.923979
5035.00000 0.924021
5040.00000 0.924607
5045.00000 0.924991
5050.00000 0.925034
5055.00000 0.925286
5060.00000 0.925176
5065.00000 0.925207
5070.00000 0.925865
5075.00000 0.925294
5080.00000 0.925437
5085.00000 0.925638
5090.00000 0.925433
5095.00000 0.925085
5100.00000 0.925085
5105.00000 0.924814
5110.00000 0.924141
5115.00000 0.923913
5120.00000 0.923579
5125.00000 0.923251
5130.00000 0.922278
5135.00000 0.921847
5140.00000 0.921482
5145.00000 0.920396
5150.00000 0.919295
5155.00000 0.918966
5160.00000 0.918067
5165.00000 0.916695
5170.00000 0.915781
5175.00000 0.914904
5180.00000 0.91353
5185.00000 0.912278
5190.00000 0.911389
5195.00000 0.91044
5200.00000 0.909077
5205.00000 0.907866
5210.00000 0.907157
5215.00000 0.906316
5220.00000 0.905251
5225.00000 0.904672
5230.00000 0.904265
5235.00000 0.903463
5240.00000 0.903138
5245.00000 0.903204
5250.00000 0.903084
5255.00000 0.903483
5260.00000 0.903235
5265.00000 0.904113
5270.00000 0.904646
5275.00000 0.904974
5280.00000 0.906016
5285.00000 0.906359
5290.00000 0.907163
5295.00000 0.908021
5300.00000 0.908571
5305.00000 0.909519
5310.00000 0.91004
5315.00000 0.910236
5320.00000 0.910651
5325.00000 0.911041
5330.00000 0.910476
5335.00000 0.911009
5340.00000 0.910523
5345.00000 0.909991
5350.00000 0.909785
5355.00000 0.908982
5360.00000 0.908688
5365.00000 0.907926
5370.00000 0.907237
5375.00000 0.906511
5380.00000 0.905905
5385.00000 0.90504
5390.00000 0.903995
5395.00000 0.903212
5400.00000 0.901919
5405.00000 0.899983
5410.00000 0.897942
5415.00000 0.89514
5420.00000 0.890991
5425.00000 0.886055
5430.00000 0.879242
5435.00000 0.869942
5440.00000 0.859145
5445.00000 0.844252
5450.00000 0.82664
5455.00000 0.80564
5460.00000 0.779177
5465.00000 0.748506
5470.00000 0.713438
5475.00000 0.673683
5480.00000 0.63058
5485.00000 0.583815
5490.00000 0.534986
5495.00000 0.485439
5500.00000 0.435138
5505.00000 0.386784
5510.00000 0.340696
5515.00000 0.296497
5520.00000 0.256726
5525.00000 0.220494
5530.00000 0.188076
5535.00000 0.160476
5540.00000 0.135956
5545.00000 0.11525
5550.00000 0.097586
5555.00000 0.082346
5560.00000 0.069741
5565.00000 0.059014
5570.00000 0.049956
5575.00000 0.042535
5580.00000 0.036223
5585.00000 0.03087
5590.00000 0.026471
5595.00000 0.022687
5600.00000 0.019541
5605.00000 0.016881
5610.00000 0.014606
5615.00000 0.012716
5620.00000 0.011052
5625.00000 0.009645
5630.00000 0.008456
5635.00000 0.00743
5640.00000 0.006569
5645.00000 0.005814
5650.00000 0.005143
5655.00000 0.004598
5660.00000 0.004094
6226.00000 0.0
