# %ECSV 0.9
# ---
# datatype:
# - {name: wavelength, unit: Angstrom, datatype: float32}
# - {name: response, datatype: float32}
# meta: !!omap
# - {band_name: H}
# - {group_name: NICS}
wavelength response
12845.70020 0.0
14273.00000 0.0041
14280.00000 0.0043
14287.00000 0.0045
14294.00000 0.0048
14301.00000 0.005
14308.00000 0.0052
14315.00000 0.0054
14322.00000 0.0056
14329.00000 0.006
14336.00000 0.0064
14343.00000 0.0067
14350.00000 0.0069
14357.00000 0.0073
14364.00000 0.0074
14371.00000 0.0075
14378.00000 0.0079
14385.00000 0.0086
14392.00000 0.0095
14399.00000 0.0105
14406.00000 0.0101
14413.00000 0.0108
14420.00000 0.0114
14427.00000 0.012
14434.00000 0.0125
14441.00000 0.0129
14448.00000 0.0134
14455.00000 0.014
14462.00000 0.0147
14469.00000 0.0155
14476.00000 0.0164
14483.00000 0.0173
14490.00000 0.0185
14497.00000 0.0198
14504.00000 0.0211
14511.00000 0.0224
14518.00000 0.0236
14525.00000 0.0252
14532.00000 0.027
14539.00000 0.029
14546.00000 0.0313
14553.00000 0.034
14560.00000 0.0368
14567.00000 0.0397
14574.00000 0.0429
14581.00000 0.0464
14588.00000 0.0503
14595.00000 0.0545
14602.00000 0.059
14609.00000 0.0641
14616.00000 0.0696
14623.00000 0.0756
14630.00000 0.0822
14637.00000 0.0893
14644.00000 0.097
14651.00000 0.1052
14658.00000 0.114
14665.00000 0.1235
14672.00000 0.1335
14679.00000 0.1442
14686.00000 0.1554
14693.00000 0.1673
14700.00000 0.1796
14707.00000 0.1926
14714.00000 0.206
14721.00000 0.2198
14728.00000 0.2342
14735.00000 0.2488
14742.00000 0.2639
14749.00000 0.2791
14756.00000 0.2947
14763.00000 0.3105
14770.00000 0.3267
14777.00000 0.3429
14784.00000 0.3593
14791.00000 0.376
14798.00000 0.3926
14805.00000 0.4096
14812.00000 0.4266
14819.00000 0.4434
14826.00000 0.4604
14833.00000 0.4772
14840.00000 0.4941
14847.00000 0.5109
14854.00000 0.5278
14861.00000 0.5444
14868.00000 0.5609
14875.00000 0.5771
14882.00000 0.5931
14889.00000 0.6087
14896.00000 0.6238
14903.00000 0.6387
14910.00000 0.6529
14917.00000 0.6667
14924.00000 0.68
14931.00000 0.6927
14938.00000 0.7047
14945.00000 0.7162
14952.00000 0.7269
14959.00000 0.7369
14966.00000 0.7462
14973.00000 0.7548
14980.00000 0.7628
14987.00000 0.7702
14994.00000 0.7769
15001.00000 0.783
15008.00000 0.7886
15015.00000 0.7937
15022.00000 0.7983
15029.00000 0.8025
15036.00000 0.8064
15043.00000 0.8097
15050.00000 0.8129
15057.00000 0.8159
15064.00000 0.8185
15071.00000 0.8209
15078.00000 0.8232
15085.00000 0.8253
15092.00000 0.8272
15099.00000 0.8291
15106.00000 0.8308
15113.00000 0.8322
15120.00000 0.8336
15127.00000 0.835
15134.00000 0.8363
15141.00000 0.8374
15148.00000 0.8384
15155.00000 0.8394
15162.00000 0.8402
15169.00000 0.8409
15176.00000 0.8414
15183.00000 0.8418
15190.00000 0.8421
15197.00000 0.8422
15204.00000 0.8421
15211.00000 0.8418
15218.00000 0.8415
15225.00000 0.8411
15232.00000 0.8405
15239.00000 0.8398
15246.00000 0.839
15253.00000 0.8379
15260.00000 0.8369
15267.00000 0.8358
15274.00000 0.8345
15281.00000 0.8331
15288.00000 0.8317
15295.00000 0.8302
15302.00000 0.8287
15309.00000 0.8272
15316.00000 0.8256
15323.00000 0.824
15330.00000 0.8225
15337.00000 0.8209
15344.00000 0.8194
15351.00000 0.8179
15358.00000 0.8166
15365.00000 0.8153
15372.00000 0.814
15379.00000 0.8129
15386.00000 0.8119
15393.00000 0.811
15400.00000 0.8101
15407.00000 0.8093
15414.00000 0.8087
15421.00000 0.8084
15428.00000 0.8081
15435.00000 0.8078
15442.00000 0.8078
15449.00000 0.8079
15456.00000 0.8081
15463.00000 0.8085
15470.00000 0.809
15477.00000 0.8095
15484.00000 0.8102
15491.00000 0.811
15498.00000 0.8118
15505.00000 0.8127
15512.00000 0.8138
15519.00000 0.8149
15526.00000 0.8162
15533.00000 0.8174
15540.00000 0.8188
15547.00000 0.8202
15554.00000 0.8215
15561.00000 0.8228
15568.00000 0.8241
15575.00000 0.8254
15582.00000 0.8267
15589.00000 0.828
15596.00000 0.8292
15603.00000 0.8305
15610.00000 0.8317
15617.00000 0.8329
15624.00000 0.8341
15631.00000 0.8352
15638.00000 0.8363
15645.00000 0.8373
15652.00000 0.8382
15659.00000 0.8391
15666.00000 0.8399
15673.00000 0.8407
15680.00000 0.8414
15687.00000 0.842
15694.00000 0.8426
15701.00000 0.8431
15708.00000 0.8436
15715.00000 0.844
15722.00000 0.8443
15729.00000 0.8446
15736.00000 0.8449
15743.00000 0.845
15750.00000 0.8449
15757.00000 0.8449
15764.00000 0.845
15771.00000 0.8449
15778.00000 0.845
15785.00000 0.8453
15792.00000 0.8455
15799.00000 0.8455
15806.00000 0.8455
15813.00000 0.8456
15820.00000 0.8456
15827.00000 0.8457
15834.00000 0.8457
15841.00000 0.8458
15848.00000 0.8459
15855.00000 0.8459
15862.00000 0.8461
15869.00000 0.8462
15876.00000 0.8463
15883.00000 0.8465
15890.00000 0.8468
15897.00000 0.8471
15904.00000 0.8473
15911.00000 0.8475
15918.00000 0.8478
15925.00000 0.8481
15932.00000 0.8484
15939.00000 0.8488
15946.00000 0.8492
15953.00000 0.8497
15960.00000 0.8502
15967.00000 0.8506
15974.00000 0.8511
15981.00000 0.8515
15988.00000 0.852
15995.00000 0.8525
16002.00000 0.8531
16009.00000 0.8536
16016.00000 0.8541
16023.00000 0.8547
16030.00000 0.8553
16037.00000 0.8558
16044.00000 0.8564
16051.00000 0.857
16058.00000 0.8576
16065.00000 0.8581
16072.00000 0.8586
16079.00000 0.8592
16086.00000 0.8599
16093.00000 0.8606
16100.00000 0.8612
16107.00000 0.8619
16114.00000 0.8624
16121.00000 0.863
16128.00000 0.8637
16135.00000 0.8643
16142.00000 0.865
16149.00000 0.8656
16156.00000 0.8662
16163.00000 0.8668
16170.00000 0.8674
16177.00000 0.8681
16184.00000 0.8686
16191.00000 0.8691
16198.00000 0.8697
16205.00000 0.8702
16212.00000 0.8707
16219.00000 0.8711
16226.00000 0.8714
16233.00000 0.8718
16240.00000 0.8721
16247.00000 0.8724
16254.00000 0.8726
16261.00000 0.8728
16268.00000 0.8731
16275.00000 0.8732
16282.00000 0.8733
16289.00000 0.8733
16296.00000 0.8734
16303.00000 0.8733
16310.00000 0.8731
16317.00000 0.8729
16324.00000 0.8725
16331.00000 0.8721
16338.00000 0.8716
16345.00000 0.8712
16352.00000 0.8707
16359.00000 0.8701
16366.00000 0.8695
16373.00000 0.8687
16380.00000 0.8678
16387.00000 0.8669
16394.00000 0.8661
16401.00000 0.8652
16408.00000 0.8644
16415.00000 0.8636
16422.00000 0.8628
16429.00000 0.8618
16436.00000 0.8608
16443.00000 0.8598
16450.00000 0.8586
16457.00000 0.8574
16464.00000 0.8561
16471.00000 0.8548
16478.00000 0.8534
16485.00000 0.852
16492.00000 0.8506
16499.00000 0.8491
16506.00000 0.8477
16513.00000 0.8464
16520.00000 0.845
16527.00000 0.8436
16534.00000 0.8422
16541.00000 0.8408
16548.00000 0.8394
16555.00000 0.8381
16562.00000 0.8368
16569.00000 0.8355
16576.00000 0.8342
16583.00000 0.8329
16590.00000 0.8317
16597.00000 0.8305
16604.00000 0.8295
16611.00000 0.8284
16618.00000 0.8274
16625.00000 0.8265
16632.00000 0.8258
16639.00000 0.825
16646.00000 0.8243
16653.00000 0.8237
16660.00000 0.8229
16667.00000 0.8221
16674.00000 0.8214
16681.00000 0.8208
16688.00000 0.8203
16695.00000 0.8199
16702.00000 0.8196
16709.00000 0.8194
16716.00000 0.8191
16723.00000 0.819
16730.00000 0.8189
16737.00000 0.8188
16744.00000 0.8187
16751.00000 0.8186
16758.00000 0.8186
16765.00000 0.8187
16772.00000 0.819
16779.00000 0.8192
16786.00000 0.8195
16793.00000 0.8198
16800.00000 0.8202
16807.00000 0.8205
16814.00000 0.821
16821.00000 0.8214
16828.00000 0.8219
16835.00000 0.8224
16842.00000 0.8228
16849.00000 0.8233
16856.00000 0.8238
16863.00000 0.8243
16870.00000 0.8247
16877.00000 0.8253
16884.00000 0.8258
16891.00000 0.8263
16898.00000 0.827
16905.00000 0.8277
16912.00000 0.8283
16919.00000 0.829
16926.00000 0.8297
16933.00000 0.8302
16940.00000 0.8306
16947.00000 0.8312
16954.00000 0.8314
16961.00000 0.8316
16968.00000 0.8317
16975.00000 0.832
16982.00000 0.8323
16989.00000 0.8323
16996.00000 0.8322
17003.00000 0.8323
17010.00000 0.8324
17017.00000 0.8324
17024.00000 0.8325
17031.00000 0.8326
17038.00000 0.8325
17045.00000 0.8324
17052.00000 0.8321
17059.00000 0.8319
17066.00000 0.8316
17073.00000 0.8312
17080.00000 0.8307
17087.00000 0.8301
17094.00000 0.8294
17101.00000 0.8286
17108.00000 0.8277
17115.00000 0.8269
17122.00000 0.826
17129.00000 0.825
17136.00000 0.8241
17143.00000 0.8231
17150.00000 0.822
17157.00000 0.8208
17164.00000 0.8197
17171.00000 0.8187
17178.00000 0.8177
17185.00000 0.8166
17192.00000 0.8155
17199.00000 0.8145
17206.00000 0.8134
17213.00000 0.8123
17220.00000 0.8112
17227.00000 0.8101
17234.00000 0.8091
17241.00000 0.8081
17248.00000 0.8071
17255.00000 0.8061
17262.00000 0.8051
17269.00000 0.8041
17276.00000 0.8033
17283.00000 0.8024
17290.00000 0.8016
17297.00000 0.8009
17304.00000 0.8003
17311.00000 0.7996
17318.00000 0.7991
17325.00000 0.7987
17332.00000 0.7983
17339.00000 0.798
17346.00000 0.7978
17353.00000 0.7977
17360.00000 0.7976
17367.00000 0.7976
17374.00000 0.7978
17381.00000 0.7978
17388.00000 0.798
17395.00000 0.7983
17402.00000 0.7986
17409.00000 0.7988
17416.00000 0.7992
17423.00000 0.7997
17430.00000 0.8002
17437.00000 0.8007
17444.00000 0.8012
17451.00000 0.8017
17458.00000 0.8022
17465.00000 0.8026
17472.00000 0.803
17479.00000 0.8032
17486.00000 0.8034
17493.00000 0.8036
17500.00000 0.8038
17507.00000 0.804
17514.00000 0.8042
17521.00000 0.8042
17528.00000 0.804
17535.00000 0.8037
17542.00000 0.8032
17549.00000 0.8025
17556.00000 0.8016
17563.00000 0.8005
17570.00000 0.7991
17577.00000 0.7975
17584.00000 0.7956
17591.00000 0.7935
17598.00000 0.7909
17605.00000 0.7879
17612.00000 0.7846
17619.00000 0.7808
17626.00000 0.7763
17633.00000 0.7713
17640.00000 0.7656
17647.00000 0.7591
17654.00000 0.7519
17661.00000 0.7438
17668.00000 0.7347
17675.00000 0.7246
17682.00000 0.7135
17689.00000 0.7011
17696.00000 0.6875
17703.00000 0.6725
17710.00000 0.6562
17717.00000 0.6386
17724.00000 0.6198
17731.00000 0.5998
17738.00000 0.5785
17745.00000 0.5561
17752.00000 0.5328
17759.00000 0.5089
17766.00000 0.4844
17773.00000 0.4594
17780.00000 0.434
17787.00000 0.4087
17794.00000 0.3837
17801.00000 0.3588
17808.00000 0.3347
17815.00000 0.3115
17822.00000 0.289
17829.00000 0.2674
17836.00000 0.2471
17843.00000 0.228
17850.00000 0.2098
17857.00000 0.1928
17864.00000 0.1769
17871.00000 0.1622
17878.00000 0.1486
17885.00000 0.136
17892.00000 0.1244
17899.00000 0.1139
17906.00000 0.1041
17913.00000 0.0953
17920.00000 0.0871
17927.00000 0.0797
17934.00000 0.073
17941.00000 0.0669
17948.00000 0.0613
17955.00000 0.0562
17962.00000 0.0516
17969.00000 0.0476
17976.00000 0.0438
17983.00000 0.0403
17990.00000 0.0371
17997.00000 0.0342
18004.00000 0.031
18011.00000 0.0286
18018.00000 0.0264
18025.00000 0.0244
18032.00000 0.0226
18039.00000 0.0209
18046.00000 0.0194
18053.00000 0.0179
18060.00000 0.0166
18067.00000 0.0154
18074.00000 0.0142
18081.00000 0.0135
18088.00000 0.0135
18095.00000 0.013
18102.00000 0.0123
18109.00000 0.0124
18116.00000 0.0122
18123.00000 0.0115
18130.00000 0.0111
18137.00000 0.0102
18144.00000 0.0087
18151.00000 0.008
18158.00000 0.0074
18165.00000 0.0062
18172.00000 0.0054
18179.00000 0.0051
18186.00000 0.0048
18193.00000 0.0045
18200.00000 0.0042
20020.00000 0.0
