# %ECSV 0.9
# ---
# datatype:
# - {name: wavelength, unit: Angstrom, datatype: float32}
# - {name: response, datatype: float32}
# meta: !!omap
# - {band_name: SDSS_g}
# - {group_name: OIG}
wavelength response
3505.50000 0.0
3895.00000 0.005549
3900.00000 0.008328
3905.00000 0.012155
3910.00000 0.017257
3915.00000 0.023706
3920.00000 0.031928
3925.00000 0.042097
3930.00000 0.054275
3935.00000 0.068867
3940.00000 0.085327
3945.00000 0.104059
3950.00000 0.125212
3955.00000 0.14786
3960.00000 0.172737
3965.00000 0.198909
3970.00000 0.225622
3975.00000 0.253644
3980.00000 0.281416
3985.00000 0.309795
3990.00000 0.338393
3995.00000 0.365982
4000.00000 0.394039
4005.00000 0.42128
4010.00000 0.447265
4015.00000 0.472981
4020.00000 0.49686
4025.00000 0.519312
4030.00000 0.540323
4035.00000 0.558563
4040.00000 0.575303
4045.00000 0.58984
4050.00000 0.60232
4055.00000 0.613801
4060.00000 0.623787
4065.00000 0.633044
4070.00000 0.641388
4075.00000 0.649458
4080.00000 0.657329
4085.00000 0.665016
4090.00000 0.672698
4095.00000 0.680465
4100.00000 0.687776
4105.00000 0.695239
4110.00000 0.702753
4115.00000 0.709664
4120.00000 0.716816
4125.00000 0.72389
4130.00000 0.730525
4135.00000 0.736942
4140.00000 0.742633
4145.00000 0.74795
4150.00000 0.752953
4155.00000 0.756633
4160.00000 0.759671
4165.00000 0.761703
4170.00000 0.762764
4175.00000 0.763231
4180.00000 0.762833
4185.00000 0.762165
4190.00000 0.760674
4195.00000 0.759863
4200.00000 0.759025
4205.00000 0.759003
4210.00000 0.759762
4215.00000 0.761407
4220.00000 0.764317
4225.00000 0.767827
4230.00000 0.772943
4235.00000 0.77744
4240.00000 0.783321
4245.00000 0.789452
4250.00000 0.794736
4255.00000 0.799421
4260.00000 0.804078
4265.00000 0.807067
4270.00000 0.809716
4275.00000 0.811554
4280.00000 0.8123
4285.00000 0.81195
4290.00000 0.811855
4295.00000 0.811649
4300.00000 0.811232
4305.00000 0.811032
4310.00000 0.811307
4315.00000 0.812464
4320.00000 0.814308
4325.00000 0.81626
4330.00000 0.819275
4335.00000 0.821834
4340.00000 0.825178
4345.00000 0.827497
4350.00000 0.831119
4355.00000 0.833077
4360.00000 0.834557
4365.00000 0.836197
4370.00000 0.836721
4375.00000 0.836931
4380.00000 0.836568
4385.00000 0.835787
4390.00000 0.83507
4395.00000 0.834711
4400.00000 0.834076
4405.00000 0.833941
4410.00000 0.834511
4415.00000 0.835118
4420.00000 0.836908
4425.00000 0.83904
4430.00000 0.840976
4435.00000 0.843821
4440.00000 0.84673
4445.00000 0.849575
4450.00000 0.851924
4455.00000 0.854645
4460.00000 0.856902
4465.00000 0.858645
4470.00000 0.860048
4475.00000 0.86075
4480.00000 0.861627
4485.00000 0.861456
4490.00000 0.861554
4495.00000 0.86172
4500.00000 0.861252
4505.00000 0.861398
4510.00000 0.861511
4515.00000 0.862132
4520.00000 0.862569
4525.00000 0.863565
4530.00000 0.864716
4535.00000 0.866106
4540.00000 0.867499
4545.00000 0.868708
4550.00000 0.87021
4555.00000 0.871304
4560.00000 0.87212
4565.00000 0.872567
4570.00000 0.873057
4575.00000 0.872767
4580.00000 0.872061
4585.00000 0.871856
4590.00000 0.870842
4595.00000 0.869345
4600.00000 0.86816
4605.00000 0.867135
4610.00000 0.86582
4615.00000 0.865162
4620.00000 0.86491
4625.00000 0.86422
4630.00000 0.865187
4635.00000 0.865578
4640.00000 0.866937
4645.00000 0.868657
4650.00000 0.8705
4655.00000 0.872611
4660.00000 0.875612
4665.00000 0.877561
4670.00000 0.880227
4675.00000 0.883398
4680.00000 0.885588
4685.00000 0.888135
4690.00000 0.890126
4695.00000 0.891947
4700.00000 0.893669
4705.00000 0.894594
4710.00000 0.895529
4715.00000 0.896399
4720.00000 0.896883
4725.00000 0.896775
4730.00000 0.897822
4735.00000 0.897403
4740.00000 0.897394
4745.00000 0.897912
4750.00000 0.897853
4755.00000 0.898268
4760.00000 0.898332
4765.00000 0.898795
4770.00000 0.899453
4775.00000 0.8998
4780.00000 0.900412
4785.00000 0.901273
4790.00000 0.902057
4795.00000 0.902455
4800.00000 0.903272
4805.00000 0.903754
4810.00000 0.904339
4815.00000 0.904379
4820.00000 0.904723
4825.00000 0.904815
4830.00000 0.90447
4835.00000 0.90444
4840.00000 0.904292
4845.00000 0.903743
4850.00000 0.903189
4855.00000 0.902627
4860.00000 0.901998
4865.00000 0.90171
4870.00000 0.900963
4875.00000 0.900764
4880.00000 0.900602
4885.00000 0.900317
4890.00000 0.899965
4895.00000 0.900467
4900.00000 0.900443
4905.00000 0.900879
4910.00000 0.900879
4915.00000 0.901698
4920.00000 0.902486
4925.00000 0.90303
4930.00000 0.903913
4935.00000 0.904977
4940.00000 0.906109
4945.00000 0.907114
4950.00000 0.908364
4955.00000 0.909567
4960.00000 0.910332
4965.00000 0.911666
4970.00000 0.912833
4975.00000 0.914018
4980.00000 0.914574
4985.00000 0.915515
4990.00000 0.917009
4995.00000 0.917272
5000.00000 0.917874
5005.00000 0.91892
5010.00000 0.919674
5015.00000 0.919988
5020.00000 0.920452
5025.00000 0.921371
5030.00000 0.921998
5035.00000 0.921598
5040.00000 0.922235
5045.00000 0.922861
5050.00000 0.92273
5055.00000 0.923667
5060.00000 0.923028
5065.00000 0.923576
5070.00000 0.923413
5075.00000 0.923671
5080.00000 0.92394
5085.00000 0.923705
5090.00000 0.923716
5095.00000 0.92347
5100.00000 0.92348
5105.00000 0.923138
5110.00000 0.92256
5115.00000 0.922365
5120.00000 0.922079
5125.00000 0.921578
5130.00000 0.921004
5135.00000 0.920507
5140.00000 0.919723
5145.00000 0.918891
5150.00000 0.917865
5155.00000 0.917067
5160.00000 0.916069
5165.00000 0.915095
5170.00000 0.913807
5175.00000 0.91273
5180.00000 0.911494
5185.00000 0.910008
5190.00000 0.908838
5195.00000 0.907883
5200.00000 0.90641
5205.00000 0.904821
5210.00000 0.904192
5215.00000 0.903205
5220.00000 0.902058
5225.00000 0.901559
5230.00000 0.900726
5235.00000 0.900237
5240.00000 0.899698
5245.00000 0.899591
5250.00000 0.899832
5255.00000 0.899985
5260.00000 0.89976
5265.00000 0.900882
5270.00000 0.901453
5275.00000 0.901629
5280.00000 0.903116
5285.00000 0.903654
5290.00000 0.904351
5295.00000 0.905398
5300.00000 0.906274
5305.00000 0.907028
5310.00000 0.907471
5315.00000 0.908351
5320.00000 0.908762
5325.00000 0.908634
5330.00000 0.908599
5335.00000 0.908878
5340.00000 0.908395
5345.00000 0.908046
5350.00000 0.907945
5355.00000 0.906988
5360.00000 0.906599
5365.00000 0.905937
5370.00000 0.905317
5375.00000 0.904407
5380.00000 0.904041
5385.00000 0.90311
5390.00000 0.902353
5395.00000 0.901783
5400.00000 0.900762
5405.00000 0.898936
5410.00000 0.897225
5415.00000 0.894323
5420.00000 0.890394
5425.00000 0.885192
5430.00000 0.877946
5435.00000 0.868706
5440.00000 0.856727
5445.00000 0.840667
5450.00000 0.821801
5455.00000 0.799209
5460.00000 0.770536
5465.00000 0.737586
5470.00000 0.700238
5475.00000 0.657932
5480.00000 0.612876
5485.00000 0.564049
5490.00000 0.51409
5495.00000 0.464024
5500.00000 0.413583
5505.00000 0.365882
5510.00000 0.320882
5515.00000 0.278165
5520.00000 0.240283
5525.00000 0.205662
5530.00000 0.175139
5535.00000 0.149164
5540.00000 0.126368
5545.00000 0.107178
5550.00000 0.090769
5555.00000 0.076608
5560.00000 0.064931
5565.00000 0.055037
5570.00000 0.046628
5575.00000 0.039778
5580.00000 0.033917
5585.00000 0.029003
5590.00000 0.024868
5595.00000 0.021358
5600.00000 0.018448
5605.00000 0.015964
5610.00000 0.013814
5615.00000 0.012046
5620.00000 0.010501
5625.00000 0.009176
5630.00000 0.008065
5635.00000 0.007105
5640.00000 0.006296
5645.00000 0.005565
5650.00000 0.004948
5655.00000 0.004417
6220.50000 0.0
