# %ECSV 0.9
# ---
# datatype:
# - {name: wavelength, unit: Angstrom, datatype: float32}
# - {name: response, datatype: float32}
# meta: !!omap
# - {band_name: CN}
# - {group_name: CFH12k}
wavelength response
7137.89990 0.0
7931.00000 0.00497
7932.00000 0.0051
7933.00000 0.00522
7934.00000 0.00534
7935.00000 0.00546
7936.00000 0.0056
7937.00000 0.00575
7938.00000 0.00589
7939.00000 0.00606
7940.00000 0.00623
7941.00000 0.00639
7942.00000 0.00658
7943.00000 0.00674
7944.00000 0.00693
7945.00000 0.00714
7946.00000 0.00735
7947.00000 0.0076
7948.00000 0.00784
7949.00000 0.0081
7950.00000 0.00835
7951.00000 0.00864
7952.00000 0.00891
7953.00000 0.00917
7954.00000 0.00949
7955.00000 0.0098
7956.00000 0.01012
7957.00000 0.01045
7958.00000 0.01079
7959.00000 0.01117
7960.00000 0.01157
7961.00000 0.01199
7962.00000 0.01242
7963.00000 0.01286
7964.00000 0.01331
7965.00000 0.01378
7966.00000 0.0143
7967.00000 0.01482
7968.00000 0.0154
7969.00000 0.01602
7970.00000 0.01666
7971.00000 0.01733
7972.00000 0.01805
7973.00000 0.01877
7974.00000 0.01956
7975.00000 0.0204
7976.00000 0.02127
7977.00000 0.02216
7978.00000 0.02313
7979.00000 0.02415
7980.00000 0.02521
7981.00000 0.02635
7982.00000 0.02754
7983.00000 0.02882
7984.00000 0.03014
7985.00000 0.03151
7986.00000 0.03299
7987.00000 0.03455
7988.00000 0.03622
7989.00000 0.03801
7990.00000 0.03987
7991.00000 0.04182
7992.00000 0.04388
7993.00000 0.0461
7994.00000 0.04845
7995.00000 0.05095
7996.00000 0.0536
7997.00000 0.05637
7998.00000 0.05931
7999.00000 0.06245
8000.00000 0.06578
8001.00000 0.06935
8002.00000 0.07307
8003.00000 0.0771
8004.00000 0.08134
8005.00000 0.08588
8006.00000 0.09064
8007.00000 0.09576
8008.00000 0.1012
8009.00000 0.10703
8010.00000 0.11307
8011.00000 0.1194
8012.00000 0.12617
8013.00000 0.13333
8014.00000 0.14088
8015.00000 0.14883
8016.00000 0.15729
8017.00000 0.16608
8018.00000 0.17528
8019.00000 0.18484
8020.00000 0.19499
8021.00000 0.20552
8022.00000 0.21643
8023.00000 0.22783
8024.00000 0.23987
8025.00000 0.25212
8026.00000 0.26501
8027.00000 0.27832
8028.00000 0.29207
8029.00000 0.3063
8030.00000 0.32088
8031.00000 0.33592
8032.00000 0.35132
8033.00000 0.3671
8034.00000 0.38319
8035.00000 0.39967
8036.00000 0.41643
8037.00000 0.4334
8038.00000 0.45059
8039.00000 0.46783
8040.00000 0.48543
8041.00000 0.50301
8042.00000 0.52061
8043.00000 0.53845
8044.00000 0.55606
8045.00000 0.5735
8046.00000 0.59102
8047.00000 0.60799
8048.00000 0.62485
8049.00000 0.64151
8050.00000 0.65794
8051.00000 0.67387
8052.00000 0.68921
8053.00000 0.70439
8054.00000 0.71919
8055.00000 0.73351
8056.00000 0.74684
8057.00000 0.75978
8058.00000 0.77199
8059.00000 0.78374
8060.00000 0.79475
8061.00000 0.80519
8062.00000 0.81493
8063.00000 0.82425
8064.00000 0.83284
8065.00000 0.84064
8066.00000 0.84758
8067.00000 0.85417
8068.00000 0.86038
8069.00000 0.8658
8070.00000 0.87073
8071.00000 0.87523
8072.00000 0.87927
8073.00000 0.88303
8074.00000 0.88652
8075.00000 0.88937
8076.00000 0.89233
8077.00000 0.89507
8078.00000 0.89737
8079.00000 0.89943
8080.00000 0.90112
8081.00000 0.90273
8082.00000 0.90456
8083.00000 0.90623
8084.00000 0.90758
8085.00000 0.90901
8086.00000 0.91035
8087.00000 0.91176
8088.00000 0.91301
8089.00000 0.91434
8090.00000 0.91557
8091.00000 0.9167
8092.00000 0.91791
8093.00000 0.91891
8094.00000 0.91989
8095.00000 0.92087
8096.00000 0.92236
8097.00000 0.92383
8098.00000 0.92517
8099.00000 0.92639
8100.00000 0.92767
8101.00000 0.92889
8102.00000 0.93021
8103.00000 0.93137
8104.00000 0.93265
8105.00000 0.93378
8106.00000 0.93494
8107.00000 0.93607
8108.00000 0.93698
8109.00000 0.93819
8110.00000 0.93961
8111.00000 0.94089
8112.00000 0.94162
8113.00000 0.94246
8114.00000 0.94347
8115.00000 0.94444
8116.00000 0.94553
8117.00000 0.94644
8118.00000 0.9471
8119.00000 0.9478
8120.00000 0.94865
8121.00000 0.94945
8122.00000 0.95006
8123.00000 0.95082
8124.00000 0.95146
8125.00000 0.9519
8126.00000 0.95203
8127.00000 0.95255
8128.00000 0.95291
8129.00000 0.95317
8130.00000 0.95337
8131.00000 0.95355
8132.00000 0.95367
8133.00000 0.95386
8134.00000 0.95386
8135.00000 0.95378
8136.00000 0.95357
8137.00000 0.95331
8138.00000 0.95311
8139.00000 0.95302
8140.00000 0.9529
8141.00000 0.95267
8142.00000 0.95258
8143.00000 0.95219
8144.00000 0.95204
8145.00000 0.9519
8146.00000 0.95155
8147.00000 0.95081
8148.00000 0.9503
8149.00000 0.94946
8150.00000 0.94905
8151.00000 0.94841
8152.00000 0.94763
8153.00000 0.94705
8154.00000 0.94629
8155.00000 0.94504
8156.00000 0.94388
8157.00000 0.94241
8158.00000 0.94087
8159.00000 0.93904
8160.00000 0.93719
8161.00000 0.93517
8162.00000 0.93265
8163.00000 0.93007
8164.00000 0.9269
8165.00000 0.92337
8166.00000 0.9196
8167.00000 0.91528
8168.00000 0.91071
8169.00000 0.90538
8170.00000 0.89954
8171.00000 0.89342
8172.00000 0.88641
8173.00000 0.87917
8174.00000 0.87108
8175.00000 0.86261
8176.00000 0.85324
8177.00000 0.84335
8178.00000 0.83301
8179.00000 0.82211
8180.00000 0.81055
8181.00000 0.79865
8182.00000 0.78581
8183.00000 0.77263
8184.00000 0.75873
8185.00000 0.74434
8186.00000 0.72963
8187.00000 0.71419
8188.00000 0.69833
8189.00000 0.68224
8190.00000 0.66589
8191.00000 0.64906
8192.00000 0.63217
8193.00000 0.61479
8194.00000 0.59738
8195.00000 0.57988
8196.00000 0.56232
8197.00000 0.5448
8198.00000 0.52725
8199.00000 0.5097
8200.00000 0.49219
8201.00000 0.47491
8202.00000 0.45769
8203.00000 0.44089
8204.00000 0.4243
8205.00000 0.40771
8206.00000 0.39143
8207.00000 0.37549
8208.00000 0.35977
8209.00000 0.34447
8210.00000 0.32956
8211.00000 0.31482
8212.00000 0.30046
8213.00000 0.28658
8214.00000 0.27309
8215.00000 0.26004
8216.00000 0.24748
8217.00000 0.23521
8218.00000 0.2235
8219.00000 0.21217
8220.00000 0.2014
8221.00000 0.19109
8222.00000 0.18127
8223.00000 0.17201
8224.00000 0.16312
8225.00000 0.15462
8226.00000 0.14651
8227.00000 0.1389
8228.00000 0.13174
8229.00000 0.12479
8230.00000 0.11824
8231.00000 0.11209
8232.00000 0.10631
8233.00000 0.10085
8234.00000 0.09564
8235.00000 0.0907
8236.00000 0.08607
8237.00000 0.08165
8238.00000 0.07747
8239.00000 0.07341
8240.00000 0.06966
8241.00000 0.06616
8242.00000 0.06276
8243.00000 0.05962
8244.00000 0.05653
8245.00000 0.05365
8246.00000 0.05093
8247.00000 0.04839
8248.00000 0.04596
8249.00000 0.04367
8250.00000 0.0415
8251.00000 0.03944
8252.00000 0.03754
8253.00000 0.03577
8254.00000 0.03409
8255.00000 0.03249
8256.00000 0.03094
8257.00000 0.02951
8258.00000 0.02818
8259.00000 0.02692
8260.00000 0.02577
8261.00000 0.02464
8262.00000 0.02361
8263.00000 0.02255
8264.00000 0.02158
8265.00000 0.02066
8266.00000 0.01979
8267.00000 0.019
8268.00000 0.0182
8269.00000 0.01743
8270.00000 0.01671
8271.00000 0.01604
8272.00000 0.0154
8273.00000 0.0148
8274.00000 0.01421
8275.00000 0.01363
8276.00000 0.01305
8277.00000 0.01256
8278.00000 0.01208
8279.00000 0.01166
8280.00000 0.01122
8281.00000 0.01079
8282.00000 0.01041
8283.00000 0.01003
8284.00000 0.00966
8285.00000 0.00932
8286.00000 0.009
8287.00000 0.00868
8288.00000 0.00838
8289.00000 0.00807
8290.00000 0.00778
8291.00000 0.00754
8292.00000 0.00728
8293.00000 0.007
8294.00000 0.00676
8295.00000 0.00653
8296.00000 0.0063
8297.00000 0.0061
8298.00000 0.00591
8299.00000 0.00571
8300.00000 0.00551
8301.00000 0.00531
8302.00000 0.00513
8303.00000 0.00493
9133.29980 0.0
