# %ECSV 0.9
# ---
# datatype:
# - {name: wavelength, unit: Angstrom, datatype: float32}
# - {name: response, datatype: float32}
# meta: !!omap
# - {band_name: cfh8301}
# - {group_name: CFHT}
wavelength response
17379.00000 0.0
19310.00000 0.00406
19315.00000 0.00409
19320.00000 0.00511
19325.00000 0.0043
19330.00000 0.00471
19335.00000 0.0043
19340.00000 0.00349
19345.00000 0.00247
19350.00000 0.00104
19355.00000 0.00061
19360.00000 0.0
19365.00000 0.0002
19370.00000 0.0006
19375.00000 0.0004
19380.00000 0.0
19385.00000 0.0
19390.00000 0.0
19395.00000 0.00079
19400.00000 0.0006
19405.00000 0.0006
19410.00000 0.00099
19415.00000 0.00121
19420.00000 0.00223
19425.00000 0.00304
19430.00000 0.00243
19435.00000 0.0022
19440.00000 0.0022
19445.00000 0.002
19450.00000 0.0034
19455.00000 0.0036
19460.00000 0.00439
19465.00000 0.00459
19470.00000 0.00499
19475.00000 0.00479
19480.00000 0.00519
19485.00000 0.00479
19490.00000 0.00417
19495.00000 0.00516
19500.00000 0.00475
19505.00000 0.00494
19510.00000 0.00592
19515.00000 0.0069
19520.00000 0.0065
19525.00000 0.00729
19530.00000 0.0069
19535.00000 0.00648
19540.00000 0.00748
19545.00000 0.00768
19550.00000 0.00688
19555.00000 0.00529
19560.00000 0.00627
19565.00000 0.00705
19570.00000 0.00665
19575.00000 0.008
19580.00000 0.0076
19585.00000 0.00836
19590.00000 0.00912
19595.00000 0.01065
19600.00000 0.0114
19605.00000 0.011
19610.00000 0.01176
19615.00000 0.01175
19620.00000 0.01286
19625.00000 0.01341
19630.00000 0.01338
19635.00000 0.01337
19640.00000 0.0143
19645.00000 0.01788
19650.00000 0.02036
19655.00000 0.02147
19660.00000 0.02414
19665.00000 0.02542
19670.00000 0.02733
19675.00000 0.03017
19680.00000 0.03198
19685.00000 0.03363
19690.00000 0.03445
19695.00000 0.03745
19700.00000 0.03854
19705.00000 0.04198
19710.00000 0.04614
19715.00000 0.0491
19720.00000 0.05305
19725.00000 0.05614
19730.00000 0.06081
19735.00000 0.0647
19740.00000 0.06912
19745.00000 0.07405
19750.00000 0.07855
19755.00000 0.08495
19760.00000 0.09067
19765.00000 0.09669
19770.00000 0.10313
19775.00000 0.11031
19780.00000 0.11787
19785.00000 0.12569
19790.00000 0.13504
19795.00000 0.14433
19800.00000 0.15314
19805.00000 0.16231
19810.00000 0.17273
19815.00000 0.18365
19820.00000 0.19592
19825.00000 0.20816
19830.00000 0.22026
19835.00000 0.23364
19840.00000 0.24721
19845.00000 0.2632
19850.00000 0.27745
19855.00000 0.29373
19860.00000 0.30856
19865.00000 0.32558
19870.00000 0.34177
19875.00000 0.35803
19880.00000 0.37657
19885.00000 0.39348
19890.00000 0.4126
19895.00000 0.43135
19900.00000 0.45071
19905.00000 0.46964
19910.00000 0.489
19915.00000 0.50984
19920.00000 0.52887
19925.00000 0.54913
19930.00000 0.56851
19935.00000 0.58694
19940.00000 0.60562
19945.00000 0.62231
19950.00000 0.64049
19955.00000 0.65753
19960.00000 0.67465
19965.00000 0.69043
19970.00000 0.7066
19975.00000 0.72249
19980.00000 0.73714
19985.00000 0.75146
19990.00000 0.76541
19995.00000 0.77641
20000.00000 0.78734
20005.00000 0.79851
20010.00000 0.80641
20015.00000 0.81271
20020.00000 0.82123
20025.00000 0.82812
20030.00000 0.83296
20035.00000 0.83752
20040.00000 0.84282
20045.00000 0.84595
20050.00000 0.85173
20055.00000 0.85652
20060.00000 0.85878
20065.00000 0.86235
20070.00000 0.8658
20075.00000 0.86984
20080.00000 0.87141
20085.00000 0.87198
20090.00000 0.87224
20095.00000 0.87296
20100.00000 0.87286
20105.00000 0.87238
20110.00000 0.87158
20115.00000 0.87029
20120.00000 0.8703
20125.00000 0.8723
20130.00000 0.8726
20135.00000 0.87331
20140.00000 0.87541
20145.00000 0.87787
20150.00000 0.87953
20155.00000 0.88098
20160.00000 0.88185
20165.00000 0.88136
20170.00000 0.88054
20175.00000 0.87929
20180.00000 0.87926
20185.00000 0.87735
20190.00000 0.87628
20195.00000 0.87595
20200.00000 0.87476
20205.00000 0.87413
20210.00000 0.87503
20215.00000 0.87665
20220.00000 0.87454
20225.00000 0.87392
20230.00000 0.87251
20235.00000 0.86993
20240.00000 0.8703
20245.00000 0.87074
20250.00000 0.86986
20255.00000 0.86821
20260.00000 0.8681
20265.00000 0.86717
20270.00000 0.86794
20275.00000 0.86942
20280.00000 0.86931
20285.00000 0.86989
20290.00000 0.87083
20295.00000 0.87166
20300.00000 0.87114
20305.00000 0.87231
20310.00000 0.87276
20315.00000 0.8732
20320.00000 0.87398
20325.00000 0.8718
20330.00000 0.87114
20335.00000 0.87042
20340.00000 0.87096
20345.00000 0.87074
20350.00000 0.87068
20355.00000 0.8709
20360.00000 0.87009
20365.00000 0.87108
20370.00000 0.87044
20375.00000 0.87042
20380.00000 0.87039
20385.00000 0.87039
20390.00000 0.87048
20395.00000 0.86925
20400.00000 0.86855
20405.00000 0.87051
20410.00000 0.87262
20415.00000 0.87263
20420.00000 0.87485
20425.00000 0.87503
20430.00000 0.87515
20435.00000 0.87692
20440.00000 0.87834
20445.00000 0.87573
20450.00000 0.87415
20455.00000 0.87439
20460.00000 0.8716
20465.00000 0.86964
20470.00000 0.86855
20475.00000 0.86613
20480.00000 0.86475
20485.00000 0.86533
20490.00000 0.86517
20495.00000 0.86464
20500.00000 0.86514
20505.00000 0.86751
20510.00000 0.86742
20515.00000 0.86855
20520.00000 0.86958
20525.00000 0.86974
20530.00000 0.86923
20535.00000 0.87067
20540.00000 0.87172
20545.00000 0.87181
20550.00000 0.87265
20555.00000 0.87199
20560.00000 0.87189
20565.00000 0.87309
20570.00000 0.8741
20575.00000 0.87352
20580.00000 0.87343
20585.00000 0.87375
20590.00000 0.87364
20595.00000 0.87421
20600.00000 0.87549
20605.00000 0.87517
20610.00000 0.87595
20615.00000 0.87671
20620.00000 0.87602
20625.00000 0.87437
20630.00000 0.87485
20635.00000 0.87408
20640.00000 0.87228
20645.00000 0.87047
20650.00000 0.86963
20655.00000 0.87024
20660.00000 0.87048
20665.00000 0.87138
20670.00000 0.87062
20675.00000 0.87216
20680.00000 0.8725
20685.00000 0.87283
20690.00000 0.87257
20695.00000 0.87135
20700.00000 0.87199
20705.00000 0.87196
20710.00000 0.87228
20715.00000 0.87187
20720.00000 0.87137
20725.00000 0.87181
20730.00000 0.87093
20735.00000 0.87099
20740.00000 0.8708
20745.00000 0.86914
20750.00000 0.86905
20755.00000 0.86852
20760.00000 0.86879
20765.00000 0.86824
20770.00000 0.86916
20775.00000 0.86833
20780.00000 0.86681
20785.00000 0.86963
20790.00000 0.86873
20795.00000 0.86995
20800.00000 0.86951
20805.00000 0.86978
20810.00000 0.87218
20815.00000 0.8723
20820.00000 0.87283
20825.00000 0.87148
20830.00000 0.87326
20835.00000 0.8739
20840.00000 0.8746
20845.00000 0.8761
20850.00000 0.87421
20855.00000 0.87611
20860.00000 0.87808
20865.00000 0.87816
20870.00000 0.87801
20875.00000 0.87785
20880.00000 0.87944
20885.00000 0.87869
20890.00000 0.87883
20895.00000 0.87801
20900.00000 0.87747
20905.00000 0.87689
20910.00000 0.87515
20915.00000 0.87407
20920.00000 0.87259
20925.00000 0.8716
20930.00000 0.87143
20935.00000 0.86938
20940.00000 0.86877
20945.00000 0.87166
20950.00000 0.87463
20955.00000 0.87526
20960.00000 0.8752
20965.00000 0.87717
20970.00000 0.87666
20975.00000 0.87802
20980.00000 0.87857
20985.00000 0.87563
20990.00000 0.8736
20995.00000 0.8737
21000.00000 0.8746
21005.00000 0.87437
21010.00000 0.87625
21015.00000 0.87708
21020.00000 0.87708
21025.00000 0.87605
21030.00000 0.87608
21035.00000 0.87662
21040.00000 0.87599
21045.00000 0.87564
21050.00000 0.87364
21055.00000 0.87283
21060.00000 0.87328
21065.00000 0.87556
21070.00000 0.87721
21075.00000 0.87698
21080.00000 0.87852
21085.00000 0.87915
21090.00000 0.87866
21095.00000 0.87901
21100.00000 0.87859
21105.00000 0.87935
21110.00000 0.87859
21115.00000 0.87749
21120.00000 0.87605
21125.00000 0.87521
21130.00000 0.87619
21135.00000 0.8773
21140.00000 0.87639
21145.00000 0.87587
21150.00000 0.87505
21155.00000 0.87526
21160.00000 0.87569
21165.00000 0.87561
21170.00000 0.87566
21175.00000 0.87383
21180.00000 0.87442
21185.00000 0.87393
21190.00000 0.87524
21195.00000 0.8755
21200.00000 0.87445
21205.00000 0.87474
21210.00000 0.8748
21215.00000 0.87576
21220.00000 0.87622
21225.00000 0.87578
21230.00000 0.8757
21235.00000 0.875
21240.00000 0.87605
21245.00000 0.87486
21250.00000 0.8755
21255.00000 0.87463
21260.00000 0.87389
21265.00000 0.87254
21270.00000 0.87067
21275.00000 0.87119
21280.00000 0.87041
21285.00000 0.87254
21290.00000 0.87221
21295.00000 0.87212
21300.00000 0.87332
21305.00000 0.87595
21310.00000 0.87576
21315.00000 0.87572
21320.00000 0.87651
21325.00000 0.87521
21330.00000 0.87682
21335.00000 0.87738
21340.00000 0.8784
21345.00000 0.87698
21350.00000 0.87985
21355.00000 0.88033
21360.00000 0.88033
21365.00000 0.8786
21370.00000 0.87766
21375.00000 0.87962
21380.00000 0.87706
21385.00000 0.87878
21390.00000 0.87756
21395.00000 0.87608
21400.00000 0.87643
21405.00000 0.87808
21410.00000 0.87816
21415.00000 0.87776
21420.00000 0.87762
21425.00000 0.87587
21430.00000 0.87476
21435.00000 0.87494
21440.00000 0.8723
21445.00000 0.86961
21450.00000 0.86743
21455.00000 0.86649
21460.00000 0.86624
21465.00000 0.86597
21470.00000 0.86729
21475.00000 0.86859
21480.00000 0.8708
21485.00000 0.87273
21490.00000 0.87251
21495.00000 0.87073
21500.00000 0.87146
21505.00000 0.87117
21510.00000 0.86916
21515.00000 0.86682
21520.00000 0.86707
21525.00000 0.86929
21530.00000 0.87097
21535.00000 0.87344
21540.00000 0.8726
21545.00000 0.87305
21550.00000 0.87526
21555.00000 0.87709
21560.00000 0.87529
21565.00000 0.87346
21570.00000 0.87134
21575.00000 0.86955
21580.00000 0.87126
21585.00000 0.87114
21590.00000 0.87022
21595.00000 0.86853
21600.00000 0.86986
21605.00000 0.87029
21610.00000 0.87071
21615.00000 0.86917
21620.00000 0.86731
21625.00000 0.86655
21630.00000 0.86583
21635.00000 0.86694
21640.00000 0.86722
21645.00000 0.86821
21650.00000 0.86803
21655.00000 0.86986
21660.00000 0.87177
21665.00000 0.87424
21670.00000 0.87527
21675.00000 0.87497
21680.00000 0.87347
21685.00000 0.87201
21690.00000 0.87343
21695.00000 0.87312
21700.00000 0.87186
21705.00000 0.87016
21710.00000 0.86913
21715.00000 0.86835
21720.00000 0.86852
21725.00000 0.86812
21730.00000 0.8667
21735.00000 0.86603
21740.00000 0.86552
21745.00000 0.86514
21750.00000 0.86476
21755.00000 0.86526
21760.00000 0.86292
21765.00000 0.86316
21770.00000 0.86299
21775.00000 0.86191
21780.00000 0.86026
21785.00000 0.85986
21790.00000 0.8589
21795.00000 0.85773
21800.00000 0.85895
21805.00000 0.85652
21810.00000 0.85567
21815.00000 0.85393
21820.00000 0.8551
21825.00000 0.85745
21830.00000 0.85716
21835.00000 0.85892
21840.00000 0.85953
21845.00000 0.85973
21850.00000 0.86072
21855.00000 0.86301
21860.00000 0.86302
21865.00000 0.86002
21870.00000 0.8591
21875.00000 0.858
21880.00000 0.85651
21885.00000 0.85609
21890.00000 0.8549
21895.00000 0.85316
21900.00000 0.85074
21905.00000 0.85004
21910.00000 0.84982
21915.00000 0.84711
21920.00000 0.84601
21925.00000 0.84679
21930.00000 0.84546
21935.00000 0.84509
21940.00000 0.84445
21945.00000 0.84308
21950.00000 0.8428
21955.00000 0.84245
21960.00000 0.84229
21965.00000 0.83928
21970.00000 0.83711
21975.00000 0.83559
21980.00000 0.83604
21985.00000 0.8358
21990.00000 0.83597
21995.00000 0.83586
22000.00000 0.83418
22005.00000 0.83554
22010.00000 0.83815
22015.00000 0.84001
22020.00000 0.84004
22025.00000 0.84093
22030.00000 0.84044
22035.00000 0.84116
22040.00000 0.84436
22045.00000 0.84366
22050.00000 0.84328
22055.00000 0.84158
22060.00000 0.84036
22065.00000 0.84023
22070.00000 0.83891
22075.00000 0.83839
22080.00000 0.8349
22085.00000 0.83429
22090.00000 0.83408
22095.00000 0.83658
22100.00000 0.83667
22105.00000 0.83516
22110.00000 0.83644
22115.00000 0.83635
22120.00000 0.83707
22125.00000 0.83752
22130.00000 0.83672
22135.00000 0.83531
22140.00000 0.83672
22145.00000 0.83568
22150.00000 0.83412
22155.00000 0.8325
22160.00000 0.83138
22165.00000 0.82956
22170.00000 0.82797
22175.00000 0.82526
22180.00000 0.82333
22185.00000 0.82309
22190.00000 0.82314
22195.00000 0.82292
22200.00000 0.8244
22205.00000 0.8243
22210.00000 0.82401
22215.00000 0.82494
22220.00000 0.82507
22225.00000 0.82652
22230.00000 0.82741
22235.00000 0.82964
22240.00000 0.8284
22245.00000 0.83038
22250.00000 0.83096
22255.00000 0.83148
22260.00000 0.83154
22265.00000 0.83058
22270.00000 0.83089
22275.00000 0.83
22280.00000 0.83186
22285.00000 0.83299
22290.00000 0.83295
22295.00000 0.83324
22300.00000 0.83301
22305.00000 0.83279
22310.00000 0.83185
22315.00000 0.83197
22320.00000 0.8309
22325.00000 0.82863
22330.00000 0.82825
22335.00000 0.82683
22340.00000 0.82697
22345.00000 0.82835
22350.00000 0.82739
22355.00000 0.8266
22360.00000 0.82703
22365.00000 0.82864
22370.00000 0.83197
22375.00000 0.83261
22380.00000 0.83273
22385.00000 0.83331
22390.00000 0.83412
22395.00000 0.83467
22400.00000 0.83401
22405.00000 0.83272
22410.00000 0.82898
22415.00000 0.8282
22420.00000 0.82605
22425.00000 0.82413
22430.00000 0.82384
22435.00000 0.82376
22440.00000 0.82405
22445.00000 0.82471
22450.00000 0.82616
22455.00000 0.82674
22460.00000 0.82809
22465.00000 0.82704
22470.00000 0.82896
22475.00000 0.82849
22480.00000 0.82706
22485.00000 0.82617
22490.00000 0.82666
22495.00000 0.82671
22500.00000 0.82822
22505.00000 0.83058
22510.00000 0.82857
22515.00000 0.82726
22520.00000 0.82874
22525.00000 0.82843
22530.00000 0.82761
22535.00000 0.82809
22540.00000 0.82695
22545.00000 0.82539
22550.00000 0.82526
22555.00000 0.82526
22560.00000 0.82433
22565.00000 0.82385
22570.00000 0.82265
22575.00000 0.82272
22580.00000 0.82294
22585.00000 0.82326
22590.00000 0.82315
22595.00000 0.82236
22600.00000 0.82057
22605.00000 0.81972
22610.00000 0.81984
22615.00000 0.81866
22620.00000 0.81711
22625.00000 0.8181
22630.00000 0.81735
22635.00000 0.81822
22640.00000 0.81833
22645.00000 0.81778
22650.00000 0.81615
22655.00000 0.81349
22660.00000 0.81354
22665.00000 0.81052
22670.00000 0.81039
22675.00000 0.80949
22680.00000 0.80995
22685.00000 0.81038
22690.00000 0.81236
22695.00000 0.8125
22700.00000 0.81125
22705.00000 0.81029
22710.00000 0.80794
22715.00000 0.80783
22720.00000 0.80667
22725.00000 0.80621
22730.00000 0.80492
22735.00000 0.80688
22740.00000 0.8083
22745.00000 0.81079
22750.00000 0.81448
22755.00000 0.81569
22760.00000 0.81949
22765.00000 0.8212
22770.00000 0.82234
22775.00000 0.82118
22780.00000 0.82207
22785.00000 0.82158
22790.00000 0.82082
22795.00000 0.82033
22800.00000 0.81816
22805.00000 0.81708
22810.00000 0.81572
22815.00000 0.81487
22820.00000 0.81364
22825.00000 0.81337
22830.00000 0.81238
22835.00000 0.81306
22840.00000 0.81401
22845.00000 0.81462
22850.00000 0.814
22855.00000 0.81645
22860.00000 0.81621
22865.00000 0.81511
22870.00000 0.81429
22875.00000 0.81277
22880.00000 0.80997
22885.00000 0.80945
22890.00000 0.8112
22895.00000 0.81087
22900.00000 0.81155
22905.00000 0.81253
22910.00000 0.81494
22915.00000 0.81613
22920.00000 0.81709
22925.00000 0.81746
22930.00000 0.81636
22935.00000 0.81491
22940.00000 0.81561
22945.00000 0.817
22950.00000 0.81606
22955.00000 0.81552
22960.00000 0.81769
22965.00000 0.81819
22970.00000 0.81854
22975.00000 0.81979
22980.00000 0.81866
22985.00000 0.81807
22990.00000 0.81798
22995.00000 0.81683
23000.00000 0.81274
23005.00000 0.81094
23010.00000 0.81015
23015.00000 0.80785
23020.00000 0.80637
23025.00000 0.80264
23030.00000 0.79706
23035.00000 0.79277
23040.00000 0.79012
23045.00000 0.78549
23050.00000 0.77959
23055.00000 0.7728
23060.00000 0.76477
23065.00000 0.7581
23070.00000 0.75304
23075.00000 0.74477
23080.00000 0.73688
23085.00000 0.72798
23090.00000 0.71944
23095.00000 0.70885
23100.00000 0.69791
23105.00000 0.6833
23110.00000 0.67065
23115.00000 0.65593
23120.00000 0.63947
23125.00000 0.6217
23130.00000 0.60396
23135.00000 0.58821
23140.00000 0.5705
23145.00000 0.55463
23150.00000 0.53658
23155.00000 0.5192
23160.00000 0.50169
23165.00000 0.48456
23170.00000 0.46707
23175.00000 0.44713
23180.00000 0.43019
23185.00000 0.41269
23190.00000 0.39378
23195.00000 0.37793
23200.00000 0.36263
23205.00000 0.34663
23210.00000 0.33133
23215.00000 0.31604
23220.00000 0.30029
23225.00000 0.28484
23230.00000 0.27028
23235.00000 0.25609
23240.00000 0.24078
23245.00000 0.22711
23250.00000 0.21376
23255.00000 0.20303
23260.00000 0.19328
23265.00000 0.18254
23270.00000 0.17372
23275.00000 0.16621
23280.00000 0.15721
23285.00000 0.14841
23290.00000 0.14102
23295.00000 0.13293
23300.00000 0.12225
23305.00000 0.11694
23310.00000 0.10968
23315.00000 0.10226
23320.00000 0.09589
23325.00000 0.09178
23330.00000 0.08517
23335.00000 0.08098
23340.00000 0.07982
23345.00000 0.07487
23350.00000 0.07143
23355.00000 0.06764
23360.00000 0.06415
23365.00000 0.05934
23370.00000 0.05618
23375.00000 0.05275
23380.00000 0.04776
23385.00000 0.04442
23390.00000 0.0412
23395.00000 0.03703
23400.00000 0.03546
23405.00000 0.03418
23410.00000 0.03259
23415.00000 0.03076
23420.00000 0.02888
23425.00000 0.0276
23430.00000 0.02451
23435.00000 0.02452
23440.00000 0.02348
23445.00000 0.0224
23450.00000 0.02075
23455.00000 0.01874
23460.00000 0.01817
23465.00000 0.01793
23470.00000 0.01855
23475.00000 0.01859
23480.00000 0.01651
23485.00000 0.01562
23490.00000 0.01355
23495.00000 0.01505
23500.00000 0.01505
23505.00000 0.01361
23510.00000 0.01271
23515.00000 0.0107
23520.00000 0.01103
23525.00000 0.01045
23530.00000 0.01106
23535.00000 0.01027
23540.00000 0.01031
23545.00000 0.0088
23550.00000 0.01039
23555.00000 0.00949
23560.00000 0.00888
23565.00000 0.00766
23570.00000 0.00891
23575.00000 0.00861
23580.00000 0.00771
23585.00000 0.00771
23590.00000 0.00587
23595.00000 0.00558
23600.00000 0.00528
23605.00000 0.00467
25965.50000 0.0
