# %ECSV 0.9
# ---
# datatype:
# - {name: wavelength, unit: Angstrom, datatype: float32}
# - {name: response, datatype: float32}
# meta: !!omap
# - {band_name: cfh5102}
# - {group_name: CFHT}
wavelength response
9738.00000 0.0
10820.00000 0.00455
10840.00000 0.006
10860.00000 0.00748
10880.00000 0.0087
10900.00000 0.01045
10920.00000 0.0137
10940.00000 0.01939
10960.00000 0.02826
10980.00000 0.03899
11000.00000 0.04939
11020.00000 0.06247
11040.00000 0.08513
11060.00000 0.12144
11080.00000 0.17328
11100.00000 0.23698
11120.00000 0.30162
11140.00000 0.36145
11160.00000 0.41833
11180.00000 0.47415
11200.00000 0.52846
11220.00000 0.5779
11240.00000 0.61995
11260.00000 0.65469
11280.00000 0.68672
11300.00000 0.71974
11320.00000 0.75212
11340.00000 0.78262
11360.00000 0.81213
11380.00000 0.84006
11400.00000 0.86194
11420.00000 0.87251
11440.00000 0.87177
11460.00000 0.86465
11480.00000 0.85696
11500.00000 0.85284
11520.00000 0.85239
11540.00000 0.85349
11560.00000 0.85432
11580.00000 0.85422
11600.00000 0.85411
11620.00000 0.85561
11640.00000 0.85901
11660.00000 0.8625
11680.00000 0.86256
11700.00000 0.85687
11720.00000 0.84747
11740.00000 0.8391
11760.00000 0.83444
11780.00000 0.8333
11800.00000 0.83388
11820.00000 0.83469
11840.00000 0.83653
11860.00000 0.84142
11880.00000 0.85036
11900.00000 0.86256
11920.00000 0.87527
11940.00000 0.88844
11960.00000 0.90086
11980.00000 0.91042
12000.00000 0.91737
12020.00000 0.92105
12040.00000 0.92151
12060.00000 0.91888
12080.00000 0.91328
12100.00000 0.90515
12120.00000 0.89471
12140.00000 0.88344
12160.00000 0.8741
12180.00000 0.8688
12200.00000 0.8681
12220.00000 0.87021
12240.00000 0.87221
12260.00000 0.87164
12280.00000 0.86916
12300.00000 0.86803
12320.00000 0.87045
12340.00000 0.87605
12360.00000 0.88274
12380.00000 0.88773
12400.00000 0.88847
12420.00000 0.8846
12440.00000 0.87776
12460.00000 0.8698
12480.00000 0.86162
12500.00000 0.85321
12520.00000 0.84459
12540.00000 0.8362
12560.00000 0.8286
12580.00000 0.82207
12600.00000 0.81619
12620.00000 0.81053
12640.00000 0.80537
12660.00000 0.80135
12680.00000 0.79926
12700.00000 0.79956
12720.00000 0.8019
12740.00000 0.80544
12760.00000 0.8096
12780.00000 0.81435
12800.00000 0.82004
12820.00000 0.82713
12840.00000 0.83597
12860.00000 0.84573
12880.00000 0.85487
12900.00000 0.86221
12920.00000 0.86742
12940.00000 0.87079
12960.00000 0.873
12980.00000 0.87468
13000.00000 0.8763
13020.00000 0.87791
13040.00000 0.87927
13060.00000 0.88002
13080.00000 0.87946
13100.00000 0.87694
13120.00000 0.87163
13140.00000 0.86325
13160.00000 0.85361
13180.00000 0.84534
13200.00000 0.84038
13220.00000 0.83978
13240.00000 0.84322
13260.00000 0.84895
13280.00000 0.85458
13300.00000 0.85794
13320.00000 0.85815
13340.00000 0.85603
13360.00000 0.85362
13380.00000 0.85324
13400.00000 0.8555
13420.00000 0.85977
13440.00000 0.86453
13460.00000 0.86797
13480.00000 0.86958
13500.00000 0.86827
13520.00000 0.86459
13540.00000 0.85979
13560.00000 0.85278
13580.00000 0.84422
13600.00000 0.83522
13620.00000 0.82806
13640.00000 0.82449
13660.00000 0.82097
13680.00000 0.8177
13700.00000 0.81757
13720.00000 0.8195
13740.00000 0.82193
13760.00000 0.82394
13780.00000 0.82446
13800.00000 0.82457
13820.00000 0.82739
13840.00000 0.8313
13860.00000 0.83701
13880.00000 0.84578
13900.00000 0.85544
13920.00000 0.86494
13940.00000 0.87308
13960.00000 0.88123
13980.00000 0.88875
14000.00000 0.89403
14020.00000 0.89746
14040.00000 0.90042
14060.00000 0.90318
14080.00000 0.90372
14100.00000 0.90303
14120.00000 0.90135
14140.00000 0.89799
14160.00000 0.89355
14180.00000 0.88802
14200.00000 0.8815
14220.00000 0.87381
14240.00000 0.86511
14260.00000 0.85518
14280.00000 0.84398
14300.00000 0.83154
14320.00000 0.81772
14340.00000 0.80348
14360.00000 0.78938
14380.00000 0.77505
14400.00000 0.76097
14420.00000 0.74771
14440.00000 0.7354
14460.00000 0.72411
14480.00000 0.71425
14500.00000 0.70528
14520.00000 0.6965
14540.00000 0.68872
14560.00000 0.68211
14580.00000 0.67653
14600.00000 0.6722
14620.00000 0.66943
14640.00000 0.66849
14660.00000 0.66937
14680.00000 0.67204
14700.00000 0.67661
14720.00000 0.68285
14740.00000 0.69066
14760.00000 0.69987
14780.00000 0.71031
14800.00000 0.72177
14820.00000 0.73372
14840.00000 0.74582
14860.00000 0.75798
14880.00000 0.76996
14900.00000 0.78131
14920.00000 0.79184
14940.00000 0.80171
14960.00000 0.8111
14980.00000 0.81984
15000.00000 0.82745
15020.00000 0.83405
15040.00000 0.83966
15060.00000 0.84392
15080.00000 0.84692
15100.00000 0.84877
15120.00000 0.84937
15140.00000 0.84909
15160.00000 0.84825
15180.00000 0.84721
15200.00000 0.84627
15220.00000 0.84544
15240.00000 0.84491
15260.00000 0.84483
15280.00000 0.84525
15300.00000 0.84581
15320.00000 0.84673
15340.00000 0.84804
15360.00000 0.84952
15380.00000 0.85097
15400.00000 0.85251
15420.00000 0.85403
15440.00000 0.85527
15460.00000 0.85606
15480.00000 0.85638
15500.00000 0.85634
15520.00000 0.85583
15540.00000 0.8546
15560.00000 0.85269
15580.00000 0.85045
15600.00000 0.84796
15620.00000 0.84523
15640.00000 0.84253
15660.00000 0.84027
15680.00000 0.83835
15700.00000 0.83658
15720.00000 0.83519
15740.00000 0.83394
15760.00000 0.83275
15780.00000 0.8317
15800.00000 0.83046
15820.00000 0.82935
15840.00000 0.82854
15860.00000 0.82803
15880.00000 0.82794
15900.00000 0.82823
15920.00000 0.82884
15940.00000 0.82936
15960.00000 0.83014
15980.00000 0.83122
16000.00000 0.83217
16020.00000 0.83319
16040.00000 0.8343
16060.00000 0.8356
16080.00000 0.83678
16100.00000 0.83792
16120.00000 0.83896
16140.00000 0.83972
16160.00000 0.84035
16180.00000 0.84039
16200.00000 0.84015
16220.00000 0.83968
16240.00000 0.83937
16260.00000 0.83939
16280.00000 0.83963
16300.00000 0.84056
16320.00000 0.84184
16340.00000 0.84331
16360.00000 0.84505
16380.00000 0.8465
16400.00000 0.84711
16420.00000 0.84688
16440.00000 0.8457
16460.00000 0.84332
16480.00000 0.83997
16500.00000 0.83611
16520.00000 0.83144
16540.00000 0.8257
16560.00000 0.81894
16580.00000 0.81081
16600.00000 0.80154
16620.00000 0.79108
16640.00000 0.7796
16660.00000 0.76781
16680.00000 0.75639
16700.00000 0.74637
16720.00000 0.73804
16740.00000 0.73141
16760.00000 0.7263
16780.00000 0.72241
16800.00000 0.71967
16820.00000 0.71797
16840.00000 0.7169
16860.00000 0.71655
16880.00000 0.71747
16900.00000 0.71899
16920.00000 0.72
16940.00000 0.71848
16960.00000 0.71097
16980.00000 0.69505
17000.00000 0.66751
17020.00000 0.62709
17040.00000 0.57426
17060.00000 0.51004
17080.00000 0.43939
17100.00000 0.36795
17120.00000 0.30107
17140.00000 0.2419
17160.00000 0.19208
17180.00000 0.15173
17200.00000 0.11894
17220.00000 0.09277
17240.00000 0.07224
17260.00000 0.0565
17280.00000 0.04453
17300.00000 0.03531
17320.00000 0.02815
17340.00000 0.02251
17360.00000 0.01816
17380.00000 0.0148
17400.00000 0.01213
17420.00000 0.01006
17440.00000 0.00845
17460.00000 0.00716
17480.00000 0.00609
17500.00000 0.00508
17520.00000 0.00432
19272.00000 0.0
