# %ECSV 0.9
# ---
# datatype:
# - {name: wavelength, unit: Angstrom, datatype: float32}
# - {name: response, datatype: float32}
# meta: !!omap
# - {band_name: cfh1810}
# - {group_name: CFHT}
wavelength response
7434.00000 0.0
8260.00000 0.00589
8280.00000 0.00932
8300.00000 0.01712
8320.00000 0.02881
8340.00000 0.04245
8360.00000 0.06116
8380.00000 0.08687
8400.00000 0.11955
8420.00000 0.15741
8440.00000 0.20026
8460.00000 0.24869
8480.00000 0.30064
8500.00000 0.35295
8520.00000 0.40474
8540.00000 0.45581
8560.00000 0.50459
8580.00000 0.55064
8600.00000 0.59293
8620.00000 0.63043
8640.00000 0.66551
8660.00000 0.69775
8680.00000 0.72478
8700.00000 0.74846
8720.00000 0.76978
8740.00000 0.78902
8760.00000 0.80598
8780.00000 0.81981
8800.00000 0.83189
8820.00000 0.84335
8840.00000 0.8532
8860.00000 0.86136
8880.00000 0.86897
8900.00000 0.87564
8920.00000 0.88071
8940.00000 0.88573
8960.00000 0.89046
8980.00000 0.89427
9000.00000 0.89804
9020.00000 0.90123
9040.00000 0.90416
9060.00000 0.90674
9080.00000 0.90894
9100.00000 0.91109
9120.00000 0.91307
9140.00000 0.91422
9160.00000 0.9156
9180.00000 0.91737
9200.00000 0.91891
9220.00000 0.92029
9240.00000 0.92116
9260.00000 0.92204
9280.00000 0.92284
9300.00000 0.92403
9320.00000 0.92496
9340.00000 0.9254
9360.00000 0.92616
9380.00000 0.92682
9400.00000 0.92731
9420.00000 0.92786
9440.00000 0.92854
9460.00000 0.92899
9480.00000 0.92953
9500.00000 0.93018
9520.00000 0.93073
9540.00000 0.93124
9560.00000 0.93173
9580.00000 0.93243
9600.00000 0.93277
9620.00000 0.93295
9640.00000 0.93333
9660.00000 0.93356
9680.00000 0.93372
9700.00000 0.93391
9720.00000 0.93448
9740.00000 0.93475
9760.00000 0.93492
9780.00000 0.93526
9800.00000 0.93568
9820.00000 0.93625
9840.00000 0.93628
9860.00000 0.93663
9880.00000 0.93723
9900.00000 0.93735
9920.00000 0.93755
9940.00000 0.93794
9960.00000 0.9382
9980.00000 0.93843
10000.00000 0.93869
10020.00000 0.93892
10040.00000 0.93929
10060.00000 0.93956
10080.00000 0.93964
10100.00000 0.94
10120.00000 0.94032
10140.00000 0.94055
10160.00000 0.94084
10180.00000 0.94102
10200.00000 0.94125
10220.00000 0.94139
10240.00000 0.9415
10260.00000 0.94177
10280.00000 0.94211
10300.00000 0.94231
10320.00000 0.94257
10340.00000 0.94302
10360.00000 0.94339
10380.00000 0.94357
10400.00000 0.94363
10420.00000 0.94388
10440.00000 0.94424
10460.00000 0.94449
10480.00000 0.94485
10500.00000 0.94502
10520.00000 0.94522
10540.00000 0.94542
10560.00000 0.94542
10580.00000 0.94576
10600.00000 0.94615
10620.00000 0.94649
10640.00000 0.94684
10660.00000 0.94701
10680.00000 0.94722
10700.00000 0.94756
10720.00000 0.94792
10740.00000 0.9482
10760.00000 0.9483
10780.00000 0.94849
10800.00000 0.94872
10820.00000 0.94894
10840.00000 0.94939
10860.00000 0.94968
10880.00000 0.94974
10900.00000 0.94989
10920.00000 0.9503
10940.00000 0.95078
10960.00000 0.95102
10980.00000 0.95131
11000.00000 0.95155
11020.00000 0.95169
11040.00000 0.95206
11060.00000 0.95255
11080.00000 0.95277
11100.00000 0.95296
11120.00000 0.95335
11140.00000 0.95354
11160.00000 0.9536
11180.00000 0.95398
11200.00000 0.95418
11220.00000 0.95442
11240.00000 0.95496
11260.00000 0.95512
11280.00000 0.95546
11300.00000 0.95587
11320.00000 0.95587
11340.00000 0.95575
11360.00000 0.95592
11380.00000 0.95647
11400.00000 0.95668
11420.00000 0.95689
11440.00000 0.95721
11460.00000 0.95755
11480.00000 0.95792
11500.00000 0.95804
11520.00000 0.95831
11540.00000 0.95865
11560.00000 0.95891
11580.00000 0.95908
11600.00000 0.95946
11620.00000 0.95985
11640.00000 0.9599
11660.00000 0.95998
11680.00000 0.96016
11700.00000 0.9604
11720.00000 0.96062
11740.00000 0.96072
11760.00000 0.96089
11780.00000 0.96106
11800.00000 0.96129
11820.00000 0.96143
11840.00000 0.9614
11860.00000 0.9615
11880.00000 0.9617
11900.00000 0.96204
11920.00000 0.96214
11940.00000 0.96205
11960.00000 0.9622
11980.00000 0.9624
12000.00000 0.96243
13200.00000 0.0
