# %ECSV 0.9
# ---
# datatype:
# - {name: wavelength, unit: Angstrom, datatype: float32}
# - {name: response, datatype: float32}
# meta: !!omap
# - {band_name: cfh5131}
# - {group_name: CFHT}
wavelength response
9270.00000 0.0
10300.00000 0.00534
10320.00000 0.01031
10340.00000 0.01872
10360.00000 0.02802
10380.00000 0.03419
10400.00000 0.03732
10420.00000 0.04007
10440.00000 0.04456
10460.00000 0.05328
10480.00000 0.06935
10500.00000 0.09454
10520.00000 0.12656
10540.00000 0.15443
10560.00000 0.16408
10580.00000 0.15387
10600.00000 0.13516
10620.00000 0.11864
10640.00000 0.10855
10660.00000 0.10507
10680.00000 0.1078
10700.00000 0.11702
10720.00000 0.13339
10740.00000 0.15823
10760.00000 0.19228
10780.00000 0.23479
10800.00000 0.28088
10820.00000 0.32144
10840.00000 0.34805
10860.00000 0.35757
10880.00000 0.3537
10900.00000 0.3432
10920.00000 0.33211
10940.00000 0.32478
10960.00000 0.32413
10980.00000 0.33133
11000.00000 0.34698
11020.00000 0.37201
11040.00000 0.40599
11060.00000 0.44882
11080.00000 0.49753
11100.00000 0.54747
11120.00000 0.59431
11140.00000 0.63162
11160.00000 0.65485
11180.00000 0.66277
11200.00000 0.65746
11220.00000 0.64365
11240.00000 0.62549
11260.00000 0.60657
11280.00000 0.58934
11300.00000 0.57523
11320.00000 0.56523
11340.00000 0.55913
11360.00000 0.55637
11380.00000 0.55643
11400.00000 0.55867
11420.00000 0.56229
11440.00000 0.56688
11460.00000 0.5714
11480.00000 0.57529
11500.00000 0.57858
11520.00000 0.58116
11540.00000 0.58319
11560.00000 0.58461
11580.00000 0.58568
11600.00000 0.58694
11620.00000 0.58835
11640.00000 0.59033
11660.00000 0.59328
11680.00000 0.59702
11700.00000 0.6015
11720.00000 0.60709
11740.00000 0.61388
11760.00000 0.62143
11780.00000 0.63005
11800.00000 0.63969
11820.00000 0.65047
11840.00000 0.6622
11860.00000 0.67459
11880.00000 0.68793
11900.00000 0.70178
11920.00000 0.71594
11940.00000 0.72983
11960.00000 0.74275
11980.00000 0.75441
12000.00000 0.76439
12020.00000 0.77162
12040.00000 0.77585
12060.00000 0.77704
12080.00000 0.77478
12100.00000 0.76912
12120.00000 0.75999
12140.00000 0.74843
12160.00000 0.73494
12180.00000 0.72018
12200.00000 0.70541
12220.00000 0.69086
12240.00000 0.67703
12260.00000 0.66493
12280.00000 0.65529
12300.00000 0.64848
12320.00000 0.64421
12340.00000 0.64236
12360.00000 0.64323
12380.00000 0.64693
12400.00000 0.65422
12420.00000 0.66426
12440.00000 0.67587
12460.00000 0.68947
12480.00000 0.70404
12500.00000 0.71887
12520.00000 0.73337
12540.00000 0.74648
12560.00000 0.75732
12580.00000 0.76489
12600.00000 0.76874
12620.00000 0.76857
12640.00000 0.76411
12660.00000 0.75592
12680.00000 0.74467
12700.00000 0.73067
12720.00000 0.71516
12740.00000 0.69917
12760.00000 0.68327
12780.00000 0.66808
12800.00000 0.65402
12820.00000 0.642
12840.00000 0.63188
12860.00000 0.62389
12880.00000 0.61832
12900.00000 0.61494
12920.00000 0.61388
12940.00000 0.61502
12960.00000 0.6183
12980.00000 0.62326
13000.00000 0.63004
13020.00000 0.63873
13040.00000 0.64853
13060.00000 0.65881
13080.00000 0.66928
13100.00000 0.67976
13120.00000 0.68962
13140.00000 0.69832
13160.00000 0.70549
13180.00000 0.71054
13200.00000 0.71339
13220.00000 0.71434
13240.00000 0.71349
13260.00000 0.71078
13280.00000 0.70688
13300.00000 0.70215
13320.00000 0.69704
13340.00000 0.69189
13360.00000 0.68719
13380.00000 0.68343
13400.00000 0.68082
13420.00000 0.67979
13440.00000 0.68016
13460.00000 0.68222
13480.00000 0.68628
13500.00000 0.69212
13520.00000 0.69942
13540.00000 0.70787
13560.00000 0.71758
13580.00000 0.72742
13600.00000 0.73596
13620.00000 0.74475
13640.00000 0.75389
13660.00000 0.76131
13680.00000 0.76521
13700.00000 0.76492
13720.00000 0.76141
13740.00000 0.75507
13760.00000 0.74529
13780.00000 0.73262
13800.00000 0.7175
13820.00000 0.70088
13840.00000 0.68343
13860.00000 0.66667
13880.00000 0.65222
13900.00000 0.63965
13920.00000 0.63033
13940.00000 0.62488
13960.00000 0.62364
13980.00000 0.62735
14000.00000 0.63736
14020.00000 0.65269
14040.00000 0.6711
14060.00000 0.69043
14080.00000 0.70529
14100.00000 0.70721
14120.00000 0.68782
14140.00000 0.64075
14160.00000 0.56966
14180.00000 0.48451
14200.00000 0.39499
14220.00000 0.31261
14240.00000 0.24222
14260.00000 0.18491
14280.00000 0.1407
14300.00000 0.10712
14320.00000 0.08176
14340.00000 0.06256
14360.00000 0.04846
14380.00000 0.03809
14400.00000 0.03012
14420.00000 0.02403
14440.00000 0.01938
14460.00000 0.01578
14480.00000 0.01306
14500.00000 0.01079
14520.00000 0.00888
14540.00000 0.00743
14560.00000 0.00623
14580.00000 0.00519
14600.00000 0.00436
16060.00000 0.0
