# %ECSV 0.9
# ---
# datatype:
# - {name: wavelength, unit: Angstrom, datatype: float32}
# - {name: response, datatype: float32}
# meta: !!omap
# - {band_name: TiO}
# - {group_name: Megaprime}
wavelength response
6854.39990 0.0
7616.00000 0.00465
7617.00000 0.00531
7618.00000 0.00554
7619.00000 0.00586
7620.00000 0.00648
7621.00000 0.00659
7622.00000 0.00638
7623.00000 0.0069
7624.00000 0.00742
7625.00000 0.00789
7626.00000 0.00916
7627.00000 0.00923
7628.00000 0.00864
7629.00000 0.00967
7630.00000 0.01003
7631.00000 0.00986
7632.00000 0.01059
7633.00000 0.01152
7634.00000 0.01263
7635.00000 0.01347
7636.00000 0.0136
7637.00000 0.01375
7638.00000 0.01483
7639.00000 0.01634
7640.00000 0.01746
7641.00000 0.01834
7642.00000 0.01965
7643.00000 0.02063
7644.00000 0.02202
7645.00000 0.02452
7646.00000 0.02634
7647.00000 0.0271
7648.00000 0.02831
7649.00000 0.03087
7650.00000 0.03294
7651.00000 0.03455
7652.00000 0.0368
7653.00000 0.04037
7654.00000 0.04355
7655.00000 0.04594
7656.00000 0.04941
7657.00000 0.05292
7658.00000 0.05696
7659.00000 0.06139
7660.00000 0.06529
7661.00000 0.07022
7662.00000 0.07625
7663.00000 0.08273
7664.00000 0.08955
7665.00000 0.09715
7666.00000 0.10321
7667.00000 0.11226
7668.00000 0.12257
7669.00000 0.13129
7670.00000 0.14154
7671.00000 0.15308
7672.00000 0.16899
7673.00000 0.18336
7674.00000 0.19623
7675.00000 0.21112
7676.00000 0.23015
7677.00000 0.25392
7678.00000 0.27223
7679.00000 0.29199
7680.00000 0.31641
7681.00000 0.34013
7682.00000 0.36859
7683.00000 0.39645
7684.00000 0.42024
7685.00000 0.44992
7686.00000 0.48288
7687.00000 0.51331
7688.00000 0.54555
7689.00000 0.57845
7690.00000 0.61145
7691.00000 0.64008
7692.00000 0.67058
7693.00000 0.70334
7694.00000 0.73187
7695.00000 0.75937
7696.00000 0.78511
7697.00000 0.81096
7698.00000 0.83176
7699.00000 0.85072
7700.00000 0.86536
7701.00000 0.87906
7702.00000 0.89536
7703.00000 0.90446
7704.00000 0.91429
7705.00000 0.91946
7706.00000 0.91811
7707.00000 0.9193
7708.00000 0.91882
7709.00000 0.9205
7710.00000 0.92253
7711.00000 0.91956
7712.00000 0.91637
7713.00000 0.91486
7714.00000 0.91443
7715.00000 0.90926
7716.00000 0.90352
7717.00000 0.90143
7718.00000 0.89365
7719.00000 0.88736
7720.00000 0.88594
7721.00000 0.8839
7722.00000 0.8802
7723.00000 0.87247
7724.00000 0.86342
7725.00000 0.85765
7726.00000 0.85823
7727.00000 0.8569
7728.00000 0.85487
7729.00000 0.8546
7730.00000 0.85143
7731.00000 0.84555
7732.00000 0.84537
7733.00000 0.84946
7734.00000 0.85329
7735.00000 0.85173
7736.00000 0.85023
7737.00000 0.85361
7738.00000 0.85297
7739.00000 0.85397
7740.00000 0.85583
7741.00000 0.85988
7742.00000 0.86255
7743.00000 0.86249
7744.00000 0.86757
7745.00000 0.87256
7746.00000 0.87071
7747.00000 0.8685
7748.00000 0.87206
7749.00000 0.87317
7750.00000 0.87463
7751.00000 0.87784
7752.00000 0.87874
7753.00000 0.88188
7754.00000 0.88077
7755.00000 0.87631
7756.00000 0.87805
7757.00000 0.88361
7758.00000 0.88792
7759.00000 0.89055
7760.00000 0.89102
7761.00000 0.89087
7762.00000 0.89374
7763.00000 0.89308
7764.00000 0.89076
7765.00000 0.89575
7766.00000 0.89706
7767.00000 0.8961
7768.00000 0.90034
7769.00000 0.90056
7770.00000 0.8979
7771.00000 0.89783
7772.00000 0.9077
7773.00000 0.90703
7774.00000 0.90176
7775.00000 0.90605
7776.00000 0.90094
7777.00000 0.90242
7778.00000 0.90694
7779.00000 0.9037
7780.00000 0.9039
7781.00000 0.90845
7782.00000 0.90579
7783.00000 0.89931
7784.00000 0.90567
7785.00000 0.90746
7786.00000 0.90317
7787.00000 0.90462
7788.00000 0.90549
7789.00000 0.90828
7790.00000 0.90187
7791.00000 0.89832
7792.00000 0.90134
7793.00000 0.90009
7794.00000 0.89894
7795.00000 0.89835
7796.00000 0.89986
7797.00000 0.89766
7798.00000 0.89366
7799.00000 0.89462
7800.00000 0.90157
7801.00000 0.89944
7802.00000 0.89766
7803.00000 0.89511
7804.00000 0.89432
7805.00000 0.89676
7806.00000 0.89215
7807.00000 0.8933
7808.00000 0.89374
7809.00000 0.89229
7810.00000 0.88947
7811.00000 0.88905
7812.00000 0.89024
7813.00000 0.89175
7814.00000 0.8893
7815.00000 0.88773
7816.00000 0.89166
7817.00000 0.8903
7818.00000 0.8911
7819.00000 0.89447
7820.00000 0.89671
7821.00000 0.89384
7822.00000 0.89426
7823.00000 0.9034
7824.00000 0.90271
7825.00000 0.8945
7826.00000 0.89824
7827.00000 0.90509
7828.00000 0.9081
7829.00000 0.91171
7830.00000 0.9113
7831.00000 0.90932
7832.00000 0.91281
7833.00000 0.91599
7834.00000 0.91768
7835.00000 0.91914
7836.00000 0.92099
7837.00000 0.91994
7838.00000 0.91829
7839.00000 0.91982
7840.00000 0.91933
7841.00000 0.91743
7842.00000 0.9158
7843.00000 0.91707
7844.00000 0.91216
7845.00000 0.90173
7846.00000 0.88934
7847.00000 0.8846
7848.00000 0.87872
7849.00000 0.86874
7850.00000 0.86163
7851.00000 0.8457
7852.00000 0.83327
7853.00000 0.82036
7854.00000 0.79562
7855.00000 0.77373
7856.00000 0.75833
7857.00000 0.7438
7858.00000 0.72163
7859.00000 0.69739
7860.00000 0.67764
7861.00000 0.65363
7862.00000 0.62613
7863.00000 0.60396
7864.00000 0.58047
7865.00000 0.5535
7866.00000 0.53116
7867.00000 0.50493
7868.00000 0.4798
7869.00000 0.45953
7870.00000 0.4359
7871.00000 0.40952
7872.00000 0.38454
7873.00000 0.36136
7874.00000 0.33983
7875.00000 0.32153
7876.00000 0.30119
7877.00000 0.28198
7878.00000 0.26537
7879.00000 0.24939
7880.00000 0.23433
7881.00000 0.2189
7882.00000 0.20515
7883.00000 0.19273
7884.00000 0.18159
7885.00000 0.16954
7886.00000 0.1577
7887.00000 0.14772
7888.00000 0.13776
7889.00000 0.12906
7890.00000 0.12035
7891.00000 0.11235
7892.00000 0.10448
7893.00000 0.09785
7894.00000 0.09254
7895.00000 0.08728
7896.00000 0.08226
7897.00000 0.07684
7898.00000 0.0719
7899.00000 0.06697
7900.00000 0.06299
7901.00000 0.05997
7902.00000 0.05582
7903.00000 0.05141
7904.00000 0.04964
7905.00000 0.04729
7906.00000 0.04289
7907.00000 0.04117
7908.00000 0.03998
7909.00000 0.03836
7910.00000 0.03571
7911.00000 0.03239
7912.00000 0.03087
7913.00000 0.02873
7914.00000 0.0275
7915.00000 0.02698
7916.00000 0.02567
7917.00000 0.0238
7918.00000 0.02153
7919.00000 0.02065
7920.00000 0.02087
7921.00000 0.02042
7922.00000 0.01927
7923.00000 0.017
7924.00000 0.01566
7925.00000 0.01656
7926.00000 0.01579
7927.00000 0.01352
7928.00000 0.01338
7929.00000 0.01277
7930.00000 0.01143
7931.00000 0.01131
7932.00000 0.0106
7933.00000 0.00996
7934.00000 0.0096
7935.00000 0.0096
7936.00000 0.00914
7937.00000 0.00822
7938.00000 0.00856
7939.00000 0.00818
7940.00000 0.00746
7941.00000 0.00749
7942.00000 0.00671
7943.00000 0.0067
7944.00000 0.00655
7945.00000 0.00595
7946.00000 0.00587
7947.00000 0.0051
7948.00000 0.00536
7949.00000 0.00552
7950.00000 0.00485
7951.00000 0.0051
7952.00000 0.00478
7953.00000 0.00502
7954.00000 0.00476
8749.40039 0.0
