# %ECSV 0.9
# ---
# datatype:
# - {name: wavelength, unit: Angstrom, datatype: float32}
# - {name: response, datatype: float32}
# meta: !!omap
# - {band_name: J}
# - {group_name: Wircam}
wavelength response
10323.00000 0.0
11470.00000 0.00288
11472.00000 0.0031
11474.00000 0.0031
11476.00000 0.0032
11478.00000 0.00328
11480.00000 0.00331
11482.00000 0.00342
11484.00000 0.00356
11486.00000 0.00362
11488.00000 0.00378
11490.00000 0.00392
11492.00000 0.00398
11494.00000 0.00409
11496.00000 0.0042
11498.00000 0.00438
11500.00000 0.00458
11502.00000 0.00478
11504.00000 0.00485
11506.00000 0.00505
11508.00000 0.00531
11510.00000 0.00546
11512.00000 0.00562
11514.00000 0.00586
11516.00000 0.00609
11518.00000 0.00627
11520.00000 0.0065
11522.00000 0.00676
11524.00000 0.0071
11526.00000 0.00734
11528.00000 0.00757
11530.00000 0.00775
11532.00000 0.00801
11534.00000 0.0083
11536.00000 0.00865
11538.00000 0.00905
11540.00000 0.00937
11542.00000 0.00986
11544.00000 0.01028
11546.00000 0.01065
11548.00000 0.01099
11550.00000 0.01152
11552.00000 0.01196
11554.00000 0.01244
11556.00000 0.01288
11558.00000 0.01331
11560.00000 0.01395
11562.00000 0.01457
11564.00000 0.0152
11566.00000 0.01587
11568.00000 0.01646
11570.00000 0.01704
11572.00000 0.01767
11574.00000 0.01834
11576.00000 0.01895
11578.00000 0.01971
11580.00000 0.02051
11582.00000 0.02121
11584.00000 0.02196
11586.00000 0.02274
11588.00000 0.0235
11590.00000 0.02441
11592.00000 0.02527
11594.00000 0.02608
11596.00000 0.02696
11598.00000 0.02792
11600.00000 0.02879
11602.00000 0.0298
11604.00000 0.03076
11606.00000 0.03172
11608.00000 0.03284
11610.00000 0.03392
11612.00000 0.03503
11614.00000 0.03616
11616.00000 0.03749
11618.00000 0.0387
11620.00000 0.04005
11622.00000 0.04137
11624.00000 0.04279
11626.00000 0.04424
11628.00000 0.04565
11630.00000 0.04706
11632.00000 0.04881
11634.00000 0.05051
11636.00000 0.05232
11638.00000 0.05423
11640.00000 0.05609
11642.00000 0.05801
11644.00000 0.06001
11646.00000 0.06219
11648.00000 0.06433
11650.00000 0.06674
11652.00000 0.06926
11654.00000 0.0719
11656.00000 0.07466
11658.00000 0.07751
11660.00000 0.08058
11662.00000 0.08372
11664.00000 0.08707
11666.00000 0.09062
11668.00000 0.09425
11670.00000 0.09811
11672.00000 0.10231
11674.00000 0.10674
11676.00000 0.11143
11678.00000 0.1163
11680.00000 0.12141
11682.00000 0.12679
11684.00000 0.13237
11686.00000 0.13828
11688.00000 0.14438
11690.00000 0.15079
11692.00000 0.15749
11694.00000 0.16461
11696.00000 0.17181
11698.00000 0.17929
11700.00000 0.18723
11702.00000 0.19537
11704.00000 0.20367
11706.00000 0.21233
11708.00000 0.22115
11710.00000 0.23035
11712.00000 0.23972
11714.00000 0.24933
11716.00000 0.25923
11718.00000 0.2693
11720.00000 0.27963
11722.00000 0.29022
11724.00000 0.30092
11726.00000 0.3118
11728.00000 0.32285
11730.00000 0.33412
11732.00000 0.34541
11734.00000 0.35681
11736.00000 0.3683
11738.00000 0.37988
11740.00000 0.39159
11742.00000 0.40326
11744.00000 0.41502
11746.00000 0.42676
11748.00000 0.43845
11750.00000 0.45006
11752.00000 0.46165
11754.00000 0.47321
11756.00000 0.48459
11758.00000 0.49586
11760.00000 0.50706
11762.00000 0.51801
11764.00000 0.52879
11766.00000 0.53943
11768.00000 0.54987
11770.00000 0.56003
11772.00000 0.57011
11774.00000 0.57985
11776.00000 0.58943
11778.00000 0.59883
11780.00000 0.60796
11782.00000 0.61685
11784.00000 0.62541
11786.00000 0.63361
11788.00000 0.64177
11790.00000 0.64958
11792.00000 0.65709
11794.00000 0.66431
11796.00000 0.67131
11798.00000 0.67818
11800.00000 0.68481
11802.00000 0.69125
11804.00000 0.69734
11806.00000 0.70319
11808.00000 0.70877
11810.00000 0.71405
11812.00000 0.71919
11814.00000 0.72408
11816.00000 0.72885
11818.00000 0.73351
11820.00000 0.73778
11822.00000 0.74187
11824.00000 0.74582
11826.00000 0.74969
11828.00000 0.75331
11830.00000 0.75668
11832.00000 0.75993
11834.00000 0.76295
11836.00000 0.76576
11838.00000 0.76862
11840.00000 0.77126
11842.00000 0.7738
11844.00000 0.77615
11846.00000 0.77838
11848.00000 0.78043
11850.00000 0.78241
11852.00000 0.78435
11854.00000 0.78622
11856.00000 0.78784
11858.00000 0.78938
11860.00000 0.79082
11862.00000 0.79218
11864.00000 0.7935
11866.00000 0.79472
11868.00000 0.79585
11870.00000 0.79683
11872.00000 0.7977
11874.00000 0.79839
11876.00000 0.79906
11878.00000 0.79967
11880.00000 0.8002
11882.00000 0.80054
11884.00000 0.80087
11886.00000 0.80096
11888.00000 0.80106
11890.00000 0.80107
11892.00000 0.80109
11894.00000 0.80092
11896.00000 0.80074
11898.00000 0.80046
11900.00000 0.80011
11902.00000 0.79987
11904.00000 0.79951
11906.00000 0.79913
11908.00000 0.7988
11910.00000 0.79836
11912.00000 0.79784
11914.00000 0.79738
11916.00000 0.79689
11918.00000 0.79648
11920.00000 0.79614
11922.00000 0.79572
11924.00000 0.79541
11926.00000 0.79524
11928.00000 0.79483
11930.00000 0.79459
11932.00000 0.79451
11934.00000 0.79434
11936.00000 0.79427
11938.00000 0.79428
11940.00000 0.7942
11942.00000 0.79431
11944.00000 0.79456
11946.00000 0.7948
11948.00000 0.79514
11950.00000 0.79539
11952.00000 0.79578
11954.00000 0.79626
11956.00000 0.79674
11958.00000 0.79723
11960.00000 0.7979
11962.00000 0.79861
11964.00000 0.79935
11966.00000 0.8
11968.00000 0.80064
11970.00000 0.80151
11972.00000 0.80235
11974.00000 0.80325
11976.00000 0.80418
11978.00000 0.80513
11980.00000 0.80605
11982.00000 0.80721
11984.00000 0.8082
11986.00000 0.80917
11988.00000 0.8102
11990.00000 0.81117
11992.00000 0.81212
11994.00000 0.81311
11996.00000 0.81392
11998.00000 0.8148
12000.00000 0.81578
12002.00000 0.81654
12004.00000 0.81744
12006.00000 0.81816
12008.00000 0.8188
12010.00000 0.81943
12012.00000 0.81998
12014.00000 0.82048
12016.00000 0.82095
12018.00000 0.82137
12020.00000 0.82156
12022.00000 0.82179
12024.00000 0.82205
12026.00000 0.8221
12028.00000 0.82224
12030.00000 0.82236
12032.00000 0.82243
12034.00000 0.82231
12036.00000 0.82225
12038.00000 0.82204
12040.00000 0.82181
12042.00000 0.82152
12044.00000 0.82126
12046.00000 0.82085
12048.00000 0.82048
12050.00000 0.82005
12052.00000 0.81975
12054.00000 0.81927
12056.00000 0.81891
12058.00000 0.81845
12060.00000 0.81798
12062.00000 0.81747
12064.00000 0.81693
12066.00000 0.81654
12068.00000 0.81598
12070.00000 0.81544
12072.00000 0.81493
12074.00000 0.81445
12076.00000 0.81395
12078.00000 0.81346
12080.00000 0.81299
12082.00000 0.81256
12084.00000 0.81213
12086.00000 0.81169
12088.00000 0.81117
12090.00000 0.81076
12092.00000 0.81041
12094.00000 0.80998
12096.00000 0.80963
12098.00000 0.80917
12100.00000 0.80882
12102.00000 0.80853
12104.00000 0.80836
12106.00000 0.80811
12108.00000 0.80789
12110.00000 0.80775
12112.00000 0.80765
12114.00000 0.80756
12116.00000 0.80743
12118.00000 0.8075
12120.00000 0.80751
12122.00000 0.8075
12124.00000 0.8075
12126.00000 0.80763
12128.00000 0.80774
12130.00000 0.80789
12132.00000 0.80807
12134.00000 0.8083
12136.00000 0.80855
12138.00000 0.80882
12140.00000 0.8091
12142.00000 0.80939
12144.00000 0.80966
12146.00000 0.81001
12148.00000 0.81038
12150.00000 0.81076
12152.00000 0.81113
12154.00000 0.81165
12156.00000 0.81213
12158.00000 0.81256
12160.00000 0.81306
12162.00000 0.8136
12164.00000 0.81412
12166.00000 0.81471
12168.00000 0.81519
12170.00000 0.81564
12172.00000 0.81613
12174.00000 0.81667
12176.00000 0.81726
12178.00000 0.81778
12180.00000 0.8183
12182.00000 0.81883
12184.00000 0.81938
12186.00000 0.81992
12188.00000 0.82037
12190.00000 0.82097
12192.00000 0.82156
12194.00000 0.82204
12196.00000 0.8226
12198.00000 0.82304
12200.00000 0.82353
12202.00000 0.82407
12204.00000 0.82471
12206.00000 0.82527
12208.00000 0.82573
12210.00000 0.82629
12212.00000 0.82675
12214.00000 0.82715
12216.00000 0.82764
12218.00000 0.82802
12220.00000 0.82852
12222.00000 0.82893
12224.00000 0.8293
12226.00000 0.82977
12228.00000 0.83012
12230.00000 0.83067
12232.00000 0.83116
12234.00000 0.83167
12236.00000 0.83205
12238.00000 0.83237
12240.00000 0.83284
12242.00000 0.83318
12244.00000 0.83368
12246.00000 0.83414
12248.00000 0.83458
12250.00000 0.83498
12252.00000 0.8354
12254.00000 0.83582
12256.00000 0.83623
12258.00000 0.83675
12260.00000 0.83717
12262.00000 0.83754
12264.00000 0.83794
12266.00000 0.83824
12268.00000 0.83861
12270.00000 0.839
12272.00000 0.83929
12274.00000 0.83965
12276.00000 0.83997
12278.00000 0.84033
12280.00000 0.84067
12282.00000 0.84103
12284.00000 0.8414
12286.00000 0.84174
12288.00000 0.84203
12290.00000 0.84225
12292.00000 0.84261
12294.00000 0.84283
12296.00000 0.84308
12298.00000 0.84346
12300.00000 0.84373
12302.00000 0.84404
12304.00000 0.84438
12306.00000 0.84473
12308.00000 0.84502
12310.00000 0.84531
12312.00000 0.8456
12314.00000 0.84589
12316.00000 0.84618
12318.00000 0.84641
12320.00000 0.84669
12322.00000 0.84697
12324.00000 0.84724
12326.00000 0.84758
12328.00000 0.84795
12330.00000 0.84814
12332.00000 0.84848
12334.00000 0.84882
12336.00000 0.8492
12338.00000 0.84952
12340.00000 0.84982
12342.00000 0.8501
12344.00000 0.85043
12346.00000 0.85071
12348.00000 0.851
12350.00000 0.85138
12352.00000 0.85167
12354.00000 0.8519
12356.00000 0.85208
12358.00000 0.85237
12360.00000 0.85266
12362.00000 0.85292
12364.00000 0.8531
12366.00000 0.8533
12368.00000 0.85342
12370.00000 0.85356
12372.00000 0.85376
12374.00000 0.85397
12376.00000 0.85403
12378.00000 0.85422
12380.00000 0.85431
12382.00000 0.85434
12384.00000 0.85446
12386.00000 0.85449
12388.00000 0.85457
12390.00000 0.85464
12392.00000 0.8546
12394.00000 0.85458
12396.00000 0.85458
12398.00000 0.85455
12400.00000 0.85449
12402.00000 0.85443
12404.00000 0.8544
12406.00000 0.85431
12408.00000 0.85437
12410.00000 0.85432
12412.00000 0.85426
12414.00000 0.85426
12416.00000 0.85425
12418.00000 0.85432
12420.00000 0.85434
12422.00000 0.85428
12424.00000 0.85425
12426.00000 0.85432
12428.00000 0.85429
12430.00000 0.85425
12432.00000 0.85426
12434.00000 0.85423
12436.00000 0.85413
12438.00000 0.85408
12440.00000 0.85397
12442.00000 0.85388
12444.00000 0.85382
12446.00000 0.85367
12448.00000 0.8535
12450.00000 0.85336
12452.00000 0.85318
12454.00000 0.85294
12456.00000 0.85281
12458.00000 0.85255
12460.00000 0.85231
12462.00000 0.85213
12464.00000 0.85193
12466.00000 0.85176
12468.00000 0.85159
12470.00000 0.85135
12472.00000 0.8512
12474.00000 0.85109
12476.00000 0.85089
12478.00000 0.85077
12480.00000 0.85059
12482.00000 0.85031
12484.00000 0.85016
12486.00000 0.84999
12488.00000 0.84975
12490.00000 0.84964
12492.00000 0.84959
12494.00000 0.84933
12496.00000 0.84918
12498.00000 0.84908
12500.00000 0.84888
12502.00000 0.8488
12504.00000 0.84869
12506.00000 0.84863
12508.00000 0.84862
12510.00000 0.84857
12512.00000 0.84865
12514.00000 0.84871
12516.00000 0.84871
12518.00000 0.84871
12520.00000 0.84875
12522.00000 0.84874
12524.00000 0.84875
12526.00000 0.84872
12528.00000 0.84877
12530.00000 0.84872
12532.00000 0.84883
12534.00000 0.84885
12536.00000 0.84877
12538.00000 0.84863
12540.00000 0.84862
12542.00000 0.84865
12544.00000 0.84853
12546.00000 0.8485
12548.00000 0.84853
12550.00000 0.84862
12552.00000 0.84865
12554.00000 0.84877
12556.00000 0.84898
12558.00000 0.84917
12560.00000 0.84932
12562.00000 0.84949
12564.00000 0.8497
12566.00000 0.8499
12568.00000 0.85001
12570.00000 0.85031
12572.00000 0.85052
12574.00000 0.85072
12576.00000 0.851
12578.00000 0.85115
12580.00000 0.85136
12582.00000 0.85161
12584.00000 0.85185
12586.00000 0.85213
12588.00000 0.8522
12590.00000 0.85251
12592.00000 0.85274
12594.00000 0.85306
12596.00000 0.85323
12598.00000 0.85358
12600.00000 0.85405
12602.00000 0.85431
12604.00000 0.8546
12606.00000 0.85474
12608.00000 0.85501
12610.00000 0.85547
12612.00000 0.85588
12614.00000 0.85635
12616.00000 0.85675
12618.00000 0.8571
12620.00000 0.85747
12622.00000 0.85782
12624.00000 0.85817
12626.00000 0.85846
12628.00000 0.85875
12630.00000 0.85904
12632.00000 0.85933
12634.00000 0.8596
12636.00000 0.85997
12638.00000 0.86035
12640.00000 0.86067
12642.00000 0.8609
12644.00000 0.86115
12646.00000 0.86131
12648.00000 0.86148
12650.00000 0.8615
12652.00000 0.86176
12654.00000 0.86186
12656.00000 0.86206
12658.00000 0.8622
12660.00000 0.86244
12662.00000 0.86253
12664.00000 0.86253
12666.00000 0.86255
12668.00000 0.86256
12670.00000 0.86259
12672.00000 0.86258
12674.00000 0.86258
12676.00000 0.86246
12678.00000 0.86235
12680.00000 0.86232
12682.00000 0.86232
12684.00000 0.8622
12686.00000 0.86214
12688.00000 0.862
12690.00000 0.86182
12692.00000 0.86162
12694.00000 0.86143
12696.00000 0.86142
12698.00000 0.86134
12700.00000 0.86119
12702.00000 0.86096
12704.00000 0.86076
12706.00000 0.86055
12708.00000 0.86028
12710.00000 0.86003
12712.00000 0.85977
12714.00000 0.85944
12716.00000 0.8591
12718.00000 0.85878
12720.00000 0.85846
12722.00000 0.8582
12724.00000 0.85776
12726.00000 0.85741
12728.00000 0.85699
12730.00000 0.85672
12732.00000 0.85638
12734.00000 0.85606
12736.00000 0.85573
12738.00000 0.85542
12740.00000 0.85516
12742.00000 0.8549
12744.00000 0.85454
12746.00000 0.85439
12748.00000 0.85413
12750.00000 0.85388
12752.00000 0.85355
12754.00000 0.8532
12756.00000 0.85307
12758.00000 0.8528
12760.00000 0.85248
12762.00000 0.85211
12764.00000 0.85172
12766.00000 0.85138
12768.00000 0.85106
12770.00000 0.85068
12772.00000 0.85031
12774.00000 0.85008
12776.00000 0.84987
12778.00000 0.84949
12780.00000 0.84921
12782.00000 0.84898
12784.00000 0.84888
12786.00000 0.84877
12788.00000 0.84865
12790.00000 0.84854
12792.00000 0.84845
12794.00000 0.84842
12796.00000 0.84845
12798.00000 0.84843
12800.00000 0.84846
12802.00000 0.8485
12804.00000 0.84856
12806.00000 0.84846
12808.00000 0.84851
12810.00000 0.84859
12812.00000 0.84866
12814.00000 0.84866
12816.00000 0.84874
12818.00000 0.8488
12820.00000 0.84885
12822.00000 0.84891
12824.00000 0.84894
12826.00000 0.84885
12828.00000 0.84883
12830.00000 0.84885
12832.00000 0.8488
12834.00000 0.8488
12836.00000 0.8488
12838.00000 0.84883
12840.00000 0.84877
12842.00000 0.84879
12844.00000 0.84875
12846.00000 0.84872
12848.00000 0.84863
12850.00000 0.84859
12852.00000 0.84854
12854.00000 0.84853
12856.00000 0.84854
12858.00000 0.8486
12860.00000 0.84856
12862.00000 0.84856
12864.00000 0.84856
12866.00000 0.84851
12868.00000 0.84851
12870.00000 0.84854
12872.00000 0.84846
12874.00000 0.84845
12876.00000 0.84842
12878.00000 0.84851
12880.00000 0.8483
12882.00000 0.84821
12884.00000 0.84802
12886.00000 0.84784
12888.00000 0.84763
12890.00000 0.8475
12892.00000 0.84731
12894.00000 0.84709
12896.00000 0.84695
12898.00000 0.84676
12900.00000 0.8465
12902.00000 0.84627
12904.00000 0.84604
12906.00000 0.84578
12908.00000 0.84546
12910.00000 0.84512
12912.00000 0.84499
12914.00000 0.84477
12916.00000 0.8445
12918.00000 0.84428
12920.00000 0.8441
12922.00000 0.84384
12924.00000 0.84364
12926.00000 0.84349
12928.00000 0.84314
12930.00000 0.84293
12932.00000 0.84274
12934.00000 0.84236
12936.00000 0.84206
12938.00000 0.84169
12940.00000 0.84148
12942.00000 0.84123
12944.00000 0.84093
12946.00000 0.84047
12948.00000 0.84012
12950.00000 0.83978
12952.00000 0.83937
12954.00000 0.83897
12956.00000 0.83861
12958.00000 0.83813
12960.00000 0.83786
12962.00000 0.83745
12964.00000 0.83713
12966.00000 0.83685
12968.00000 0.83659
12970.00000 0.83633
12972.00000 0.83607
12974.00000 0.83577
12976.00000 0.83548
12978.00000 0.8353
12980.00000 0.8351
12982.00000 0.83482
12984.00000 0.8347
12986.00000 0.83441
12988.00000 0.83423
12990.00000 0.83403
12992.00000 0.83377
12994.00000 0.83353
12996.00000 0.83328
12998.00000 0.83307
13000.00000 0.83279
13002.00000 0.83258
13004.00000 0.83228
13006.00000 0.83194
13008.00000 0.83163
13010.00000 0.83141
13012.00000 0.83115
13014.00000 0.83093
13016.00000 0.83057
13018.00000 0.83035
13020.00000 0.83006
13022.00000 0.82971
13024.00000 0.82944
13026.00000 0.82921
13028.00000 0.82887
13030.00000 0.82848
13032.00000 0.82819
13034.00000 0.8278
13036.00000 0.82755
13038.00000 0.82722
13040.00000 0.82698
13042.00000 0.82658
13044.00000 0.82631
13046.00000 0.82591
13048.00000 0.82565
13050.00000 0.82544
13052.00000 0.8252
13054.00000 0.8251
13056.00000 0.82494
13058.00000 0.82468
13060.00000 0.82445
13062.00000 0.82434
13064.00000 0.82411
13066.00000 0.82397
13068.00000 0.82384
13070.00000 0.82359
13072.00000 0.82346
13074.00000 0.82333
13076.00000 0.82309
13078.00000 0.82294
13080.00000 0.82274
13082.00000 0.82249
13084.00000 0.82228
13086.00000 0.8221
13088.00000 0.82182
13090.00000 0.82169
13092.00000 0.82152
13094.00000 0.82126
13096.00000 0.82106
13098.00000 0.82092
13100.00000 0.82071
13102.00000 0.82069
13104.00000 0.82057
13106.00000 0.82047
13108.00000 0.82053
13110.00000 0.82059
13112.00000 0.82059
13114.00000 0.8206
13116.00000 0.82057
13118.00000 0.82057
13120.00000 0.82062
13122.00000 0.82062
13124.00000 0.82069
13126.00000 0.82077
13128.00000 0.82092
13130.00000 0.82106
13132.00000 0.8212
13134.00000 0.82127
13136.00000 0.8214
13138.00000 0.82144
13140.00000 0.82146
13142.00000 0.82146
13144.00000 0.82149
13146.00000 0.82155
13148.00000 0.82158
13150.00000 0.82159
13152.00000 0.82172
13154.00000 0.82176
13156.00000 0.82179
13158.00000 0.82182
13160.00000 0.8219
13162.00000 0.82179
13164.00000 0.82184
13166.00000 0.82191
13168.00000 0.82187
13170.00000 0.82207
13172.00000 0.82202
13174.00000 0.82196
13176.00000 0.82188
13178.00000 0.82179
13180.00000 0.8217
13182.00000 0.82149
13184.00000 0.82118
13186.00000 0.82088
13188.00000 0.82059
13190.00000 0.82024
13192.00000 0.81969
13194.00000 0.81924
13196.00000 0.81856
13198.00000 0.8179
13200.00000 0.81718
13202.00000 0.81622
13204.00000 0.81523
13206.00000 0.81406
13208.00000 0.81288
13210.00000 0.81148
13212.00000 0.81004
13214.00000 0.80855
13216.00000 0.80688
13218.00000 0.80518
13220.00000 0.80318
13222.00000 0.8011
13224.00000 0.79883
13226.00000 0.79643
13228.00000 0.79393
13230.00000 0.79126
13232.00000 0.78848
13234.00000 0.78545
13236.00000 0.78232
13238.00000 0.77916
13240.00000 0.77571
13242.00000 0.77228
13244.00000 0.76857
13246.00000 0.76468
13248.00000 0.76059
13250.00000 0.75638
13252.00000 0.752
13254.00000 0.74751
13256.00000 0.74277
13258.00000 0.73779
13260.00000 0.73259
13262.00000 0.72733
13264.00000 0.72182
13266.00000 0.71609
13268.00000 0.71034
13270.00000 0.70432
13272.00000 0.69807
13274.00000 0.69156
13276.00000 0.68498
13278.00000 0.67821
13280.00000 0.67125
13282.00000 0.66415
13284.00000 0.6568
13286.00000 0.64934
13288.00000 0.64182
13290.00000 0.63405
13292.00000 0.62616
13294.00000 0.61797
13296.00000 0.60968
13298.00000 0.60138
13300.00000 0.59273
13302.00000 0.58398
13304.00000 0.57527
13306.00000 0.56628
13308.00000 0.55727
13310.00000 0.54817
13312.00000 0.539
13314.00000 0.52956
13316.00000 0.52019
13318.00000 0.51059
13320.00000 0.5009
13322.00000 0.49129
13324.00000 0.48161
13326.00000 0.47189
13328.00000 0.46216
13330.00000 0.45224
13332.00000 0.44255
13334.00000 0.4328
13336.00000 0.42288
13338.00000 0.41315
13340.00000 0.40331
13342.00000 0.39362
13344.00000 0.38387
13346.00000 0.37433
13348.00000 0.36467
13350.00000 0.35519
13352.00000 0.34584
13354.00000 0.33646
13356.00000 0.32713
13358.00000 0.31784
13360.00000 0.30861
13362.00000 0.29967
13364.00000 0.29057
13366.00000 0.28165
13368.00000 0.27301
13370.00000 0.26445
13372.00000 0.25612
13374.00000 0.24753
13376.00000 0.23926
13378.00000 0.23117
13380.00000 0.22343
13382.00000 0.21567
13384.00000 0.20818
13386.00000 0.20078
13388.00000 0.1936
13390.00000 0.18671
13392.00000 0.17989
13394.00000 0.17332
13396.00000 0.16698
13398.00000 0.16084
13400.00000 0.15472
13402.00000 0.14885
13404.00000 0.14317
13406.00000 0.13766
13408.00000 0.13245
13410.00000 0.12721
13412.00000 0.12207
13414.00000 0.11725
13416.00000 0.11247
13418.00000 0.10802
13420.00000 0.10358
13422.00000 0.09935
13424.00000 0.09535
13426.00000 0.0914
13428.00000 0.0876
13430.00000 0.08397
13432.00000 0.08054
13434.00000 0.07715
13436.00000 0.07385
13438.00000 0.07092
13440.00000 0.06793
13442.00000 0.06516
13444.00000 0.06255
13446.00000 0.05992
13448.00000 0.0575
13450.00000 0.05505
13452.00000 0.05289
13454.00000 0.05063
13456.00000 0.04849
13458.00000 0.04649
13460.00000 0.0446
13462.00000 0.04276
13464.00000 0.04097
13466.00000 0.03941
13468.00000 0.03777
13470.00000 0.03616
13472.00000 0.0347
13474.00000 0.03328
13476.00000 0.03197
13478.00000 0.03073
13480.00000 0.0295
13482.00000 0.02837
13484.00000 0.02721
13486.00000 0.02618
13488.00000 0.02521
13490.00000 0.02429
13492.00000 0.02335
13494.00000 0.02245
13496.00000 0.02155
13498.00000 0.02071
13500.00000 0.01996
13502.00000 0.01926
13504.00000 0.01862
13506.00000 0.01791
13508.00000 0.01718
13510.00000 0.01648
13512.00000 0.01579
13514.00000 0.01523
13516.00000 0.01471
13518.00000 0.01422
13520.00000 0.01358
13522.00000 0.01297
13524.00000 0.01256
13526.00000 0.01208
13528.00000 0.01167
13530.00000 0.01122
13532.00000 0.01074
13534.00000 0.01031
13536.00000 0.00989
13538.00000 0.00955
13540.00000 0.00917
13542.00000 0.00896
13544.00000 0.00867
13546.00000 0.00827
13548.00000 0.00797
13550.00000 0.00769
13552.00000 0.00754
13554.00000 0.00737
13556.00000 0.00711
13558.00000 0.007
13560.00000 0.00685
13562.00000 0.00662
13564.00000 0.00653
13566.00000 0.00626
13568.00000 0.00601
13570.00000 0.0058
13572.00000 0.00566
13574.00000 0.00546
13576.00000 0.00539
13578.00000 0.00525
13580.00000 0.00511
13582.00000 0.00479
13584.00000 0.0045
13586.00000 0.00432
13588.00000 0.00412
13590.00000 0.00385
13592.00000 0.00365
13594.00000 0.00351
13596.00000 0.0034
13598.00000 0.00333
13600.00000 0.00325
13602.00000 0.0032
13604.00000 0.00313
13606.00000 0.00291
13608.00000 0.00288
13610.00000 0.00278
13612.00000 0.00258
13614.00000 0.00252
13616.00000 0.00258
13618.00000 0.00238
13620.00000 0.0023
13622.00000 0.00223
14984.20020 0.0
