# %ECSV 0.9
# ---
# datatype:
# - {name: wavelength, unit: Angstrom, datatype: float32}
# - {name: response, datatype: float32}
# meta: !!omap
# - {band_name: F555W}
# - {group_name: ACS_HRC}
wavelength response
4105.69189 0.0
4561.87988 0.00335196
4562.37988 0.00348242
4562.87988 0.00361308
4563.39014 0.0037437
4563.89014 0.00387502
4564.39990 0.00400589
4564.89990 0.00413672
4565.39990 0.00426775
4565.91016 0.00439885
4566.41016 0.0045299
4566.91992 0.00466191
4567.41992 0.00479323
4567.91992 0.00492398
4568.43018 0.00505607
4568.93994 0.00518837
4569.43994 0.00531997
4569.93994 0.00545113
4570.45020 0.00558364
4570.95020 0.00571558
4571.45996 0.0058476
4571.95996 0.00598032
4572.47021 0.00611248
4572.97021 0.00624483
4573.47998 0.00637714
4573.97998 0.00651028
4574.49023 0.00664286
4574.99023 0.00677474
4575.50000 0.00690822
4576.00977 0.007041
4576.50977 0.00717386
4577.02002 0.0073068
4577.52002 0.00743982
4578.02979 0.00757368
4578.52979 0.00770695
4579.04004 0.00784094
4579.54004 0.00797359
4580.04980 0.00810809
4580.56006 0.00825292
4581.06006 0.0083963
4581.56982 0.00854113
4582.06982 0.00868536
4582.58008 0.0088305
4583.08984 0.00897503
4583.58984 0.00911879
4584.10010 0.00926417
4584.60010 0.00940892
4585.10986 0.00955388
4585.62012 0.00969948
4586.12012 0.00984377
4586.62988 0.00998897
4587.12988 0.0101341
4587.64014 0.0102802
4588.14990 0.0104263
4588.66016 0.0105711
4589.16016 0.0107174
4589.66992 0.0108631
4590.18018 0.011022
4590.68994 0.0112067
4591.18994 0.0113904
4591.70020 0.0115743
4592.20996 0.0117583
4592.70996 0.0119425
4593.22021 0.0121276
4593.72998 0.0123111
4594.24023 0.0124964
4594.74023 0.01268
4595.25000 0.0128657
4595.75977 0.0130495
4596.27002 0.0132354
4596.77002 0.0134203
4597.27979 0.0136054
4597.79004 0.0137916
4598.29980 0.0139772
4598.79980 0.0141626
4599.31006 0.014349
4599.81982 0.0145358
4600.33008 0.0147655
4600.83984 0.0150209
4601.35010 0.0152776
4601.85010 0.0155333
4602.35986 0.0157878
4602.87012 0.016045
4603.37988 0.016301
4603.89014 0.0165574
4604.39014 0.0168125
4604.89990 0.0170705
4605.41016 0.017327
4605.91992 0.0175839
4606.43018 0.0178422
4606.93994 0.0181007
4607.45020 0.0183568
4607.95020 0.0186144
4608.47021 0.0188746
4608.97021 0.0191313
4609.47998 0.0193892
4609.99023 0.0196486
4610.50000 0.0199717
4611.00977 0.0202942
4611.52002 0.0206199
4612.02979 0.0209443
4612.54004 0.0212692
4613.04004 0.0215924
4613.56006 0.0219192
4614.06006 0.0222442
4614.56982 0.0225697
4615.08984 0.022897
4615.60010 0.0232244
4616.10010 0.0235489
4616.60986 0.0238754
4617.12988 0.0242033
4617.64014 0.0245301
4618.14990 0.0248584
4618.66016 0.0251856
4619.16992 0.0255129
4619.68018 0.0258404
4620.18994 0.026205
4620.70020 0.0266338
4621.20996 0.0270628
4621.72021 0.0274924
4622.22998 0.0279218
4622.74023 0.0283539
4623.25000 0.0287817
4623.75977 0.0292147
4624.27002 0.029645
4624.77979 0.0300762
4625.29004 0.0305073
4625.79980 0.0309407
4626.31006 0.0313726
4626.83008 0.0318064
4627.33984 0.0322409
4627.85010 0.0326714
4628.35986 0.0331042
4628.87012 0.0335393
4629.37988 0.0339725
4629.89014 0.0344038
4630.39990 0.0349175
4630.91016 0.0354562
4631.43018 0.0359927
4631.93994 0.0365263
4632.45020 0.0370659
4632.95996 0.0376031
4633.47021 0.0381407
4633.97998 0.0386816
4634.50000 0.0392196
4635.00977 0.0397579
4635.52002 0.0402969
4636.04004 0.0408414
4636.54004 0.041378
4637.06006 0.0419178
4637.56982 0.0424605
4638.08008 0.0430008
4638.58984 0.043539
4639.10010 0.0440805
4639.62012 0.0446242
4640.12988 0.0452023
4640.64014 0.0458836
4641.14990 0.0465724
4641.66992 0.0472581
4642.18018 0.0479441
4642.68994 0.0486345
4643.20996 0.0493246
4643.72021 0.0500085
4644.22998 0.0506967
4644.74023 0.0513878
4645.25977 0.0520766
4645.77002 0.052769
4646.29004 0.0534585
4646.79980 0.0541483
4647.31006 0.0548384
4647.81982 0.0555296
4648.33984 0.0562204
4648.85010 0.0569123
4649.35986 0.0576038
4649.87988 0.0582996
4650.39014 0.0591126
4650.89990 0.0599592
4651.41992 0.0608141
4651.93018 0.0616654
4652.43994 0.062518
4652.95996 0.0633704
4653.47021 0.0642279
4653.99023 0.0650819
4654.50000 0.0659355
4655.02002 0.0667992
4655.52979 0.0676503
4656.04980 0.0685059
4656.56006 0.0693619
4657.06982 0.0702234
4657.58984 0.0710762
4658.10010 0.0719335
4658.62012 0.072796
4659.12988 0.0736549
4659.64014 0.0745103
4660.16016 0.0754166
4660.66992 0.0764135
4661.18994 0.077412
4661.70020 0.0784148
4662.22021 0.0794143
4662.72998 0.0804142
4663.25000 0.0814138
4663.77002 0.0824205
4664.27979 0.083422
4664.79980 0.0844242
4665.31006 0.0854269
4665.83008 0.0864357
4666.33984 0.0874345
4666.85010 0.0884386
4667.37012 0.0894491
4667.89014 0.0904553
4668.39990 0.091462
4668.91992 0.0924691
4669.43018 0.0934768
4669.95020 0.094486
4670.47021 0.095596
4670.97998 0.0967186
4671.50000 0.0978299
4672.00977 0.0989481
4672.52979 0.100072
4673.04980 0.101191
4673.56006 0.102311
4674.08008 0.103432
4674.60010 0.104559
4675.10986 0.105681
4675.62988 0.106803
4676.14014 0.107926
4676.66016 0.10905
4677.18018 0.110175
4677.68994 0.111305
4678.20996 0.112425
4678.72021 0.113551
4679.24023 0.114684
4679.75977 0.115811
4680.27002 0.117039
4680.79004 0.118352
4681.31006 0.119675
4681.83008 0.120991
4682.33984 0.122308
4682.85986 0.123625
4683.37988 0.124949
4683.89990 0.126269
4684.41016 0.127588
4684.93018 0.128916
4685.45020 0.130232
4685.97021 0.131554
4686.47998 0.132884
4687.00000 0.134208
4687.52002 0.135526
4688.02979 0.136852
4688.54980 0.138184
4689.06982 0.139512
4689.58984 0.140847
4690.10986 0.142282
4690.62988 0.144121
4691.14014 0.145961
4691.66016 0.14781
4692.18018 0.149653
4692.70020 0.151496
4693.22021 0.153341
4693.74023 0.155196
4694.25000 0.157033
4694.77002 0.158881
4695.29004 0.160739
4695.81006 0.162589
4696.33008 0.164441
4696.83984 0.166284
4697.35986 0.168146
4697.87988 0.170001
4698.39990 0.171858
4698.93018 0.173733
4699.43994 0.175582
4699.95996 0.177441
4700.47998 0.179006
4701.00000 0.180541
4701.52002 0.182074
4702.04004 0.183611
4702.56006 0.185154
4703.08008 0.18669
4703.60010 0.188228
4704.10986 0.189767
4704.62988 0.191307
4705.14990 0.192848
4705.66992 0.19439
4706.18994 0.195931
4706.70996 0.197475
4707.22998 0.19902
4707.75000 0.200573
4708.27002 0.20212
4708.79004 0.203666
4709.31006 0.205221
4709.83008 0.206771
4710.35010 0.208353
4710.87012 0.209953
4711.39990 0.211559
4711.91992 0.21316
4712.43994 0.214762
4712.95996 0.216373
4713.47998 0.217968
4714.00000 0.219574
4714.52002 0.221179
4715.04004 0.222794
4715.56006 0.224393
4716.08008 0.226002
4716.60010 0.22762
4717.12012 0.22923
4717.64014 0.230832
4718.16016 0.232461
4718.68994 0.234075
4719.20996 0.235689
4719.72998 0.237305
4720.25000 0.238973
4720.77002 0.240686
4721.29004 0.242399
4721.81006 0.244121
4722.33008 0.245828
4722.85010 0.247545
4723.37988 0.249262
4723.89990 0.250989
4724.41992 0.252708
4724.93994 0.25442
4725.45996 0.256149
4725.97998 0.257871
4726.50977 0.259595
4727.02979 0.261319
4727.54980 0.263054
4728.06982 0.26478
4728.60010 0.266508
4729.12012 0.268245
4729.64014 0.269973
4730.16016 0.271659
4730.68994 0.273255
4731.20996 0.274843
4731.72998 0.276432
4732.25000 0.278014
4732.77979 0.279613
4733.29980 0.281204
4733.81982 0.282797
4734.33984 0.28439
4734.87012 0.285985
4735.39014 0.287581
4735.91016 0.289185
4736.43994 0.290783
4736.95996 0.292381
4737.47998 0.293981
4738.00977 0.295589
4738.52979 0.297191
4739.04980 0.298791
4739.58008 0.300404
4740.10010 0.302035
4740.62012 0.303784
4741.14990 0.305524
4741.66992 0.307284
4742.18994 0.309037
4742.72021 0.310788
4743.24023 0.312552
4743.77002 0.314297
4744.29004 0.316052
4744.81006 0.317818
4745.33984 0.319576
4745.85986 0.321326
4746.39014 0.323095
4746.91016 0.324865
4747.43994 0.326627
4747.95996 0.32839
4748.49023 0.330162
4749.00977 0.331927
4749.52979 0.333694
4750.06006 0.335477
4750.58008 0.337394
4751.10986 0.33931
4751.62988 0.341229
4752.16016 0.343157
4752.68018 0.345077
4753.20020 0.34699
4753.72998 0.348922
4754.25977 0.350847
4754.77979 0.352771
4755.31006 0.354698
4755.83008 0.356635
4756.35986 0.358564
4756.87988 0.360493
4757.41016 0.362433
4757.93994 0.364365
4758.45996 0.366298
4758.97998 0.368234
4759.50977 0.370179
4760.04004 0.372094
4760.56006 0.373734
4761.08984 0.37539
4761.60986 0.377039
4762.14014 0.378689
4762.66992 0.380349
4763.18994 0.381992
4763.72021 0.383645
4764.24023 0.385307
4764.77002 0.386962
4765.29980 0.388618
4765.81982 0.390276
4766.35010 0.391941
4766.87012 0.393592
4767.39990 0.39526
4767.93018 0.396921
4768.45996 0.398591
4768.97998 0.400255
4769.50977 0.401909
4770.04004 0.403601
4770.56006 0.405552
4771.08984 0.407504
4771.62012 0.409467
4772.14014 0.411412
4772.66992 0.413367
4773.20020 0.415333
4773.72021 0.417291
4774.25000 0.419241
4774.77979 0.421209
4775.31006 0.423181
4775.83008 0.425143
4776.35986 0.427105
4776.89014 0.429079
4777.41992 0.431043
4777.93994 0.43301
4778.47021 0.434978
4779.00000 0.436946
4779.52979 0.438916
4780.06006 0.440887
4780.58984 0.442873
4781.10986 0.44484
4781.64014 0.446828
4782.16992 0.448806
4782.68994 0.450786
4783.22021 0.452767
4783.75000 0.45475
4784.27979 0.456742
4784.81006 0.458728
4785.33984 0.460713
4785.87012 0.46271
4786.39014 0.464688
4786.91992 0.466688
4787.45020 0.468678
4787.97998 0.470678
4788.50977 0.472673
4789.04004 0.474655
4789.56982 0.476661
4790.10010 0.478658
4790.62988 0.480662
4791.16016 0.482677
4791.68018 0.484673
4792.20996 0.486681
4792.74023 0.488689
4793.27002 0.49071
4793.79980 0.49272
4794.33008 0.494734
4794.85986 0.496758
4795.39014 0.498762
4795.91992 0.500787
4796.45020 0.502805
4796.97998 0.504833
4797.50977 0.506852
4798.04004 0.508863
4798.56982 0.510895
4799.10010 0.512917
4799.62988 0.514943
4800.16016 0.516854
4800.68994 0.518462
4801.22021 0.52008
4801.75000 0.521699
4802.27979 0.523327
4802.81006 0.52494
4803.33984 0.526569
4803.87012 0.528199
4804.39990 0.529822
4804.93018 0.531447
4805.47021 0.533081
4806.00000 0.534707
4806.52979 0.536333
4807.06006 0.537952
4807.58984 0.539587
4808.12012 0.541218
4808.64990 0.542848
4809.18018 0.544489
4809.70996 0.546112
4810.24023 0.547861
4810.77002 0.549717
4811.31006 0.551594
4811.83008 0.553453
4812.37012 0.555332
4812.89990 0.557212
4813.43018 0.559082
4813.95996 0.560954
4814.50000 0.562837
4815.02002 0.5647
4815.56006 0.566585
4816.08984 0.56846
4816.62012 0.570337
4817.16016 0.572224
4817.68994 0.574094
4818.22021 0.575983
4818.75000 0.577864
4819.27979 0.579745
4819.81006 0.581619
4820.35010 0.58336
4820.87988 0.585014
4821.41016 0.586668
4821.93994 0.588333
4822.47998 0.589981
4823.00977 0.591647
4823.54004 0.593312
4824.06982 0.594964
4824.60986 0.596633
4825.14014 0.598294
4825.68018 0.599964
4826.20996 0.601627
4826.74023 0.603283
4827.27002 0.604956
4827.81006 0.606623
4828.33984 0.60829
4828.87012 0.609949
4829.41016 0.611627
4829.93994 0.613295
4830.47021 0.614914
4831.00977 0.616535
4831.54004 0.618139
4832.06982 0.61976
4832.60986 0.621384
4833.14014 0.623
4833.68018 0.624617
4834.20996 0.626226
4834.75000 0.627861
4835.27979 0.629479
4835.81006 0.631091
4836.35010 0.63272
4836.87988 0.634352
4837.41016 0.635966
4837.95020 0.63759
4838.47998 0.639215
4839.02002 0.640849
4839.54980 0.642466
4840.08984 0.644035
4840.62012 0.64525
4841.14990 0.646476
4841.68994 0.647702
4842.22998 0.648925
4842.75977 0.650146
4843.29004 0.651363
4843.83008 0.652592
4844.37012 0.653823
4844.89990 0.65505
4845.43994 0.656276
4845.97021 0.657507
4846.50000 0.658728
4847.04004 0.659955
4847.58008 0.66119
4848.10986 0.662419
4848.64014 0.663642
4849.18018 0.664878
4849.72021 0.666109
4850.25000 0.667507
4850.79004 0.669101
4851.31982 0.67068
4851.85986 0.672276
4852.39014 0.673856
4852.93018 0.675453
4853.47021 0.677052
4854.00977 0.678644
4854.54004 0.680244
4855.08008 0.681837
4855.60986 0.683423
4856.14990 0.685024
4856.68994 0.686618
4857.22021 0.688215
4857.75977 0.689804
4858.29980 0.69141
4858.83008 0.693007
4859.37012 0.694606
4859.91016 0.696212
4860.43994 0.697089
4860.97998 0.69782
4861.52002 0.69855
4862.04980 0.699279
4862.58984 0.700012
4863.12012 0.700736
4863.66992 0.701473
4864.20020 0.702202
4864.74023 0.70293
4865.27979 0.703664
4865.81982 0.704399
4866.35010 0.705127
4866.89014 0.705856
4867.43018 0.706592
4867.97021 0.707329
4868.50000 0.708057
4869.04004 0.708794
4869.56982 0.709523
4870.10986 0.710304
4870.64990 0.711249
4871.18994 0.71219
4871.72998 0.713132
4872.25977 0.714069
4872.79980 0.715016
4873.33984 0.715963
4873.87988 0.716906
4874.41992 0.717851
4874.95996 0.718801
4875.50000 0.719742
4876.02979 0.720687
4876.56982 0.721633
4877.10986 0.722583
4877.64990 0.723526
4878.18994 0.724478
4878.72998 0.725425
4879.27002 0.726373
4879.81006 0.727327
4880.33984 0.728238
4880.87988 0.72914
4881.41992 0.730033
4881.95996 0.730937
4882.50000 0.731841
4883.04004 0.732737
4883.58008 0.733641
4884.12012 0.734545
4884.66016 0.735442
4885.20020 0.736348
4885.74023 0.737249
4886.27979 0.738152
4886.81006 0.73905
4887.35986 0.739959
4887.89990 0.740868
4888.43994 0.741766
4888.97998 0.742674
4889.50977 0.743574
4890.06006 0.744456
4890.60010 0.745095
4891.14014 0.745735
4891.68018 0.746379
4892.22021 0.747016
4892.75977 0.747659
4893.29980 0.748304
4893.83984 0.748943
4894.37988 0.749588
4894.91992 0.750232
4895.45996 0.75087
4896.00000 0.751509
4896.54004 0.752155
4897.08008 0.752801
4897.62012 0.75344
4898.16016 0.754086
4898.70020 0.754727
4899.25000 0.755375
4899.77979 0.756017
4900.33008 0.75664
4900.87012 0.757236
4901.41016 0.75783
4901.95020 0.758431
4902.50000 0.759032
4903.02979 0.759627
4903.58008 0.760228
4904.12012 0.760829
4904.66016 0.761424
4905.20020 0.762024
4905.74023 0.762624
4906.29004 0.763228
4906.83008 0.763825
4907.37012 0.764427
4907.91016 0.765024
4908.45020 0.765629
4908.99023 0.766227
4909.54004 0.766833
4910.08008 0.767446
4910.62012 0.768102
4911.16016 0.768765
4911.70996 0.769426
4912.25000 0.770082
4912.79004 0.770745
4913.33984 0.771408
4913.87988 0.772066
4914.41992 0.77273
4914.97021 0.773391
4915.50977 0.774053
4916.04980 0.774711
4916.58984 0.775377
4917.14014 0.776043
4917.68018 0.776703
4918.22021 0.777364
4918.75977 0.77803
4919.31006 0.778697
4919.85010 0.77936
4920.39990 0.7799
4920.93994 0.780397
4921.47998 0.780889
4922.02979 0.781387
4922.56982 0.781884
4923.10986 0.782377
4923.66016 0.782874
4924.20020 0.783371
4924.74023 0.783864
4925.29004 0.784358
4925.83008 0.784855
4926.37988 0.785354
4926.91992 0.785847
4927.45996 0.786341
4928.00977 0.78684
4928.54980 0.78734
4929.10010 0.787836
4929.64014 0.788338
4930.18994 0.788852
4930.72998 0.789396
4931.27979 0.789948
4931.81982 0.7905
4932.35986 0.791046
4932.91016 0.791599
4933.45996 0.792151
4934.00000 0.792699
4934.54004 0.793249
4935.08984 0.7938
4935.64014 0.794352
4936.18018 0.7949
4936.72998 0.795455
4937.27002 0.796003
4937.81006 0.796556
4938.35986 0.797104
4938.89990 0.797659
4939.45020 0.798213
4939.99023 0.798761
4940.54004 0.798572
4941.08984 0.798376
4941.62988 0.798181
4942.18018 0.797984
4942.72998 0.797787
4943.27002 0.797591
4943.81982 0.797393
4944.37012 0.797195
4944.91016 0.796999
4945.45020 0.796802
4946.00000 0.796602
4946.54980 0.796403
4947.10010 0.796206
4947.64014 0.796008
4948.18994 0.795809
4948.72998 0.795609
4949.27979 0.795411
4949.83008 0.79521
4950.37988 0.796211
4950.91992 0.797746
4951.47021 0.799297
4952.02002 0.800851
4952.56006 0.802388
4953.10986 0.803942
4953.66016 0.805499
4954.20020 0.80704
4954.75000 0.808581
4955.29980 0.810138
4955.85010 0.811696
4956.39014 0.81324
4956.93994 0.814784
4957.49023 0.816345
4958.04004 0.817906
4958.58008 0.819452
4959.12988 0.821015
4959.68018 0.822578
4960.22998 0.823678
4960.77002 0.824144
4961.31982 0.824611
4961.87012 0.825074
4962.41992 0.825541
4962.97021 0.826009
4963.52002 0.826472
4964.06006 0.826938
4964.60986 0.827403
4965.16016 0.827872
4965.70996 0.828334
4966.25977 0.828803
4966.79980 0.829268
4967.35010 0.829736
4967.89990 0.8302
4968.45020 0.830669
4969.00000 0.831137
4969.54980 0.831605
4970.10010 0.83223
4970.64990 0.83358
4971.18994 0.834918
4971.75000 0.836271
4972.29980 0.837623
4972.83984 0.838961
4973.39014 0.840315
4973.93994 0.841658
4974.49023 0.843013
4975.04004 0.844355
4975.58984 0.845712
4976.14014 0.847069
4976.68994 0.848413
4977.22998 0.849757
4977.79004 0.851117
4978.33984 0.852478
4978.89014 0.853827
4979.43994 0.855187
4979.99023 0.856548
4980.54004 0.856809
4981.08984 0.857052
4981.64014 0.857298
4982.18994 0.857541
4982.74023 0.857785
4983.29004 0.858026
4983.83984 0.858271
4984.39014 0.858514
4984.93994 0.858759
4985.49023 0.859003
4986.04004 0.859246
4986.58984 0.859488
4987.14014 0.859733
4987.68994 0.859976
4988.24023 0.860218
4988.79980 0.860463
4989.35010 0.860708
4989.89990 0.860951
4990.45020 0.861662
4991.00000 0.862479
4991.54980 0.863289
4992.10010 0.864108
4992.64990 0.86492
4993.20996 0.86574
4993.75977 0.866555
4994.31006 0.867371
4994.85986 0.86819
4995.41016 0.869003
4995.97021 0.869825
4996.50977 0.870639
4997.06982 0.871461
4997.62012 0.872276
4998.16992 0.873099
4998.72021 0.873917
4999.27002 0.874736
4999.83008 0.875562
5000.37988 0.876351
5000.93018 0.877118
5001.47998 0.877888
5002.02979 0.878659
5002.58984 0.879434
5003.14990 0.880209
5003.68994 0.880976
5004.25000 0.881751
5004.79980 0.882519
5005.35010 0.883296
5005.91016 0.884069
5006.45996 0.884842
5007.00977 0.885612
5007.56006 0.886389
5008.12012 0.887166
5008.66992 0.887935
5009.22021 0.888714
5009.77979 0.889491
5010.33008 0.890101
5010.87988 0.890604
5011.43994 0.89111
5011.99023 0.891615
5012.54980 0.892122
5013.10010 0.892624
5013.64990 0.89313
5014.20020 0.893633
5014.75977 0.894141
5015.31982 0.894649
5015.87012 0.895151
5016.41992 0.895656
5016.97021 0.89616
5017.52979 0.896668
5018.08008 0.897172
5018.64014 0.897678
5019.18994 0.89819
5019.74023 0.898693
5020.29980 0.899017
5020.85986 0.899182
5021.41016 0.899347
5021.97021 0.899512
5022.52002 0.899678
5023.06982 0.899844
5023.62988 0.900009
5024.18018 0.900174
5024.74023 0.90034
5025.29004 0.900505
5025.85010 0.90067
5026.39990 0.900836
5026.95996 0.901003
5027.50977 0.901167
5028.06982 0.901332
5028.62012 0.901497
5029.18018 0.901663
5029.74023 0.90183
5030.29004 0.90224
5030.85010 0.902862
5031.39990 0.903487
5031.95996 0.904114
5032.52002 0.904742
5033.06982 0.905371
5033.62988 0.905995
5034.18018 0.906625
5034.74023 0.907249
5035.29980 0.90788
5035.85010 0.908507
5036.41016 0.909136
5036.95996 0.909761
5037.52002 0.910392
5038.08008 0.911024
5038.62988 0.911649
5039.18994 0.912281
5039.75000 0.912913
5040.29980 0.9131
5040.85986 0.91292
5041.41016 0.912739
5041.97021 0.912557
5042.52979 0.912374
5043.08984 0.912193
5043.64990 0.91201
5044.20020 0.911828
5044.75977 0.911646
5045.31982 0.911463
5045.87012 0.911281
5046.43018 0.911098
5046.97998 0.910916
5047.54980 0.910731
5048.10010 0.910548
5048.66016 0.910365
5049.22021 0.910179
5049.77002 0.909998
5050.33008 0.910336
5050.89014 0.911025
5051.45020 0.91172
5052.00977 0.912414
5052.56006 0.913105
5053.12012 0.913803
5053.68018 0.914494
5054.24023 0.915187
5054.79980 0.915884
5055.35010 0.916575
5055.91016 0.91727
5056.47021 0.917965
5057.02979 0.918662
5057.58984 0.919354
5058.14014 0.920049
5058.70020 0.920746
5059.25977 0.921442
5059.81982 0.922141
5060.37988 0.921919
5060.93994 0.921267
5061.50000 0.920618
5062.06006 0.919969
5062.62012 0.919317
5063.18018 0.918667
5063.74023 0.918016
5064.29980 0.917361
5064.85010 0.916712
5065.41992 0.916057
5065.97021 0.915409
5066.52979 0.914753
5067.08984 0.914104
5067.64990 0.913447
5068.20996 0.912793
5068.77002 0.912138
5069.33008 0.911483
5069.89014 0.910829
5070.45020 0.911038
5071.00977 0.911457
5071.56982 0.911876
5072.12988 0.912297
5072.70020 0.912719
5073.25000 0.913137
5073.81006 0.913558
5074.37988 0.913979
5074.93994 0.914399
5075.49023 0.914816
5076.06006 0.915237
5076.62012 0.915658
5077.18018 0.916079
5077.74023 0.916501
5078.29980 0.91692
5078.85986 0.917341
5079.41992 0.917764
5079.97998 0.918186
5080.54004 0.917668
5081.10010 0.917121
5081.66016 0.916568
5082.22998 0.916014
5082.79004 0.915468
5083.35010 0.914913
5083.91016 0.91436
5084.47021 0.913807
5085.02979 0.913257
5085.60010 0.912701
5086.16016 0.912149
5086.72021 0.911595
5087.27979 0.91104
5087.83984 0.910489
5088.39990 0.909934
5088.97021 0.909377
5089.52979 0.908821
5090.08984 0.908331
5090.64990 0.908191
5091.22021 0.908049
5091.77979 0.907908
5092.33984 0.907766
5092.89990 0.907623
5093.47021 0.90748
5094.02979 0.907338
5094.58984 0.907197
5095.14990 0.907056
5095.72021 0.906911
5096.27979 0.906768
5096.83984 0.906625
5097.39990 0.906483
5097.97021 0.90634
5098.52979 0.906196
5099.08984 0.906053
5099.64990 0.90591
5100.22021 0.905747
5100.77979 0.905552
5101.35010 0.905358
5101.91016 0.905165
5102.47998 0.90497
5103.04004 0.904775
5103.60010 0.904583
5104.16016 0.904388
5104.72998 0.904191
5105.29004 0.903997
5105.85010 0.903805
5106.41992 0.903608
5106.97998 0.903411
5107.54980 0.903217
5108.10986 0.903022
5108.66992 0.902826
5109.24023 0.90263
5109.79980 0.902435
5110.37012 0.902392
5110.93018 0.902431
5111.50000 0.902471
5112.06006 0.902512
5112.62988 0.902551
5113.18994 0.902591
5113.75977 0.902632
5114.31982 0.902672
5114.89014 0.902711
5115.45020 0.902749
5116.02002 0.902787
5116.58008 0.902828
5117.14990 0.902869
5117.70996 0.902907
5118.27002 0.902945
5118.83984 0.902984
5119.39990 0.903023
5119.97021 0.903062
5120.54004 0.9031
5121.10010 0.903138
5121.66992 0.903176
5122.22998 0.903215
5122.79980 0.903255
5123.37012 0.903293
5123.93018 0.903329
5124.50000 0.903368
5125.06006 0.903406
5125.62988 0.903443
5126.20020 0.90348
5126.75977 0.90352
5127.33008 0.903558
5127.89990 0.903594
5128.45996 0.903632
5129.02002 0.903669
5129.58984 0.903707
5130.16016 0.903714
5130.72998 0.903646
5131.29980 0.903578
5131.85986 0.903511
5132.43018 0.903444
5133.00000 0.903377
5133.56982 0.903309
5134.12988 0.903241
5134.70020 0.903173
5135.27002 0.903104
5135.83008 0.903036
5136.39990 0.902968
5136.97021 0.9029
5137.52979 0.902831
5138.10010 0.902762
5138.66016 0.902693
5139.22998 0.902624
5139.79980 0.902555
5140.37012 0.902513
5140.93994 0.902487
5141.50977 0.902459
5142.06982 0.902432
5142.64014 0.902404
5143.20996 0.902376
5143.77979 0.902346
5144.35010 0.902318
5144.91992 0.90229
5145.47998 0.902261
5146.04980 0.902232
5146.62012 0.902204
5147.18994 0.902175
5147.75977 0.902147
5148.31982 0.902119
5148.89014 0.90209
5149.45996 0.902061
5150.02979 0.90204
5150.60010 0.902187
5151.16992 0.902335
5151.74023 0.902482
5152.31006 0.902631
5152.87988 0.902779
5153.43994 0.902927
5154.02002 0.903076
5154.58984 0.903221
5155.14990 0.903367
5155.72021 0.903516
5156.29004 0.903664
5156.85986 0.903812
5157.43018 0.903958
5158.00000 0.904105
5158.56982 0.904252
5159.14014 0.9044
5159.70996 0.904548
5160.27979 0.904849
5160.85010 0.905307
5161.41992 0.905766
5161.99023 0.906228
5162.56006 0.906687
5163.12988 0.907146
5163.70020 0.907604
5164.27002 0.908065
5164.83984 0.908525
5165.41016 0.908986
5165.97998 0.909448
5166.56006 0.909907
5167.12012 0.910365
5167.68994 0.910825
5168.27002 0.911288
5168.83984 0.91175
5169.39990 0.912207
5169.97998 0.912669
5170.54980 0.913263
5171.12012 0.913862
5171.68994 0.914466
5172.25977 0.915065
5172.83008 0.915665
5173.39990 0.916265
5173.97998 0.916868
5174.54980 0.917468
5175.12012 0.918068
5175.68994 0.918673
5176.25977 0.919274
5176.83008 0.919872
5177.39990 0.920474
5177.97998 0.921079
5178.54980 0.92168
5179.12012 0.922282
5179.68994 0.922885
5180.25977 0.923202
5180.83984 0.923185
5181.41016 0.923168
5181.97998 0.923151
5182.54980 0.923133
5183.12012 0.923115
5183.70020 0.923098
5184.27002 0.92308
5184.85010 0.923062
5185.41992 0.923043
5185.99023 0.923023
5186.56006 0.923006
5187.14014 0.922989
5187.70996 0.922971
5188.27979 0.922952
5188.85010 0.922934
5189.43018 0.922915
5190.00000 0.922896
5190.56982 0.92354
5191.14990 0.924189
5191.72021 0.924834
5192.29004 0.92548
5192.87012 0.926126
5193.43994 0.926776
5194.02002 0.927423
5194.58984 0.928069
5195.16016 0.928719
5195.74023 0.929366
5196.31006 0.930013
5196.87988 0.93066
5197.45996 0.93131
5198.02979 0.931954
5198.60010 0.932603
5199.18018 0.933255
5199.75977 0.933902
5200.33008 0.934189
5200.89990 0.934207
5201.47998 0.934225
5202.04980 0.934244
5202.62988 0.934262
5203.20020 0.934279
5203.77979 0.934295
5204.35010 0.934313
5204.93018 0.93433
5205.50000 0.934348
5206.08008 0.934365
5206.64990 0.934382
5207.22998 0.934399
5207.79980 0.934416
5208.37988 0.934433
5208.95020 0.934452
5209.52979 0.934467
5210.10010 0.934572
5210.68018 0.935089
5211.25000 0.935606
5211.83008 0.936124
5212.39990 0.936643
5212.97998 0.93716
5213.56006 0.937678
5214.12988 0.938195
5214.70996 0.938716
5215.27979 0.939234
5215.85986 0.939751
5216.43994 0.940268
5217.00977 0.940788
5217.58984 0.941307
5218.16992 0.941825
5218.74023 0.942343
5219.31982 0.942861
5219.89014 0.94338
5220.47021 0.943588
5221.04980 0.943724
5221.62012 0.94386
5222.20020 0.943997
5222.77979 0.944132
5223.35010 0.944268
5223.93018 0.944403
5224.50977 0.94454
5225.08984 0.944677
5225.66016 0.944813
5226.24023 0.944949
5226.81982 0.945085
5227.39990 0.94522
5227.97021 0.945355
5228.54980 0.945493
5229.12988 0.945629
5229.70020 0.945766
5230.27979 0.94606
5230.85986 0.946519
5231.43018 0.946974
5232.02002 0.947434
5232.58984 0.947894
5233.16992 0.948353
5233.74023 0.948809
5234.33008 0.949273
5234.89990 0.949732
5235.47998 0.950191
5236.06006 0.950653
5236.64014 0.951114
5237.22021 0.951574
5237.79980 0.952033
5238.37988 0.952495
5238.95020 0.952952
5239.52979 0.953413
5240.10986 0.953728
5240.68994 0.953425
5241.27002 0.953123
5241.85010 0.952821
5242.43018 0.952517
5243.00000 0.952212
5243.58008 0.951909
5244.16016 0.951604
5244.74023 0.951299
5245.31982 0.950995
5245.89990 0.95069
5246.47998 0.950386
5247.06006 0.950081
5247.64014 0.949774
5248.22021 0.949467
5248.79980 0.949162
5249.37988 0.948857
5249.95996 0.94855
5250.54004 0.948535
5251.12012 0.948541
5251.70020 0.948549
5252.27979 0.948556
5252.85986 0.948563
5253.43994 0.948569
5254.02002 0.948574
5254.60010 0.948581
5255.18018 0.948588
5255.75977 0.948594
5256.33984 0.9486
5256.91992 0.948606
5257.50000 0.948612
5258.08984 0.948619
5258.66016 0.948623
5259.24023 0.948629
5259.83008 0.948635
5260.41016 0.94877
5260.99023 0.948961
5261.56982 0.949154
5262.14990 0.949346
5262.72998 0.949537
5263.31006 0.949729
5263.89014 0.949922
5264.47021 0.950112
5265.04980 0.950302
5265.64014 0.950495
5266.22021 0.950687
5266.79980 0.950878
5267.37988 0.95107
5267.97021 0.951263
5268.54980 0.951454
5269.12988 0.951644
5269.70996 0.951837
5270.29004 0.951843
5270.87012 0.951666
5271.45996 0.951488
5272.04004 0.95131
5272.62012 0.951132
5273.20020 0.950954
5273.77979 0.950776
5274.37012 0.950599
5274.95020 0.950421
5275.52979 0.950243
5276.12012 0.950063
5276.70020 0.949883
5277.27979 0.949703
5277.87012 0.949525
5278.43994 0.949347
5279.02979 0.949166
5279.62012 0.948986
5280.20020 0.948628
5280.77979 0.947929
5281.35986 0.947229
5281.95020 0.946529
5282.52979 0.945826
5283.10986 0.945123
5283.70020 0.944419
5284.27979 0.943722
5284.85986 0.943021
5285.45020 0.942313
5286.02979 0.941608
5286.60986 0.940906
5287.20020 0.940199
5287.77979 0.939495
5288.35986 0.938793
5288.95020 0.938085
5289.54004 0.937375
5290.12012 0.936871
5290.70996 0.93713
5291.29004 0.937391
5291.87012 0.937648
5292.45996 0.937906
5293.04004 0.938164
5293.62988 0.938423
5294.20996 0.938679
5294.79004 0.938937
5295.37988 0.939196
5295.97021 0.939454
5296.54980 0.939711
5297.14014 0.939972
5297.72021 0.940233
5298.31006 0.940491
5298.89014 0.940748
5299.47998 0.941008
5300.06006 0.941174
5300.64990 0.940595
5301.24023 0.940012
5301.81982 0.939433
5302.39990 0.938851
5302.99023 0.938269
5303.58008 0.937684
5304.16016 0.937106
5304.75000 0.93652
5305.33008 0.935937
5305.91992 0.935353
5306.50000 0.934769
5307.08984 0.934185
5307.68018 0.933598
5308.25977 0.933014
5308.85010 0.932428
5309.43994 0.931839
5310.02002 0.93128
5310.60986 0.931351
5311.20020 0.931422
5311.77979 0.93149
5312.37012 0.93156
5312.95020 0.931631
5313.54004 0.931701
5314.12988 0.931771
5314.72021 0.931842
5315.31006 0.931912
5315.89014 0.931981
5316.47998 0.932051
5317.06006 0.932122
5317.64990 0.932192
5318.24023 0.93226
5318.83008 0.932329
5319.41992 0.932398
5320.00000 0.932468
5320.58984 0.931937
5321.18018 0.931404
5321.77002 0.930871
5322.35010 0.93034
5322.93994 0.929813
5323.52979 0.929279
5324.12012 0.928747
5324.70020 0.928214
5325.29004 0.927679
5325.87988 0.927149
5326.47021 0.926616
5327.06006 0.926079
5327.64990 0.925547
5328.22998 0.925015
5328.81982 0.924479
5329.41016 0.923942
5330.00000 0.923408
5330.58984 0.923735
5331.18018 0.924065
5331.77002 0.924393
5332.35986 0.924721
5332.93994 0.925048
5333.52979 0.925379
5334.12012 0.925709
5334.70996 0.926035
5335.29980 0.926365
5335.89014 0.926692
5336.47998 0.927023
5337.06982 0.927352
5337.66016 0.92768
5338.24023 0.928007
5338.83984 0.928337
5339.43018 0.928668
5340.02002 0.928976
5340.60986 0.928629
5341.20020 0.928279
5341.77979 0.927931
5342.37988 0.92758
5342.97021 0.927229
5343.56006 0.92688
5344.14990 0.926529
5344.74023 0.926181
5345.33008 0.925829
5345.91992 0.92548
5346.50977 0.925128
5347.10010 0.924775
5347.68994 0.924426
5348.27979 0.924075
5348.87012 0.923725
5349.45996 0.923371
5350.04980 0.923056
5350.64014 0.923128
5351.24023 0.923199
5351.81982 0.92327
5352.41992 0.923339
5353.00977 0.923409
5353.60010 0.92348
5354.18994 0.923551
5354.77979 0.923622
5355.37012 0.923693
5355.97021 0.923763
5356.56006 0.923833
5357.14990 0.923904
5357.74023 0.923972
5358.33008 0.924042
5358.91992 0.924114
5359.52002 0.924185
5360.10010 0.924241
5360.70020 0.924233
5361.29004 0.924223
5361.87988 0.924214
5362.47998 0.924206
5363.06982 0.924198
5363.66016 0.92419
5364.25000 0.92418
5364.83984 0.92417
5365.43994 0.924161
5366.02979 0.924153
5366.62012 0.924143
5367.22021 0.924133
5367.81006 0.924123
5368.39990 0.924115
5368.99023 0.924107
5369.58984 0.924097
5370.18018 0.924305
5370.77002 0.92503
5371.37012 0.925756
5371.95996 0.926478
5372.54980 0.927199
5373.14990 0.927924
5373.74023 0.928643
5374.33984 0.929367
5374.93018 0.930089
5375.52002 0.930812
5376.12012 0.93154
5376.70996 0.932258
5377.29980 0.932986
5377.89990 0.933707
5378.49023 0.934434
5379.08984 0.935161
5379.68018 0.935883
5380.27002 0.936336
5380.85986 0.936466
5381.45996 0.936598
5382.04980 0.936729
5382.64990 0.936862
5383.25000 0.936995
5383.83984 0.937126
5384.43994 0.937258
5385.02979 0.937389
5385.62988 0.937523
5386.22021 0.937655
5386.81006 0.937786
5387.41016 0.937918
5388.00000 0.938048
5388.60010 0.938182
5389.20020 0.938315
5389.79004 0.938444
5390.39014 0.938752
5390.97998 0.939155
5391.56982 0.939563
5392.16992 0.939966
5392.77002 0.940372
5393.35986 0.940778
5393.95996 0.941181
5394.54980 0.941589
5395.14990 0.941994
5395.74023 0.9424
5396.33984 0.942808
5396.93994 0.943212
5397.52979 0.943621
5398.12988 0.944029
5398.72998 0.944433
5399.31982 0.944841
5399.91992 0.945245
5400.52002 0.945467
5401.10986 0.945658
5401.70996 0.945851
5402.29980 0.946043
5402.89990 0.946236
5403.50000 0.946428
5404.10010 0.946619
5404.68994 0.946812
5405.27979 0.947003
5405.87988 0.947196
5406.47998 0.94739
5407.08008 0.947582
5407.68018 0.947775
5408.27979 0.947969
5408.87012 0.948162
5409.47021 0.948355
5410.06006 0.948551
5410.66016 0.948803
5411.25977 0.94905
5411.85986 0.9493
5412.45996 0.949549
5413.04980 0.949799
5413.64990 0.950049
5414.25000 0.950297
5414.85010 0.950548
5415.43994 0.950797
5416.04004 0.951049
5416.64014 0.9513
5417.24023 0.951548
5417.83984 0.951801
5418.43994 0.95205
5419.04004 0.952299
5419.64014 0.952551
5420.22998 0.952968
5420.83008 0.95364
5421.43018 0.954308
5422.02979 0.954983
5422.62988 0.955659
5423.22998 0.956329
5423.83008 0.957004
5424.41992 0.957674
5425.02002 0.95835
5425.62012 0.959025
5426.22021 0.959699
5426.81982 0.960375
5427.41992 0.961046
5428.02002 0.961726
5428.62012 0.962403
5429.22021 0.963073
5429.81982 0.963753
5430.41992 0.964241
5431.02002 0.964644
5431.62012 0.965047
5432.22021 0.965454
5432.81982 0.965861
5433.41992 0.966265
5434.02002 0.966674
5434.62012 0.967078
5435.22021 0.967487
5435.81982 0.967896
5436.41992 0.968303
5437.02002 0.968708
5437.62012 0.969113
5438.22021 0.969522
5438.81982 0.969932
5439.41992 0.970337
5440.02979 0.970741
5440.62988 0.971022
5441.22998 0.971301
5441.83008 0.97158
5442.43018 0.971859
5443.02979 0.97214
5443.62988 0.972419
5444.22998 0.9727
5444.83008 0.972979
5445.43018 0.973261
5446.04004 0.973543
5446.64014 0.973822
5447.24023 0.974104
5447.83984 0.974383
5448.43994 0.974666
5449.04980 0.974949
5449.64990 0.975227
5450.25000 0.97533
5450.85010 0.975179
5451.45020 0.975026
5452.06006 0.974871
5452.66016 0.974717
5453.25977 0.974565
5453.85986 0.974412
5454.45996 0.974258
5455.06982 0.974104
5455.66992 0.973952
5456.27002 0.973798
5456.87012 0.973645
5457.47998 0.973491
5458.08008 0.973336
5458.68018 0.973184
5459.29004 0.973031
5459.89014 0.972879
5460.49023 0.973291
5461.10010 0.973835
5461.70020 0.974373
5462.29980 0.974917
5462.91016 0.975464
5463.50977 0.976003
5464.10986 0.976543
5464.70996 0.977089
5465.31982 0.977635
5465.91992 0.978176
5466.52979 0.978723
5467.12988 0.979263
5467.72998 0.97981
5468.33984 0.980357
5468.93994 0.980899
5469.54980 0.981447
5470.14990 0.981906
5470.75000 0.982109
5471.35986 0.982311
5471.95996 0.982512
5472.56982 0.982715
5473.16992 0.982918
5473.77002 0.98312
5474.37988 0.983323
5474.97998 0.983525
5475.58984 0.983729
5476.18994 0.98393
5476.79980 0.984134
5477.39990 0.984336
5478.00977 0.984541
5478.62012 0.984744
5479.22021 0.984946
5479.81982 0.985151
5480.43018 0.985251
5481.02979 0.985309
5481.64014 0.985369
5482.24023 0.985428
5482.85010 0.985488
5483.45996 0.985546
5484.06006 0.985604
5484.66992 0.985663
5485.27979 0.985722
5485.87988 0.98578
5486.47998 0.985839
5487.08984 0.9859
5487.70020 0.985959
5488.29980 0.986018
5488.91016 0.986075
5489.50977 0.986135
5490.12012 0.986356
5490.72998 0.9872
5491.33008 0.988054
5491.93994 0.98891
5492.54980 0.989756
5493.16016 0.990612
5493.77002 0.991467
5494.37012 0.992314
5494.97998 0.993171
5495.58984 0.994029
5496.18994 0.994879
5496.79004 0.995727
5497.39990 0.996583
5498.00977 0.997441
5498.62012 0.99829
5499.22998 0.999149
5499.83008 1.0
5500.43994 0.999674
5501.04004 0.998898
5501.64990 0.998112
5502.27002 0.997326
5502.87012 0.996551
5503.47998 0.995765
5504.08984 0.994979
5504.68994 0.994201
5505.29980 0.993413
5505.91016 0.992626
5506.52002 0.991847
5507.12988 0.991064
5507.72998 0.990279
5508.35010 0.989492
5508.95020 0.988712
5509.56006 0.987923
5510.16992 0.987352
5510.77979 0.987342
5511.37988 0.98733
5511.99023 0.987318
5512.60010 0.987308
5513.20996 0.987298
5513.81982 0.987287
5514.43018 0.987274
5515.04004 0.987262
5515.64990 0.987251
5516.25977 0.987241
5516.87012 0.987229
5517.47998 0.987218
5518.08984 0.987207
5518.70020 0.987197
5519.29980 0.987185
5519.91016 0.987173
5520.52979 0.98692
5521.12988 0.986631
5521.74023 0.986342
5522.35010 0.986049
5522.95996 0.985754
5523.56982 0.985466
5524.18018 0.985175
5524.79980 0.984881
5525.39990 0.984591
5526.02002 0.984299
5526.62012 0.984008
5527.22998 0.983716
5527.85010 0.983423
5528.45996 0.983128
5529.06982 0.982837
5529.68018 0.982547
5530.29004 0.982348
5530.89990 0.982254
5531.50977 0.982162
5532.12012 0.98207
5532.72998 0.981974
5533.33984 0.98188
5533.95020 0.981787
5534.56006 0.981694
5535.18018 0.981601
5535.79004 0.981508
5536.39990 0.981415
5537.00977 0.981322
5537.62012 0.981228
5538.24023 0.981134
5538.85010 0.981042
5539.45996 0.980947
5540.06982 0.980807
5540.68018 0.980306
5541.29980 0.979801
5541.89990 0.9793
5542.52002 0.978799
5543.12988 0.978294
5543.74023 0.977789
5544.35010 0.977288
5544.97021 0.976783
5545.58008 0.97628
5546.18994 0.975775
5546.81006 0.975267
5547.41992 0.97476
5548.02979 0.974259
5548.64014 0.973755
5549.25977 0.973245
5549.87012 0.972743
5550.47998 0.9728
5551.10010 0.97301
5551.70996 0.973219
5552.31982 0.973428
5552.93994 0.973641
5553.54980 0.97385
5554.16016 0.974059
5554.77002 0.974268
5555.39014 0.97448
5556.00000 0.974692
5556.60986 0.9749
5557.22998 0.975111
5557.85010 0.975323
5558.45020 0.975533
5559.06982 0.975744
5559.68994 0.975957
5560.29980 0.975633
5560.91016 0.974742
5561.52979 0.973859
5562.14014 0.972968
5562.75000 0.972084
5563.37012 0.97119
5563.99023 0.970296
5564.60010 0.969411
5565.20996 0.96852
5565.83008 0.967631
5566.43994 0.966737
5567.06006 0.965851
5567.66992 0.964954
5568.29004 0.964059
5568.89990 0.963173
5569.52002 0.962277
5570.12988 0.961642
5570.75000 0.961932
5571.37012 0.962223
5571.97998 0.962511
5572.60010 0.962804
5573.20996 0.963096
5573.81982 0.963387
5574.43994 0.963679
5575.06006 0.963969
5575.66992 0.964261
5576.29004 0.964554
5576.89990 0.964847
5577.52002 0.965137
5578.14014 0.96543
5578.75000 0.965721
5579.37012 0.966014
5579.97998 0.96631
5580.60010 0.965711
5581.22021 0.965099
5581.83008 0.964485
5582.45020 0.963869
5583.06982 0.96325
5583.68994 0.96263
5584.29980 0.962016
5584.91992 0.961396
5585.52979 0.960782
5586.14990 0.960163
5586.77002 0.959546
5587.39014 0.95893
5588.00000 0.958315
5588.62012 0.957693
5589.24023 0.957071
5589.85010 0.956457
5590.47021 0.95609
5591.08984 0.955799
5591.70996 0.955513
5592.31982 0.955226
5592.93994 0.954938
5593.56006 0.954651
5594.18018 0.954361
5594.79004 0.954075
5595.41016 0.953786
5596.02979 0.953497
5596.64990 0.953209
5597.27002 0.952918
5597.89014 0.952632
5598.50000 0.952344
5599.12012 0.952056
5599.74023 0.951765
5600.35986 0.951158
5600.97998 0.950315
5601.60010 0.949468
5602.20996 0.948623
5602.83984 0.947774
5603.45020 0.946929
5604.06982 0.946084
5604.68994 0.945235
5605.31006 0.944394
5605.93018 0.943543
5606.54980 0.942697
5607.16992 0.941851
5607.79004 0.941001
5608.39990 0.940159
5609.02002 0.939312
5609.64990 0.93846
5610.27002 0.937899
5610.87988 0.93772
5611.50000 0.937541
5612.12012 0.937361
5612.74023 0.937183
5613.35986 0.937003
5613.99023 0.936822
5614.60010 0.936644
5615.22021 0.936466
5615.83984 0.936286
5616.47021 0.936104
5617.08984 0.935924
5617.70020 0.935744
5618.33008 0.935565
5618.93994 0.935388
5619.56982 0.935207
5620.18994 0.934961
5620.81006 0.934561
5621.43018 0.934162
5622.04980 0.93376
5622.66992 0.933359
5623.29004 0.932959
5623.91016 0.93256
5624.54004 0.932154
5625.14990 0.931755
5625.77002 0.931354
5626.39990 0.930951
5627.02002 0.93055
5627.64014 0.930146
5628.25977 0.929746
5628.89014 0.929342
5629.50977 0.92894
5630.12988 0.928739
5630.75000 0.92931
5631.37012 0.929879
5631.99023 0.930448
5632.60986 0.93102
5633.24023 0.931594
5633.85986 0.932161
5634.47998 0.932735
5635.10010 0.933302
5635.72998 0.933878
5636.35010 0.934453
5636.97021 0.935021
5637.60010 0.935596
5638.22021 0.93617
5638.83984 0.936743
5639.45996 0.937315
5640.08984 0.937678
5640.70996 0.936744
5641.33008 0.93581
5641.95020 0.934875
5642.58008 0.93394
5643.20020 0.933004
5643.81982 0.932063
5644.43994 0.931131
5645.06982 0.93019
5645.68994 0.929259
5646.31982 0.928317
5646.93994 0.927372
5647.56982 0.926434
5648.18994 0.925497
5648.81006 0.924558
5649.43994 0.923613
5650.06006 0.92269
5650.68994 0.921916
5651.31006 0.92114
5651.93994 0.920359
5652.56006 0.919587
5653.18018 0.918807
5653.81006 0.918033
5654.43018 0.917251
5655.06006 0.916473
5655.68018 0.915696
5656.29980 0.914922
5656.93018 0.91414
5657.56006 0.913358
5658.18018 0.912579
5658.79980 0.9118
5659.43018 0.91102
5660.04980 0.91031
5660.68018 0.910356
5661.31006 0.910402
5661.93018 0.910449
5662.56006 0.910493
5663.18018 0.910538
5663.81006 0.910585
5664.43018 0.910631
5665.06006 0.910678
5665.68018 0.910724
5666.31006 0.910771
5666.93018 0.910816
5667.56006 0.910862
5668.18994 0.910908
5668.81006 0.910952
5669.43994 0.910999
5670.06006 0.91103
5670.68994 0.910927
5671.31982 0.910824
5671.93994 0.910722
5672.56982 0.910619
5673.20020 0.910517
5673.83008 0.910413
5674.45020 0.910311
5675.08008 0.910208
5675.70020 0.910104
5676.33008 0.910001
5676.95996 0.909899
5677.58984 0.909794
5678.20996 0.90969
5678.83984 0.909587
5679.45996 0.909484
5680.08984 0.909218
5680.72021 0.908017
5681.35010 0.906826
5681.97998 0.905625
5682.60010 0.904426
5683.22998 0.903228
5683.85986 0.902024
5684.49023 0.900825
5685.10986 0.899627
5685.75000 0.898421
5686.37012 0.897227
5687.00000 0.896028
5687.62012 0.894827
5688.25977 0.893619
5688.87988 0.892418
5689.50977 0.891216
5690.14014 0.890205
5690.77002 0.889859
5691.39990 0.889515
5692.02979 0.889168
5692.64990 0.888824
5693.27979 0.888479
5693.91016 0.888133
5694.54004 0.887786
5695.16992 0.887439
5695.79980 0.887096
5696.43018 0.886748
5697.06006 0.886402
5697.68994 0.886055
5698.31006 0.885711
5698.95020 0.885364
5699.56982 0.885018
5700.20020 0.884727
5700.83008 0.884554
5701.45996 0.88438
5702.08984 0.884206
5702.72021 0.884033
5703.35010 0.883858
5703.97998 0.883683
5704.60986 0.883509
5705.24023 0.883335
5705.87012 0.883163
5706.50000 0.882989
5707.14014 0.882813
5707.77002 0.882639
5708.39990 0.882464
5709.02979 0.882289
5709.66016 0.882116
5710.29004 0.881794
5710.91992 0.881293
5711.54980 0.88079
5712.18018 0.880292
5712.81006 0.879791
5713.43994 0.879291
5714.06982 0.878788
5714.70020 0.878283
5715.33008 0.877783
5715.97021 0.877279
5716.60010 0.876778
5717.22998 0.876276
5717.85986 0.875771
5718.49023 0.875269
5719.12012 0.874766
5719.75977 0.874259
5720.39014 0.873194
5721.02002 0.871767
5721.64990 0.870337
5722.27979 0.868902
5722.91016 0.867472
5723.54004 0.866048
5724.16992 0.864616
5724.81006 0.863178
5725.43994 0.861745
5726.06982 0.860312
5726.70996 0.858873
5727.33984 0.85744
5727.97021 0.856002
5728.60986 0.854561
5729.24023 0.853126
5729.87012 0.851689
5730.50977 0.851615
5731.14014 0.851886
5731.77002 0.85216
5732.39990 0.852432
5733.04004 0.852705
5733.66992 0.852978
5734.29980 0.853251
5734.93018 0.853522
5735.56982 0.853795
5736.20020 0.854069
5736.83008 0.854343
5737.47021 0.854617
5738.10010 0.85489
5738.74023 0.855163
5739.37012 0.855438
5740.00977 0.855697
5740.64014 0.854709
5741.27979 0.853715
5741.91016 0.852731
5742.54004 0.851736
5743.18018 0.850739
5743.81006 0.849752
5744.43994 0.848759
5745.08008 0.847766
5745.72021 0.84677
5746.35010 0.845782
5746.97998 0.844789
5747.60986 0.843797
5748.25000 0.842797
5748.89014 0.841802
5749.52002 0.840808
5750.16016 0.839929
5750.79004 0.839423
5751.43018 0.838915
5752.06006 0.838403
5752.70020 0.8379
5753.33984 0.83739
5753.97021 0.836879
5754.60010 0.836373
5755.24023 0.835863
5755.87988 0.835353
5756.50977 0.834842
5757.14990 0.834333
5757.77979 0.833827
5758.41992 0.833316
5759.04980 0.832803
5759.68994 0.832292
5760.33008 0.831653
5760.95996 0.83089
5761.60010 0.830129
5762.24023 0.829367
5762.87988 0.828601
5763.50977 0.827844
5764.14990 0.827079
5764.79004 0.826313
5765.41992 0.825553
5766.06006 0.824785
5766.68994 0.824028
5767.33008 0.823261
5767.97021 0.822495
5768.60010 0.821731
5769.24023 0.820971
5769.87988 0.820202
5770.50977 0.819713
5771.14990 0.819291
5771.79004 0.818866
5772.43018 0.818444
5773.06006 0.818021
5773.70020 0.817596
5774.33984 0.817172
5774.97998 0.816747
5775.62012 0.816322
5776.25000 0.8159
5776.89990 0.815473
5777.52979 0.815051
5778.16992 0.814625
5778.81006 0.814201
5779.43994 0.813775
5780.08984 0.81332
5780.72021 0.812706
5781.35986 0.812087
5782.00000 0.811468
5782.64014 0.810846
5783.27002 0.810229
5783.91016 0.809606
5784.56006 0.808983
5785.18994 0.808364
5785.83008 0.807742
5786.47021 0.807119
5787.10986 0.806501
5787.75000 0.805878
5788.39014 0.805257
5789.02979 0.804635
5789.66992 0.804014
5790.31006 0.803593
5790.95020 0.803388
5791.58984 0.803186
5792.22998 0.802984
5792.85986 0.802782
5793.50977 0.802579
5794.14014 0.802376
5794.77979 0.802174
5795.43018 0.801969
5796.06006 0.801765
5796.70020 0.801562
5797.35010 0.801358
5797.97998 0.801155
5798.62988 0.80095
5799.27002 0.800746
5799.91016 0.800543
5800.54980 0.799509
5801.18994 0.798347
5801.83008 0.797173
5802.47021 0.796005
5803.10986 0.794836
5803.75000 0.793666
5804.39014 0.792495
5805.02979 0.791324
5805.66992 0.790153
5806.31006 0.788982
5806.95996 0.787804
5807.60010 0.786632
5808.24023 0.785453
5808.87988 0.784284
5809.52002 0.783105
5810.16992 0.782138
5810.81006 0.781767
5811.45020 0.781392
5812.08984 0.781021
5812.72998 0.780648
5813.37988 0.780275
5814.02002 0.779901
5814.66016 0.779526
5815.29980 0.779155
5815.93994 0.778781
5816.58008 0.778408
5817.22998 0.778033
5817.87012 0.77766
5818.50977 0.777285
5819.16016 0.776909
5819.79980 0.776535
5820.43994 0.775546
5821.08008 0.774282
5821.72998 0.773016
5822.37012 0.771744
5823.02002 0.770478
5823.66016 0.769211
5824.29980 0.767944
5824.93994 0.766675
5825.58984 0.7654
5826.22998 0.764138
5826.87988 0.762861
5827.52002 0.761599
5828.16016 0.760323
5828.79980 0.759052
5829.45020 0.757781
5830.08984 0.75661
5830.72998 0.756074
5831.37988 0.755533
5832.02979 0.754993
5832.66992 0.754458
5833.31006 0.753916
5833.95996 0.753377
5834.60010 0.752838
5835.25000 0.752296
5835.89014 0.751759
5836.54004 0.751216
5837.18018 0.750679
5837.81982 0.750136
5838.47021 0.749597
5839.10986 0.749057
5839.75977 0.748515
5840.39990 0.747662
5841.04980 0.746621
5841.68994 0.745581
5842.33984 0.744533
5842.99023 0.743486
5843.62988 0.74245
5844.27979 0.741403
5844.91992 0.740359
5845.56982 0.739316
5846.22021 0.738267
5846.85986 0.737227
5847.50977 0.736177
5848.14990 0.735137
5848.79980 0.734087
5849.43994 0.73304
5850.08984 0.732062
5850.72998 0.731522
5851.37988 0.730981
5852.02979 0.730437
5852.66992 0.729898
5853.31982 0.729353
5853.97021 0.728809
5854.60986 0.728269
5855.25977 0.727723
5855.91016 0.72718
5856.54980 0.726638
5857.20020 0.726092
5857.85010 0.725548
5858.49023 0.725004
5859.14014 0.724463
5859.79004 0.723915
5860.43994 0.722924
5861.08008 0.72173
5861.72998 0.720524
5862.37988 0.719328
5863.02002 0.71812
5863.66992 0.716917
5864.31982 0.715713
5864.97021 0.71451
5865.60986 0.713306
5866.25977 0.712096
5866.91016 0.710891
5867.56006 0.709685
5868.20996 0.708473
5868.85986 0.707266
5869.50000 0.706059
5870.14990 0.704983
5870.79980 0.704329
5871.45020 0.703673
5872.10010 0.703024
5872.75000 0.702368
5873.39014 0.701717
5874.04004 0.70106
5874.68994 0.700406
5875.33984 0.699751
5875.99023 0.699095
5876.64014 0.698441
5877.29004 0.697784
5877.93994 0.697125
5878.58984 0.696474
5879.24023 0.695815
5879.89014 0.695158
5880.52979 0.69383
5881.18994 0.69235
5881.83008 0.690884
5882.47998 0.689403
5883.12988 0.687937
5883.77979 0.686455
5884.43018 0.684987
5885.08008 0.683504
5885.72998 0.682028
5886.37988 0.680551
5887.02979 0.679065
5887.68018 0.677595
5888.33008 0.676108
5888.99023 0.674623
5889.62988 0.673151
5890.29004 0.671992
5890.93018 0.671265
5891.58984 0.670531
5892.24023 0.669798
5892.89014 0.669072
5893.54004 0.668338
5894.18994 0.667607
5894.83984 0.666876
5895.49023 0.666144
5896.14014 0.665411
5896.79980 0.664677
5897.43994 0.663948
5898.10010 0.663211
5898.74023 0.662481
5899.39990 0.661744
5900.04980 0.660958
5900.70020 0.659558
5901.35010 0.658149
5902.00000 0.656753
5902.66016 0.655341
5903.31006 0.65393
5903.95996 0.652524
5904.60986 0.65112
5905.27002 0.649715
5905.91992 0.648309
5906.56982 0.646901
5907.22021 0.645495
5907.87988 0.644078
5908.52979 0.642677
5909.18018 0.641261
5909.83008 0.639853
5910.47998 0.638876
5911.14014 0.63805
5911.79004 0.637224
5912.43994 0.636393
5913.10010 0.635565
5913.75000 0.634737
5914.41016 0.633905
5915.06006 0.633078
5915.70996 0.632249
5916.35986 0.631419
5917.02002 0.63059
5917.66992 0.629758
5918.31982 0.628932
5918.97998 0.628095
5919.62988 0.62727
5920.29004 0.626292
5920.93994 0.62514
5921.58984 0.623978
5922.25000 0.622821
5922.89990 0.621663
5923.56006 0.620497
5924.20996 0.619338
5924.85986 0.618179
5925.52002 0.617012
5926.16992 0.615857
5926.83008 0.61469
5927.49023 0.613522
5928.14014 0.612365
5928.79004 0.611197
5929.45020 0.610033
5930.10010 0.608986
5930.75977 0.60856
5931.41016 0.608134
5932.06982 0.607708
5932.72021 0.607282
5933.37988 0.606853
5934.02979 0.606428
5934.68994 0.606
5935.33984 0.605573
5936.00000 0.605145
5936.66016 0.604717
5937.31006 0.604293
5937.97021 0.603863
5938.62012 0.603435
5939.27979 0.603005
5939.93994 0.602578
5940.58984 0.601852
5941.25000 0.601095
5941.89990 0.600338
5942.56006 0.59958
5943.20996 0.598821
5943.87012 0.598065
5944.52979 0.597302
5945.18018 0.596547
5945.83984 0.595785
5946.50000 0.595025
5947.14990 0.594264
5947.81006 0.593501
5948.47021 0.59274
5949.12988 0.591979
5949.77979 0.591219
5950.43994 0.590231
5951.10010 0.589125
5951.75977 0.588027
5952.41016 0.586927
5953.06982 0.585821
5953.72998 0.584725
5954.37988 0.583623
5955.04004 0.582522
5955.70020 0.581413
5956.35986 0.58031
5957.02002 0.579206
5957.66992 0.578103
5958.33008 0.576998
5958.99023 0.575887
5959.64990 0.574782
5960.31006 0.573955
5960.95996 0.57345
5961.62012 0.572943
5962.27979 0.572433
5962.93994 0.571923
5963.60010 0.571418
5964.25977 0.570908
5964.91992 0.570401
5965.58008 0.569893
5966.22998 0.569387
5966.89014 0.568875
5967.54980 0.568367
5968.20996 0.567858
5968.87012 0.567347
5969.52979 0.56684
5970.18994 0.566422
5970.85010 0.566242
5971.50977 0.56606
5972.16992 0.565878
5972.81982 0.565696
5973.49023 0.565515
5974.14990 0.565333
5974.81006 0.56515
5975.47021 0.564968
5976.12988 0.564786
5976.79004 0.564604
5977.45020 0.564422
5978.10986 0.564241
5978.77002 0.564059
5979.43018 0.563877
5980.08984 0.563671
5980.75000 0.563328
5981.41016 0.562982
5982.06982 0.56264
5982.72998 0.562293
5983.39014 0.561945
5984.04980 0.561601
5984.70996 0.561252
5985.37012 0.560905
5986.02979 0.560557
5986.70020 0.560207
5987.35986 0.559859
5988.02002 0.55951
5988.68018 0.559158
5989.33984 0.558811
5990.00000 0.558462
5990.66016 0.558279
5991.33008 0.558095
5991.99023 0.557911
5992.64990 0.557728
5993.31006 0.557545
5993.97021 0.557361
5994.64014 0.557176
5995.29980 0.556993
5995.95996 0.556809
5996.62012 0.556626
5997.27979 0.556442
5997.95020 0.556257
5998.60986 0.556072
5999.27002 0.555888
5999.93994 0.555703
6000.60010 0.554579
6001.25977 0.553357
6001.91992 0.552141
6002.58984 0.550913
6003.25000 0.549689
6003.91016 0.548465
6004.56982 0.547242
6005.24023 0.546016
6005.89990 0.544785
6006.56006 0.543565
6007.22998 0.542333
6007.89014 0.541107
6008.54980 0.539879
6009.22021 0.538647
6009.87988 0.53742
6010.54980 0.536335
6011.20996 0.535277
6011.87988 0.534225
6012.54004 0.53317
6013.20996 0.532111
6013.87012 0.531061
6014.52979 0.530006
6015.18994 0.528952
6015.85986 0.527891
6016.52002 0.52684
6017.18994 0.525779
6017.85010 0.524727
6018.52002 0.523665
6019.18018 0.522608
6019.85010 0.521549
6020.50977 0.519408
6021.18018 0.516953
6021.83984 0.514499
6022.50977 0.512032
6023.16992 0.509576
6023.83984 0.507118
6024.50977 0.504647
6025.16992 0.502189
6025.83008 0.499741
6026.50000 0.497281
6027.16992 0.494807
6027.83008 0.492357
6028.50000 0.489881
6029.16016 0.487415
6029.83008 0.484951
6030.49023 0.482505
6031.16016 0.480034
6031.83008 0.477563
6032.50000 0.47509
6033.16016 0.472642
6033.81982 0.47018
6034.50000 0.467693
6035.16016 0.46524
6035.83008 0.462763
6036.49023 0.460311
6037.16016 0.457832
6037.83008 0.455364
6038.49023 0.452895
6039.16016 0.450437
6039.83008 0.447956
6040.49023 0.444706
6041.16016 0.441179
6041.83008 0.437636
6042.49023 0.434128
6043.16016 0.43058
6043.83008 0.427033
6044.50000 0.423502
6045.16016 0.419988
6045.83008 0.416451
6046.50000 0.412898
6047.16992 0.409362
6047.83984 0.405823
6048.50977 0.402265
6049.16992 0.398726
6049.83984 0.395181
6050.50977 0.391077
6051.18018 0.38685
6051.85010 0.382596
6052.50977 0.378341
6053.18018 0.374066
6053.85010 0.369809
6054.52002 0.365551
6055.18994 0.36127
6055.85986 0.357006
6056.52979 0.352741
6057.18994 0.348497
6057.85986 0.344211
6058.52979 0.339943
6059.20020 0.335671
6059.87012 0.331379
6060.54004 0.327038
6061.20996 0.322676
6061.87988 0.318291
6062.54980 0.313927
6063.22021 0.309584
6063.89014 0.305217
6064.56006 0.300827
6065.22998 0.296455
6065.89990 0.292082
6066.56982 0.287688
6067.24023 0.283313
6067.91016 0.278932
6068.58008 0.274532
6069.25000 0.270175
6069.91992 0.265791
6070.58984 0.261873
6071.25977 0.257998
6071.93018 0.254142
6072.60010 0.250285
6073.27002 0.246406
6073.93994 0.242544
6074.60986 0.238684
6075.27979 0.234839
6075.95996 0.230954
6076.62988 0.227088
6077.29980 0.223217
6077.97021 0.219329
6078.64014 0.215457
6079.31006 0.211586
6079.99023 0.207692
6080.66016 0.204247
6081.33008 0.200825
6082.00000 0.197388
6082.66992 0.193932
6083.33984 0.19049
6084.00977 0.187047
6084.68994 0.183586
6085.35986 0.180142
6086.02979 0.176697
6086.70996 0.173234
6087.37988 0.169802
6088.04980 0.166352
6088.72021 0.162901
6089.39014 0.159432
6090.06006 0.156063
6090.74023 0.153468
6091.41016 0.150856
6092.08984 0.148259
6092.75977 0.145659
6093.43018 0.143072
6094.10010 0.140458
6094.77002 0.137856
6095.45020 0.135252
6096.12012 0.132636
6096.79980 0.13003
6097.47021 0.127423
6098.14990 0.124803
6098.81006 0.122208
6099.49023 0.119599
6100.16016 0.117124
6100.83984 0.115076
6101.50977 0.113035
6102.18018 0.110994
6102.85986 0.108942
6103.52979 0.106899
6104.20996 0.104855
6104.87988 0.102801
6105.56006 0.100766
6106.22998 0.0987202
6106.89990 0.0966736
6107.58008 0.0946161
6108.25000 0.0925683
6108.93018 0.0905201
6109.60010 0.0884594
6110.27979 0.0866604
6110.95020 0.0851995
6111.62012 0.0837381
6112.29980 0.0822691
6112.97998 0.0808071
6113.64990 0.0793439
6114.33008 0.0778738
6115.00000 0.0764096
6115.68018 0.0749453
6116.35986 0.0734731
6117.02979 0.0720154
6117.70020 0.0705489
6118.37988 0.069082
6119.06006 0.0676085
6119.72998 0.0661408
6120.41016 0.0648857
6121.08984 0.0637642
6121.75977 0.062653
6122.43994 0.0615309
6123.10986 0.0604189
6123.79004 0.0592953
6124.45996 0.0581778
6125.14014 0.0570584
6125.81982 0.0559339
6126.50000 0.0548148
6127.16992 0.0536945
6127.85010 0.052569
6128.52002 0.0514537
6129.20020 0.0503325
6129.87988 0.04921
6130.56006 0.0483265
6131.22998 0.0475009
6131.91016 0.0466745
6132.58984 0.0458438
6133.25977 0.0450212
6133.93994 0.0441901
6134.62012 0.0433588
6135.29980 0.0425357
6135.97021 0.0417077
6136.64990 0.0408794
6137.33008 0.0400468
6138.00977 0.0392182
6138.68994 0.0383893
6139.37012 0.0375562
6140.04004 0.0367428
6140.72021 0.0361106
6141.39990 0.035484
6142.08008 0.0348509
6142.75977 0.0342208
6143.43018 0.0335905
6144.10986 0.0329564
6144.79004 0.0323258
6145.47021 0.0316945
6146.14990 0.0310599
6146.83008 0.0304315
6147.50977 0.0297997
6148.18018 0.0291678
6148.87012 0.0285321
6149.54004 0.0278998
6150.22021 0.0273295
6150.89990 0.0268853
6151.58008 0.0264454
6152.25977 0.0260009
6152.93994 0.025556
6153.62012 0.0251157
6154.29980 0.0246728
6154.97998 0.0242298
6155.66016 0.0237844
6156.33984 0.023341
6157.02002 0.0228976
6157.70020 0.0224515
6158.37988 0.0220101
6159.06006 0.0215637
6159.74023 0.0211217
6160.41992 0.0207484
6161.10010 0.0204222
6161.77979 0.0200956
6162.45996 0.0197676
6163.14014 0.019441
6163.81982 0.0191142
6164.50977 0.0187857
6165.18994 0.0184605
6165.85986 0.0181335
6166.54980 0.0178062
6167.22998 0.0174774
6167.91016 0.0171499
6168.58984 0.0168224
6169.27002 0.0164931
6169.95020 0.0161671
6170.64014 0.0159164
6171.31982 0.0156719
6172.00000 0.0154296
6172.68018 0.015186
6173.35986 0.0149423
6174.04980 0.0146974
6174.72998 0.0144535
6175.41016 0.0142095
6176.08984 0.0139643
6176.77002 0.0137214
6177.45996 0.0134759
6178.12988 0.0132328
6178.81982 0.0129872
6179.50000 0.0127425
6180.18018 0.0125475
6180.87012 0.0124873
6181.54980 0.0124276
6182.22998 0.0123673
6182.91016 0.0123073
6183.60010 0.0122473
6184.27979 0.0121872
6184.95996 0.0121271
6185.64990 0.0120668
6186.33008 0.0120066
6187.00977 0.0119465
6187.70020 0.011886
6188.37988 0.0118261
6189.06006 0.0117656
6189.75000 0.0117054
6190.43018 0.0116451
6191.10986 0.0115848
6191.79980 0.0115245
6192.47998 0.0114638
6193.16016 0.0114037
6193.85010 0.011343
6194.52979 0.0112825
6195.22021 0.011222
6195.89990 0.0111612
6196.58984 0.0111011
6197.27002 0.0110402
6197.95996 0.0109797
6198.64014 0.0109191
6199.33008 0.0108582
6200.00977 0.0107972
6200.70020 0.010685
6201.37988 0.0105733
6202.06006 0.0104615
6202.75000 0.0103497
6203.43018 0.0102379
6204.12012 0.0101254
6204.79980 0.010014
6205.49023 0.0099015
6206.18018 0.00978886
6206.85986 0.00967738
6207.54980 0.00956468
6208.22998 0.00945249
6208.91992 0.00934029
6209.60010 0.00922804
6210.29004 0.00911559
6210.97998 0.00900249
6211.66016 0.00889041
6212.35010 0.00877717
6213.04004 0.00866391
6213.72021 0.00855174
6214.41016 0.00843843
6215.08984 0.00832622
6215.77979 0.00821278
6216.45996 0.00810043
6217.14990 0.00798693
6217.83984 0.0078734
6218.52002 0.00776098
6219.20996 0.0076474
6219.89990 0.00753429
6220.58984 0.00742114
6221.27002 0.00730804
6221.95996 0.00719483
6222.64990 0.00708096
6223.33008 0.00696827
6224.02002 0.00685443
6224.70996 0.00674048
6225.39990 0.00662763
6226.08984 0.00651363
6226.77002 0.00640015
6227.45996 0.00628665
6228.14990 0.0061737
6228.83984 0.00605952
6229.52979 0.00594531
6230.20996 0.00583221
6230.89990 0.005718
6231.58984 0.00560376
6232.27979 0.00549062
6232.97021 0.00537681
6233.64990 0.00526305
6234.33984 0.00514863
6235.02979 0.0050353
6235.72021 0.00492081
6236.41016 0.00480629
6237.10010 0.00469279
6860.81006 0.0
