# %ECSV 0.9
# ---
# datatype:
# - {name: wavelength, unit: Angstrom, datatype: float32}
# - {name: response, datatype: float32}
# meta: !!omap
# - {band_name: F475W_81}
# - {group_name: ACS_WFC}
wavelength response
3452.98486 0.0
3836.64990 0.00197367
3837.07007 0.00204518
3837.48999 0.00211716
3837.91992 0.00218932
3838.34009 0.00226162
3838.76001 0.00233338
3839.17993 0.00240596
3839.60010 0.00247906
3840.02002 0.00255162
3840.43994 0.00262459
3840.86011 0.00269732
3841.28003 0.00277061
3841.69995 0.00284365
3842.12012 0.00291717
3842.54004 0.00299053
3842.96997 0.00306475
3843.38989 0.00313834
3843.81006 0.0032125
3844.22998 0.0032864
3844.64990 0.00336083
3845.07007 0.00343501
3845.48999 0.00350976
3845.91992 0.0035846
3846.33008 0.0036589
3846.76001 0.00373402
3847.17993 0.00380972
3847.60010 0.00388517
3848.02002 0.00396005
3848.43994 0.00403578
3848.87012 0.00411169
3849.29004 0.00418774
3849.70996 0.00426357
3850.12988 0.0043619
3850.55005 0.00451197
3850.97998 0.00466079
3851.39990 0.00481069
3851.82007 0.00496089
3852.23999 0.0051107
3852.65991 0.00526072
3853.09009 0.00541192
3853.51001 0.00556343
3853.92993 0.00571446
3854.35010 0.00586588
3854.78003 0.0060191
3855.19995 0.00617193
3855.62012 0.00632427
3856.04004 0.006477
3856.46997 0.00663075
3856.88989 0.00678481
3857.31006 0.00693846
3857.72998 0.00709243
3858.15991 0.00724831
3858.58008 0.00740369
3859.00000 0.00755866
3859.42993 0.00771395
3859.85010 0.00787036
3860.27002 0.00808396
3860.68994 0.00832831
3861.12012 0.00857327
3861.54004 0.00881982
3861.95996 0.00906698
3862.38989 0.00931462
3862.81006 0.00956271
3863.23999 0.00981128
3863.65991 0.0100579
3864.08008 0.0103075
3864.51001 0.0105577
3864.92993 0.0108083
3865.35010 0.0110569
3865.78003 0.0113097
3866.19995 0.0115619
3866.62012 0.0118132
3867.05005 0.0120663
3867.46997 0.0123186
3867.88989 0.0125728
3868.32007 0.012826
3868.73999 0.0130812
3869.15991 0.0133355
3869.59009 0.0135917
3870.01001 0.0138507
3870.43994 0.0142444
3870.86011 0.0146348
3871.29004 0.0150279
3871.70996 0.0154201
3872.13989 0.015815
3872.56006 0.0162088
3872.97998 0.0166055
3873.40991 0.0170027
3873.83008 0.0174012
3874.26001 0.0178003
3874.67993 0.0181963
3875.11011 0.018597
3875.53003 0.0189987
3875.95996 0.0194012
3876.37988 0.0198006
3876.80005 0.0202048
3877.22998 0.02061
3877.65991 0.0210159
3878.08008 0.0214227
3878.51001 0.0218304
3878.92993 0.022237
3879.35010 0.0226441
3879.78003 0.0230544
3880.20996 0.0235402
3880.62988 0.0241039
3881.05005 0.0246691
3881.47998 0.0252409
3881.90991 0.0258114
3882.33008 0.0263801
3882.76001 0.02695
3883.17993 0.0275244
3883.61011 0.0280996
3884.03003 0.0286734
3884.45996 0.0292484
3884.88989 0.0298275
3885.31006 0.0304078
3885.73999 0.0309897
3886.15991 0.0315697
3886.59009 0.0321537
3887.02002 0.0327392
3887.43994 0.0333232
3887.86011 0.0339083
3888.29004 0.0344974
3888.71997 0.035088
3889.14990 0.0356799
3889.57007 0.0362729
3890.00000 0.0368672
3890.41992 0.0376016
3890.85010 0.038345
3891.28003 0.0390899
3891.69995 0.0398363
3892.12988 0.0405768
3892.55005 0.0413261
3892.97998 0.0420774
3893.40991 0.0428339
3893.84009 0.0435841
3894.26001 0.0443357
3894.68994 0.0450932
3895.12012 0.0458517
3895.54004 0.0466083
3895.96997 0.0473667
3896.39990 0.0481301
3896.82007 0.048895
3897.25000 0.0496618
3897.67993 0.0504262
3898.11011 0.0511959
3898.53003 0.0519632
3898.95996 0.0527364
3899.38989 0.0535106
3899.81006 0.0542827
3900.23999 0.0550741
3900.66992 0.0558849
3901.10010 0.0567021
3901.52002 0.0575084
3901.94995 0.0583244
3902.37988 0.0591424
3902.81006 0.0599621
3903.23999 0.0607797
3903.65991 0.0615986
3904.09009 0.0624238
3904.52002 0.063255
3904.94995 0.0640794
3905.37988 0.0649097
3905.80005 0.0657379
3906.22998 0.0665721
3906.65991 0.0674036
3907.09009 0.0682412
3907.51001 0.0690762
3907.93994 0.0699134
3908.37012 0.0707561
3908.80005 0.0716054
3909.22998 0.0724477
3909.65991 0.0732916
3910.09009 0.0741508
3910.51001 0.0750462
3910.93994 0.0759438
3911.37012 0.076834
3911.80005 0.0777351
3912.22998 0.078643
3912.65991 0.0795429
3913.09009 0.080445
3913.51001 0.0813535
3913.93994 0.0822637
3914.37012 0.0831714
3914.80005 0.084085
3915.22998 0.0849962
3915.65991 0.0859139
3916.09009 0.0868286
3916.52002 0.0877544
3916.94995 0.0886731
3917.37988 0.0895982
3917.80005 0.0905204
3918.23999 0.0914491
3918.66992 0.0923795
3919.09009 0.0933026
3919.52002 0.0942365
3919.94995 0.0951773
3920.38989 0.0960714
3920.81006 0.0969528
3921.23999 0.0978456
3921.66992 0.0987396
3922.10010 0.0996358
3922.53003 0.100529
3922.95996 0.101425
3923.38989 0.102326
3923.82007 0.103229
3924.25000 0.104135
3924.67993 0.105037
3925.11011 0.105946
3925.54004 0.106853
3925.96997 0.107765
3926.39990 0.10868
3926.83008 0.109591
3927.26001 0.110505
3927.68994 0.111429
3928.12012 0.112351
3928.55005 0.113271
3928.97998 0.114192
3929.40991 0.115119
3929.85010 0.116049
3930.28003 0.117003
3930.70996 0.117975
3931.13989 0.118952
3931.57007 0.119933
3932.00000 0.120915
3932.42993 0.121893
3932.86011 0.122879
3933.29004 0.123867
3933.71997 0.124851
3934.15991 0.125842
3934.59009 0.12683
3935.02002 0.127825
3935.44995 0.128822
3935.87988 0.12982
3936.31006 0.130815
3936.73999 0.131813
3937.16992 0.132816
3937.61011 0.133822
3938.04004 0.13483
3938.46997 0.13583
3938.89990 0.136841
3939.33008 0.137854
3939.77002 0.138875
3940.18994 0.139837
3940.62988 0.140755
3941.06006 0.141676
3941.48999 0.142594
3941.91992 0.143518
3942.35010 0.14444
3942.79004 0.145368
3943.21997 0.146297
3943.64990 0.147228
3944.08008 0.148157
3944.52002 0.149092
3944.94995 0.150024
3945.37988 0.150963
3945.81006 0.151903
3946.23999 0.152841
3946.67993 0.15378
3947.11011 0.154726
3947.55005 0.155678
3947.97998 0.156624
3948.40991 0.15757
3948.84009 0.158523
3949.27002 0.159478
3949.70996 0.160431
3950.13989 0.161426
3950.57007 0.162517
3951.01001 0.16361
3951.43994 0.164706
3951.87012 0.165797
3952.30005 0.166896
3952.73999 0.167992
3953.16992 0.169095
3953.60010 0.170195
3954.04004 0.171302
3954.46997 0.172405
3954.89990 0.173517
3955.34009 0.174635
3955.77002 0.17575
3956.19995 0.176856
3956.63989 0.177976
3957.07007 0.179097
3957.51001 0.180221
3957.93994 0.181335
3958.37012 0.182462
3958.81006 0.183597
3959.23999 0.184723
3959.67993 0.185857
3960.11011 0.186974
3960.54004 0.188059
3960.97998 0.18914
3961.40991 0.190229
3961.84009 0.191314
3962.28003 0.192407
3962.70996 0.193497
3963.14990 0.194593
3963.58008 0.195693
3964.01001 0.196787
3964.44995 0.19789
3964.88989 0.198995
3965.32007 0.200097
3965.75000 0.201201
3966.18994 0.202312
3966.62012 0.20343
3967.06006 0.204545
3967.48999 0.205651
3967.92993 0.206771
3968.36011 0.207892
3968.80005 0.209015
3969.22998 0.210129
3969.66992 0.211256
3970.10010 0.212411
3970.54004 0.213647
3970.96997 0.214881
3971.40991 0.216129
3971.84009 0.217366
3972.28003 0.218607
3972.70996 0.219854
3973.14990 0.221105
3973.58008 0.222351
3974.02002 0.223599
3974.44995 0.224855
3974.88989 0.226121
3975.33008 0.227376
3975.76001 0.228633
3976.19995 0.229898
3976.63989 0.231166
3977.07007 0.232429
3977.50000 0.233695
3977.93994 0.23497
3978.37988 0.236246
3978.81006 0.237518
3979.25000 0.238799
3979.68994 0.240082
3980.12012 0.241329
3980.56006 0.242477
3980.98999 0.243625
3981.42993 0.244782
3981.87012 0.245941
3982.30005 0.247096
3982.73999 0.248265
3983.17993 0.24943
3983.61011 0.250585
3984.05005 0.251754
3984.48999 0.252925
3984.91992 0.254099
3985.36011 0.255262
3985.79004 0.256441
3986.22998 0.257621
3986.66992 0.258802
3987.11011 0.259986
3987.54004 0.261166
3987.97998 0.262355
3988.41992 0.263539
3988.85010 0.264732
3989.29004 0.26592
3989.72998 0.267117
3990.15991 0.268289
3990.60010 0.26944
3991.04004 0.27058
3991.47998 0.271729
3991.90991 0.272874
3992.35010 0.274026
3992.79004 0.275174
3993.22998 0.276324
3993.65991 0.277482
3994.10010 0.278642
3994.54004 0.279804
3994.97998 0.280962
3995.41992 0.282128
3995.86011 0.283295
3996.29004 0.284464
3996.72998 0.285623
3997.16992 0.286797
3997.61011 0.287972
3998.05005 0.289149
3998.47998 0.290328
3998.91992 0.291509
3999.36011 0.292685
3999.80005 0.293863
4000.23999 0.294915
4000.67993 0.295851
4001.11011 0.296783
4001.55005 0.297717
4001.98999 0.298656
4002.42993 0.299597
4002.87012 0.300538
4003.30005 0.301476
4003.73999 0.30242
4004.17993 0.303365
4004.62012 0.304306
4005.06006 0.305247
4005.50000 0.306194
4005.93994 0.307143
4006.37988 0.308093
4006.82007 0.309039
4007.26001 0.309991
4007.69995 0.310943
4008.12988 0.311893
4008.57007 0.312848
4009.01001 0.3138
4009.44995 0.314757
4009.88989 0.31571
4010.33008 0.316662
4010.77002 0.317611
4011.20996 0.318557
4011.64990 0.319508
4012.09009 0.320461
4012.53003 0.321414
4012.96997 0.32236
4013.40991 0.323315
4013.85010 0.324271
4014.29004 0.325234
4014.72998 0.326183
4015.16992 0.327143
4015.61011 0.328104
4016.05005 0.329061
4016.48999 0.330023
4016.92993 0.330981
4017.37012 0.331946
4017.81006 0.332907
4018.25000 0.333873
4018.68994 0.334841
4019.12988 0.33581
4019.57007 0.336775
4020.01001 0.337745
4020.44995 0.338671
4020.88989 0.339593
4021.33008 0.340517
4021.77002 0.341446
4022.21997 0.34238
4022.64990 0.343302
4023.10010 0.344234
4023.54004 0.345168
4023.97998 0.346102
4024.41992 0.347029
4024.86011 0.347965
4025.30005 0.348903
4025.73999 0.349842
4026.17993 0.350776
4026.62012 0.351712
4027.07007 0.352659
4027.51001 0.353597
4027.94995 0.35454
4028.38989 0.355485
4028.83008 0.356427
4029.27002 0.357369
4029.70996 0.358318
4030.15991 0.359371
4030.60010 0.360595
4031.04004 0.36182
4031.47998 0.363052
4031.91992 0.364286
4032.36011 0.365516
4032.80005 0.366746
4033.25000 0.367983
4033.68994 0.369223
4034.12988 0.370463
4034.57007 0.371698
4035.02002 0.372941
4035.45996 0.374186
4035.89990 0.375425
4036.34009 0.376666
4036.79004 0.377914
4037.22998 0.379164
4037.66992 0.380409
4038.12012 0.381667
4038.56006 0.382921
4039.00000 0.384163
4039.43994 0.38542
4039.88989 0.386678
4040.33008 0.387896
4040.77002 0.389091
4041.20996 0.390299
4041.65991 0.391508
4042.10010 0.392718
4042.54004 0.393917
4042.98999 0.395136
4043.42993 0.396349
4043.87012 0.397565
4044.31006 0.398775
4044.76001 0.399986
4045.19995 0.401204
4045.63989 0.402424
4046.09009 0.403638
4046.53003 0.404861
4046.96997 0.406084
4047.41992 0.407302
4047.86011 0.408528
4048.30005 0.409749
4048.75000 0.410976
4049.18994 0.4122
4049.63989 0.41343
4050.08008 0.414694
4050.52002 0.416151
4050.96997 0.417609
4051.40991 0.419068
4051.86011 0.420529
4052.30005 0.421976
4052.73999 0.423439
4053.18994 0.424904
4053.62988 0.426369
4054.08008 0.427836
4054.52002 0.429304
4054.96997 0.430768
4055.40991 0.432239
4055.85010 0.433704
4056.30005 0.435178
4056.73999 0.436654
4057.18994 0.438123
4057.62988 0.439594
4058.08008 0.441074
4058.52002 0.442554
4058.96997 0.444029
4059.40991 0.445511
4059.86011 0.446996
4060.30005 0.448208
4060.75000 0.449299
4061.18994 0.450385
4061.63989 0.451478
4062.08008 0.452565
4062.53003 0.45366
4062.96997 0.454756
4063.41992 0.455853
4063.86011 0.456945
4064.31006 0.458039
4064.75000 0.459139
4065.19995 0.46024
4065.63989 0.461337
4066.09009 0.462434
4066.53003 0.463539
4066.97998 0.46465
4067.42993 0.46575
4067.87012 0.466857
4068.32007 0.467966
4068.76001 0.469064
4069.20996 0.470175
4069.65991 0.471286
4070.10010 0.472386
4070.55005 0.473442
4070.98999 0.474494
4071.43994 0.475553
4071.88989 0.476612
4072.33008 0.477667
4072.78003 0.478727
4073.21997 0.479784
4073.66992 0.480848
4074.12012 0.481907
4074.56006 0.482972
4075.01001 0.484038
4075.45996 0.485101
4075.90991 0.486171
4076.35010 0.487235
4076.80005 0.488306
4077.23999 0.489372
4077.68994 0.490445
4078.13989 0.491524
4078.59009 0.492599
4079.03003 0.493664
4079.47998 0.494741
4079.92993 0.495819
4080.37012 0.496416
4080.82007 0.496927
4081.27002 0.497437
4081.71997 0.497948
4082.15991 0.498454
4082.61011 0.498966
4083.06006 0.499481
4083.51001 0.499993
4083.94995 0.500503
4084.39990 0.501017
4084.85010 0.501531
4085.30005 0.502042
4085.73999 0.502554
4086.18994 0.503069
4086.63989 0.503584
4087.09009 0.504098
4087.53003 0.504614
4087.97998 0.505131
4088.42993 0.505645
4088.87988 0.506162
4089.32007 0.506678
4089.77002 0.507196
4090.21997 0.507767
4090.66992 0.508397
4091.12012 0.509028
4091.57007 0.509659
4092.02002 0.510288
4092.45996 0.510917
4092.90991 0.511549
4093.36011 0.512183
4093.81006 0.512814
4094.26001 0.513452
4094.70996 0.514087
4095.15991 0.514719
4095.61011 0.515351
4096.06006 0.515988
4096.50000 0.516625
4096.95020 0.517263
4097.39990 0.517895
4097.85010 0.518533
4098.29980 0.519172
4098.75000 0.519811
4099.20020 0.520448
4099.64990 0.521088
4100.10010 0.521713
4100.54980 0.522279
4100.99023 0.522845
4101.43994 0.523414
4101.89014 0.523984
4102.33984 0.524551
4102.79004 0.525121
4103.24023 0.525692
4103.68994 0.52626
4104.14014 0.526831
4104.58984 0.527401
4105.04004 0.527974
4105.49023 0.528543
4105.93994 0.529116
4106.39014 0.529686
4106.83984 0.53026
4107.29004 0.530832
4107.74023 0.53141
4108.18994 0.531985
4108.64014 0.532561
4109.08984 0.533132
4109.54004 0.533708
4109.99023 0.534285
4110.43994 0.535072
4110.89990 0.535865
4111.35010 0.536655
4111.79980 0.537448
4112.24023 0.538239
4112.70020 0.539034
4113.14990 0.539826
4113.60010 0.540622
4114.04980 0.541415
4114.50000 0.542213
4114.95020 0.543011
4115.39990 0.543807
4115.85010 0.544606
4116.29980 0.545407
4116.75000 0.546204
4117.20020 0.547001
4117.66016 0.547803
4118.10986 0.548605
4118.56006 0.549414
4119.00977 0.550211
4119.45996 0.551015
4119.91016 0.551821
4120.37012 0.552587
4120.81006 0.553338
4121.27002 0.554097
4121.72021 0.554857
4122.16992 0.555616
4122.62012 0.556368
4123.06982 0.557129
4123.52979 0.557892
4123.97998 0.558654
4124.43018 0.559415
4124.87988 0.560178
4125.33984 0.560938
4125.79004 0.561698
4126.24023 0.562462
4126.68994 0.563227
4127.14990 0.563992
4127.60010 0.564755
4128.04980 0.565522
4128.50000 0.566289
4128.95020 0.567054
4129.39990 0.567818
4129.85986 0.568587
4130.31006 0.569491
4130.75977 0.570453
4131.22021 0.571422
4131.66992 0.572387
4132.12012 0.573361
4132.56982 0.574326
4133.02979 0.575293
4133.47998 0.576264
4133.93018 0.577238
4134.39014 0.578206
4134.83984 0.579178
4135.29980 0.580158
4135.74023 0.581123
4136.20020 0.5821
4136.64990 0.583076
4137.10986 0.584054
4137.56006 0.585023
4138.00977 0.586002
4138.47021 0.586981
4138.91992 0.58796
4139.37012 0.588933
4139.81982 0.589915
4140.27979 0.590621
4140.72998 0.591149
4141.18994 0.591679
4141.64014 0.592207
4142.10010 0.592739
4142.54980 0.593267
4143.00000 0.593799
4143.45996 0.594331
4143.91016 0.594863
4144.37012 0.595395
4144.81982 0.595929
4145.27002 0.59646
4145.72998 0.596994
4146.18018 0.597526
4146.64014 0.598062
4147.08984 0.598598
4147.54004 0.599128
4148.00000 0.599665
4148.45996 0.600204
4148.91016 0.600741
4149.35986 0.601273
4149.81982 0.601812
4150.27002 0.602302
4150.72998 0.602762
4151.18018 0.603219
4151.64014 0.603678
4152.10010 0.604137
4152.54980 0.604595
4153.00977 0.605056
4153.45996 0.605516
4153.91016 0.605973
4154.37012 0.606432
4154.81982 0.606894
4155.27979 0.607355
4155.72998 0.607815
4156.18994 0.608274
4156.64990 0.608739
4157.10010 0.609202
4157.56006 0.609663
4158.00977 0.610124
4158.47021 0.610587
4158.93018 0.611049
4159.37988 0.611511
4159.83984 0.611974
4160.29004 0.612126
4160.75000 0.612103
4161.20020 0.612079
4161.66016 0.612056
4162.12012 0.612032
4162.56982 0.612007
4163.02979 0.611983
4163.47998 0.611959
4163.93994 0.611935
4164.39990 0.61191
4164.85010 0.611885
4165.31006 0.611861
4165.77002 0.611835
4166.22021 0.611811
4166.68018 0.611786
4167.14014 0.611762
4167.58984 0.611736
4168.04980 0.61171
4168.50977 0.611684
4168.97021 0.611658
4169.41992 0.611633
4169.87988 0.611607
4170.33008 0.611771
4170.79004 0.612003
4171.25000 0.612236
4171.70996 0.61247
4172.16016 0.612703
4172.62012 0.612937
4173.08008 0.61317
4173.54004 0.613404
4173.99023 0.613637
4174.45020 0.613871
4174.91016 0.614103
4175.35986 0.614338
4175.81982 0.614572
4176.27979 0.614806
4176.74023 0.61504
4177.20020 0.615275
4177.64990 0.615509
4178.10986 0.615743
4178.56982 0.615977
4179.02979 0.616212
4179.49023 0.616447
4179.93994 0.61668
4180.39990 0.616703
4180.85986 0.616694
4181.31982 0.616686
4181.77979 0.616677
4182.22998 0.616668
4182.68994 0.616659
4183.14990 0.616649
4183.60986 0.61664
4184.06982 0.616631
4184.52979 0.616621
4184.97998 0.616612
4185.43994 0.616602
4185.89990 0.616592
4186.35986 0.616583
4186.81982 0.616572
4187.27979 0.616562
4187.74023 0.616552
4188.20020 0.616541
4188.64990 0.616532
4189.10986 0.616521
4189.56982 0.616509
4190.02979 0.616541
4190.49023 0.617136
4190.95020 0.617733
4191.41016 0.618331
4191.87012 0.618927
4192.33008 0.619526
4192.79004 0.620126
4193.25000 0.620722
4193.70996 0.621322
4194.16992 0.621922
4194.62988 0.622522
4195.08984 0.623116
4195.54980 0.623717
4196.00977 0.624319
4196.47021 0.62492
4196.91992 0.625516
4197.37988 0.626118
4197.85010 0.626724
4198.31006 0.627327
4198.77002 0.627927
4199.22998 0.628528
4199.68994 0.629132
4200.14990 0.629675
4200.60986 0.630089
4201.06982 0.630504
4201.52979 0.63092
4201.99023 0.631333
4202.45020 0.63175
4202.91016 0.632166
4203.37012 0.632582
4203.83008 0.632997
4204.29004 0.633414
4204.75000 0.633832
4205.20996 0.634247
4205.66992 0.634663
4206.12988 0.635081
4206.60010 0.635502
4207.06006 0.635917
4207.52002 0.636336
4207.97998 0.636754
4208.43994 0.637173
4208.89990 0.637591
4209.35986 0.638011
4209.81982 0.638431
4210.29004 0.63918
4210.75000 0.640126
4211.20996 0.641076
4211.66992 0.642024
4212.12988 0.642976
4212.58984 0.643924
4213.06006 0.644879
4213.52002 0.645828
4213.97998 0.646778
4214.43994 0.647734
4214.89990 0.648695
4215.35986 0.649646
4215.81982 0.650597
4216.29004 0.651555
4216.75000 0.652513
4217.20996 0.653472
4217.66992 0.654426
4218.14014 0.655386
4218.60010 0.656346
4219.06006 0.657303
4219.52002 0.658259
4219.97998 0.659221
4220.45020 0.65973
4220.91016 0.66022
4221.37012 0.660713
4221.83008 0.661204
4222.29980 0.661698
4222.75977 0.662191
4223.22998 0.662688
4223.68994 0.663182
4224.14990 0.663674
4224.60986 0.664167
4225.06982 0.664663
4225.54004 0.665159
4226.00000 0.665651
4226.47021 0.666147
4226.93018 0.666644
4227.39014 0.66714
4227.85010 0.667635
4228.31982 0.66813
4228.77979 0.668628
4229.25000 0.669126
4229.70996 0.66962
4230.16992 0.670277
4230.62988 0.671201
4231.10010 0.67213
4231.56006 0.673061
4232.02979 0.673987
4232.49023 0.674917
4232.95020 0.675843
4233.41992 0.676774
4233.87988 0.677701
4234.35010 0.678633
4234.81006 0.679566
4235.27002 0.680498
4235.74023 0.681431
4236.20020 0.682356
4236.66992 0.683291
4237.12988 0.684227
4237.60010 0.685161
4238.06006 0.686088
4238.52002 0.687025
4238.99023 0.687961
4239.45020 0.688898
4239.91992 0.689836
4240.37988 0.690415
4240.85010 0.690914
4241.31006 0.691417
4241.77979 0.691918
4242.24023 0.692422
4242.70996 0.692926
4243.16992 0.693428
4243.64014 0.693933
4244.10010 0.694437
4244.56982 0.694939
4245.02979 0.69544
4245.50000 0.695945
4245.95996 0.696451
4246.43018 0.696953
4246.89014 0.697458
4247.35986 0.697962
4247.81982 0.698468
4248.29004 0.698974
4248.75000 0.699478
4249.22021 0.699985
4249.68994 0.700492
4250.14990 0.701085
4250.62012 0.701863
4251.08008 0.702644
4251.54980 0.703429
4252.02002 0.704207
4252.47998 0.704989
4252.95020 0.705771
4253.41016 0.70655
4253.87988 0.70733
4254.35010 0.708114
4254.81006 0.708897
4255.27979 0.709681
4255.74023 0.710458
4256.20996 0.711243
4256.68018 0.712033
4257.14990 0.712815
4257.60986 0.713597
4258.08008 0.714385
4258.54980 0.715171
4259.00977 0.715955
4259.47998 0.716742
4259.95020 0.717529
4260.41016 0.717845
4260.87988 0.718099
4261.33984 0.718352
4261.81006 0.718607
4262.27979 0.71886
4262.75000 0.719115
4263.20996 0.719368
4263.68018 0.719622
4264.14990 0.719875
4264.60986 0.72013
4265.08008 0.720387
4265.54980 0.720641
4266.02002 0.720894
4266.47998 0.721149
4266.95020 0.721405
4267.41992 0.721661
4267.89014 0.721914
4268.35986 0.722171
4268.81982 0.722426
4269.29004 0.722681
4269.75977 0.722937
4270.22998 0.723386
4270.70020 0.724043
4271.16016 0.724697
4271.62988 0.725354
4272.10010 0.726012
4272.56982 0.726668
4273.02979 0.727323
4273.50000 0.727981
4273.97021 0.72864
4274.43994 0.729295
4274.91016 0.729954
4275.37988 0.730614
4275.85010 0.73127
4276.31006 0.731931
4276.77979 0.732591
4277.25000 0.733252
4277.72021 0.733913
4278.18994 0.734567
4278.66016 0.73523
4279.12988 0.735893
4279.60010 0.736555
4280.06006 0.737153
4280.52979 0.737395
4281.00000 0.737637
4281.47021 0.737879
4281.93994 0.738122
4282.41016 0.738365
4282.87988 0.738606
4283.35010 0.738846
4283.81982 0.739089
4284.29004 0.739332
4284.75977 0.739574
4285.22998 0.739816
4285.70020 0.740059
4286.16992 0.740301
4286.64014 0.740544
4287.10986 0.740787
4287.58008 0.741029
4288.04980 0.741271
4288.52002 0.741513
4288.99023 0.741757
4289.45996 0.742
4289.93018 0.742244
4290.39990 0.742733
4290.87012 0.743271
4291.33984 0.743809
4291.81006 0.744348
4292.27979 0.744884
4292.75000 0.745419
4293.22021 0.745958
4293.68994 0.746497
4294.16016 0.747036
4294.62988 0.747575
4295.10010 0.748116
4295.56982 0.748651
4296.04004 0.749192
4296.50977 0.749732
4296.99023 0.750272
4297.45020 0.750808
4297.93018 0.75135
4298.39990 0.751892
4298.87012 0.752435
4299.33984 0.752976
4299.81006 0.753515
4300.27979 0.753777
4300.75000 0.753851
4301.22998 0.753926
4301.70020 0.754
4302.16992 0.754074
4302.64014 0.754148
4303.10986 0.754221
4303.58008 0.754297
4304.04980 0.754371
4304.52002 0.754445
4305.00000 0.75452
4305.47021 0.754594
4305.93994 0.754668
4306.41016 0.754742
4306.87988 0.754817
4307.35986 0.754891
4307.83008 0.754966
4308.29980 0.755041
4308.77002 0.755115
4309.25000 0.75519
4309.72021 0.755264
4310.18994 0.755502
4310.66016 0.755987
4311.14014 0.756469
4311.60986 0.756953
4312.08008 0.757438
4312.54980 0.757921
4313.02002 0.758404
4313.50000 0.758891
4313.97021 0.759377
4314.43994 0.759863
4314.91016 0.760345
4315.39014 0.760832
4315.85986 0.761319
4316.33984 0.761806
4316.81006 0.762291
4317.27979 0.762778
4317.75000 0.763266
4318.22998 0.763752
4318.70020 0.764241
4319.18018 0.764729
4319.64990 0.765218
4320.12012 0.76561
4320.58984 0.765729
4321.06982 0.765848
4321.54004 0.765967
4322.00977 0.766085
4322.49023 0.766205
4322.95996 0.766325
4323.43994 0.766444
4323.91016 0.766564
4324.37988 0.766683
4324.85986 0.766803
4325.33008 0.766922
4325.81006 0.767041
4326.27979 0.76716
4326.75977 0.76728
4327.22998 0.767398
4327.70020 0.767518
4328.18018 0.767638
4328.64990 0.767758
4329.12988 0.767878
4329.60010 0.767997
4330.06982 0.768147
4330.54980 0.768466
4331.02002 0.768786
4331.50000 0.769107
4331.97021 0.769426
4332.43994 0.769745
4332.91992 0.770066
4333.39990 0.770387
4333.87012 0.770708
4334.35010 0.771028
4334.81982 0.77135
4335.29980 0.771669
4335.77002 0.771991
4336.24023 0.772311
4336.72021 0.772633
4337.20020 0.772955
4337.66992 0.773273
4338.14990 0.773595
4338.62012 0.773917
4339.10010 0.774239
4339.56982 0.774559
4340.04980 0.774863
4340.52002 0.775008
4341.00000 0.775152
4341.47998 0.775295
4341.95020 0.77544
4342.43018 0.775584
4342.89990 0.775728
4343.37988 0.775871
4343.85986 0.776015
4344.33008 0.776159
4344.81006 0.776303
4345.29004 0.776448
4345.75977 0.776593
4346.24023 0.776737
4346.70996 0.77688
4347.18994 0.777025
4347.66992 0.777169
4348.14014 0.777314
4348.62012 0.777458
4349.10010 0.777603
4349.56982 0.777748
4350.04980 0.777916
4350.52002 0.778279
4351.00000 0.778643
4351.47998 0.779008
4351.95996 0.779371
4352.43018 0.779734
4352.91016 0.7801
4353.39014 0.780466
4353.87012 0.780833
4354.33984 0.781198
4354.81982 0.781564
4355.29980 0.781926
4355.77002 0.782292
4356.25000 0.782658
4356.72998 0.783025
4357.20020 0.783389
4357.68018 0.783756
4358.16016 0.784122
4358.64014 0.784489
4359.12012 0.784856
4359.58984 0.785221
4360.06982 0.785571
4360.54980 0.785829
4361.02979 0.786086
4361.50000 0.786341
4361.97998 0.786598
4362.45996 0.786856
4362.93994 0.787114
4363.41992 0.78737
4363.89990 0.787627
4364.37012 0.787884
4364.85010 0.788142
4365.33008 0.7884
4365.81006 0.788656
4366.29004 0.788913
4366.77002 0.789171
4367.24023 0.78943
4367.72021 0.789688
4368.20020 0.789946
4368.68018 0.790205
4369.16016 0.790463
4369.64014 0.790721
4370.12012 0.790981
4370.60010 0.791247
4371.08008 0.791514
4371.56006 0.791778
4372.02979 0.792044
4372.50977 0.792309
4372.99023 0.792576
4373.47021 0.792842
4373.95020 0.793109
4374.43018 0.793374
4374.91016 0.793639
4375.39014 0.793907
4375.87012 0.794174
4376.35010 0.794441
4376.83008 0.794706
4377.31006 0.794973
4377.79004 0.795241
4378.27002 0.795509
4378.74023 0.795775
4379.22998 0.796043
4379.70996 0.796311
4380.18994 0.796542
4380.66016 0.79672
4381.14990 0.796899
4381.62988 0.797078
4382.10986 0.797256
4382.58984 0.797435
4383.06982 0.797613
4383.54980 0.797792
4384.02979 0.797971
4384.50977 0.798149
4384.99023 0.798328
4385.47021 0.798507
4385.95020 0.798685
4386.43018 0.798865
4386.91016 0.799044
4387.39014 0.799221
4387.87012 0.7994
4388.35010 0.799581
4388.83984 0.799761
4389.31006 0.799938
4389.79980 0.800117
4390.27979 0.800156
4390.75977 0.800093
4391.24023 0.80003
4391.72021 0.799968
4392.20020 0.799905
4392.68994 0.799842
4393.16016 0.799779
4393.64990 0.799715
4394.12988 0.799652
4394.60986 0.799589
4395.08984 0.799527
4395.56982 0.799464
4396.06006 0.799402
4396.52979 0.799339
4397.02002 0.799276
4397.50000 0.799213
4397.97998 0.79915
4398.45996 0.799087
4398.95020 0.799023
4399.43018 0.79896
4399.91016 0.798897
4400.39014 0.798796
4400.87012 0.798685
4401.35986 0.798575
4401.83984 0.798464
4402.31982 0.798354
4402.81006 0.798243
4403.29004 0.798133
4403.77002 0.798023
4404.25000 0.797913
4404.72998 0.797802
4405.22021 0.79769
4405.70020 0.797579
4406.18994 0.797467
4406.66992 0.797356
4407.14990 0.797246
4407.62988 0.797135
4408.12012 0.797024
4408.60010 0.796913
4409.08008 0.796802
4409.56006 0.796691
4410.04980 0.796606
4410.52979 0.796765
4411.00977 0.796924
4411.50000 0.797083
4411.97998 0.797243
4412.45996 0.797403
4412.95020 0.797563
4413.43018 0.797722
4413.91992 0.797882
4414.39990 0.798042
4414.89014 0.798202
4415.37012 0.798362
4415.85010 0.798521
4416.33008 0.79868
4416.81982 0.798841
4417.31006 0.799001
4417.79004 0.79916
4418.27002 0.799319
4418.75977 0.79948
4419.24023 0.799641
4419.72998 0.799801
4420.20996 0.799844
4420.68994 0.799733
4421.18018 0.799622
4421.66016 0.79951
4422.14990 0.799399
4422.62988 0.799287
4423.12012 0.799175
4423.60010 0.799063
4424.08984 0.798952
4424.56982 0.79884
4425.04980 0.798728
4425.54004 0.798615
4426.02002 0.798502
4426.50977 0.79839
4426.99023 0.798279
4427.47998 0.798166
4427.97021 0.798054
4428.45020 0.797941
4428.93994 0.797828
4429.41992 0.797715
4429.91016 0.797603
4430.39990 0.797802
4430.87988 0.798071
4431.35986 0.798342
4431.85010 0.798616
4432.33984 0.798887
4432.81982 0.799159
4433.31006 0.79943
4433.79004 0.799702
4434.27979 0.799973
4434.77002 0.800245
4435.25000 0.800516
4435.74023 0.800787
4436.22021 0.801058
4436.70996 0.80133
4437.18994 0.801603
4437.68018 0.801875
4438.16992 0.802148
4438.64990 0.80242
4439.14014 0.802691
4439.62012 0.802962
4440.10986 0.80322
4440.60010 0.803432
4441.08984 0.803646
4441.56982 0.803857
4442.06006 0.80407
4442.54980 0.804282
4443.04004 0.804494
4443.52002 0.804704
4444.00977 0.804916
4444.49023 0.805128
4444.97998 0.80534
4445.47021 0.805552
4445.95020 0.805764
4446.43994 0.805977
4446.93018 0.806189
4447.41992 0.806401
4447.91016 0.806614
4448.39014 0.806825
4448.87988 0.807036
4449.37012 0.807248
4449.85986 0.807463
4450.35010 0.807801
4450.83008 0.80819
4451.31982 0.808582
4451.81006 0.808975
4452.29004 0.809365
4452.77979 0.809756
4453.27002 0.810148
4453.75977 0.81054
4454.25000 0.810931
4454.72998 0.811323
4455.22021 0.811715
4455.70996 0.812108
4456.20020 0.812499
4456.68994 0.81289
4457.18018 0.813282
4457.66016 0.813673
4458.14990 0.814065
4458.64014 0.81446
4459.12988 0.814853
4459.62012 0.815242
4460.10986 0.815626
4460.60010 0.815979
4461.08984 0.816332
4461.56982 0.816679
4462.06006 0.81703
4462.54980 0.817384
4463.04004 0.817736
4463.52979 0.818086
4464.02002 0.818439
4464.50977 0.818792
4465.00000 0.819143
4465.49023 0.819496
4465.97998 0.819849
4466.47021 0.8202
4466.95020 0.820551
4467.43994 0.820904
4467.93994 0.821257
4468.43018 0.821611
4468.91016 0.821963
4469.39990 0.822316
4469.89014 0.822668
4470.37988 0.823064
4470.87012 0.823469
4471.35986 0.823876
4471.85010 0.824281
4472.33984 0.824688
4472.83008 0.825095
4473.31982 0.825503
4473.81982 0.825911
4474.29980 0.826315
4474.79004 0.826723
4475.27979 0.827131
4475.77979 0.827539
4476.27002 0.827946
4476.75977 0.828355
4477.25000 0.828761
4477.74023 0.829167
4478.22998 0.829575
4478.72021 0.829983
4479.20996 0.830392
4479.70020 0.830797
4480.18994 0.831177
4480.68018 0.831511
4481.18018 0.831847
4481.66992 0.83218
4482.16016 0.832516
4482.64990 0.832851
4483.14014 0.833184
4483.62988 0.833519
4484.12012 0.833852
4484.60986 0.834188
4485.10010 0.834522
4485.60010 0.834857
4486.08984 0.835192
4486.58008 0.835528
4487.06982 0.835861
4487.56006 0.836195
4488.06006 0.836531
4488.54980 0.836865
4489.04004 0.837199
4489.52979 0.837533
4490.02002 0.83787
4490.50977 0.838243
4491.00977 0.838615
4491.50000 0.838988
4491.99023 0.839362
4492.47998 0.83973
4492.97998 0.840103
4493.47021 0.840476
4493.95996 0.840849
4494.45020 0.84122
4494.95020 0.841591
4495.43994 0.841965
4495.93018 0.842337
4496.43018 0.842711
4496.91992 0.843083
4497.41016 0.843454
4497.89990 0.843826
4498.39990 0.8442
4498.89014 0.844574
4499.37988 0.844947
4499.87988 0.845318
4500.37012 0.845521
4500.85986 0.845666
4501.35010 0.845811
4501.85010 0.845955
4502.33984 0.846101
4502.83984 0.846246
4503.33008 0.84639
4503.81982 0.846534
4504.31982 0.846679
4504.81006 0.846825
4505.29980 0.846968
4505.79980 0.847112
4506.29004 0.847257
4506.77979 0.847402
4507.27002 0.847545
4507.77002 0.84769
4508.27002 0.847836
4508.75977 0.84798
4509.25000 0.848124
4509.75000 0.848269
4510.24023 0.848468
4510.72998 0.84872
4511.22998 0.848974
4511.72998 0.849229
4512.22021 0.849483
4512.70996 0.849737
4513.20996 0.849991
4513.70020 0.850246
4514.20020 0.8505
4514.68994 0.850754
4515.18994 0.851008
4515.68018 0.851263
4516.18018 0.851516
4516.66992 0.851772
4517.16992 0.852027
4517.66016 0.85228
4518.16016 0.852533
4518.64990 0.852786
4519.14990 0.853041
4519.64014 0.853296
4520.14014 0.853495
4520.64014 0.853549
4521.12988 0.853602
4521.62012 0.853657
4522.12012 0.853711
4522.62012 0.853766
4523.10986 0.85382
4523.60010 0.853874
4524.10010 0.853928
4524.60010 0.853983
4525.10010 0.854038
4525.58984 0.854092
4526.08008 0.854146
4526.58008 0.8542
4527.08008 0.854255
4527.56982 0.854308
4528.06982 0.854362
4528.56982 0.854416
4529.06006 0.85447
4529.56006 0.854524
4530.06006 0.854573
4530.54980 0.854575
4531.04980 0.854577
4531.54980 0.854579
4532.04004 0.854581
4532.54004 0.854583
4533.02979 0.854584
4533.52979 0.854586
4534.02979 0.854587
4534.52002 0.854589
4535.02002 0.854591
4535.52002 0.854593
4536.02002 0.854595
4536.50977 0.854596
4537.00977 0.854598
4537.50977 0.854598
4538.00977 0.854599
4538.50977 0.854601
4539.00000 0.854603
4539.50000 0.854605
4540.00000 0.854607
4540.49023 0.854579
4540.99023 0.854552
4541.49023 0.854527
4541.99023 0.854503
4542.47998 0.854478
4542.97998 0.854452
4543.47998 0.854425
4543.97998 0.854399
4544.47998 0.854372
4544.97998 0.854346
4545.47021 0.85432
4545.97021 0.854293
4546.47021 0.854267
4546.97021 0.854241
4547.47021 0.854214
4547.95996 0.854187
4548.45996 0.854161
4548.95996 0.854135
4549.45996 0.854108
4549.95996 0.854081
4550.45020 0.853875
4550.95020 0.853651
4551.45020 0.853427
4551.95020 0.853202
4552.45020 0.852979
4552.95020 0.852755
4553.45020 0.852531
4553.95020 0.852306
4554.45020 0.852081
4554.93994 0.851858
4555.43994 0.851633
4555.93994 0.851408
4556.43994 0.851184
4556.93994 0.85096
4557.43994 0.850735
4557.93994 0.85051
4558.43994 0.850284
4558.93994 0.85006
4559.43994 0.849836
4559.93994 0.84961
4560.43994 0.849535
4560.93994 0.849479
4561.43994 0.849423
4561.93994 0.849366
4562.43994 0.84931
4562.93994 0.849255
4563.43994 0.849199
4563.93994 0.849143
4564.43994 0.849087
4564.93994 0.84903
4565.43994 0.848974
4565.93994 0.848917
4566.43994 0.848861
4566.93994 0.848805
4567.43994 0.848748
4567.93994 0.848691
4568.43994 0.848634
4568.93994 0.848577
4569.43994 0.84852
4569.93994 0.848464
4570.43994 0.848235
4570.93994 0.847983
4571.45020 0.84773
4571.95020 0.847479
4572.45020 0.847226
4572.95020 0.846974
4573.45020 0.846722
4573.95020 0.846473
4574.45020 0.84622
4574.95996 0.845966
4575.45996 0.845715
4575.95996 0.845462
4576.45996 0.845209
4576.95996 0.844957
4577.45996 0.844705
4577.95996 0.844452
4578.47021 0.844199
4578.97021 0.843946
4579.47021 0.843693
4579.97021 0.84344
4580.47998 0.843507
4580.97998 0.843594
4581.47998 0.84368
4581.97998 0.843767
4582.47998 0.843854
4582.97998 0.843941
4583.49023 0.844028
4583.99023 0.844115
4584.49023 0.844202
4584.99023 0.844289
4585.50000 0.844376
4586.00000 0.844463
4586.50000 0.844549
4587.00000 0.844635
4587.50977 0.844721
4588.00977 0.844808
4588.50977 0.844894
4589.00977 0.844981
4589.52002 0.845068
4590.02002 0.84515
4590.52002 0.845141
4591.02979 0.845132
4591.52979 0.845124
4592.02979 0.845115
4592.54004 0.845107
4593.04004 0.845099
4593.54980 0.84509
4594.04980 0.84508
4594.54980 0.845073
4595.04980 0.845065
4595.56006 0.845056
4596.06006 0.845047
4596.56006 0.845038
4597.06982 0.845029
4597.56982 0.845019
4598.06982 0.84501
4598.58008 0.845001
4599.08984 0.844992
4599.58984 0.844983
4600.08984 0.845069
4600.60010 0.845584
4601.10010 0.846099
4601.60986 0.846614
4602.10986 0.847126
4602.60986 0.847641
4603.12012 0.848156
4603.62012 0.848668
4604.12988 0.849183
4604.62988 0.849696
4605.14014 0.850211
4605.64014 0.850724
4606.14990 0.851239
4606.64990 0.851752
4607.14990 0.852267
4607.66016 0.852783
4608.16992 0.853299
4608.66992 0.853815
4609.16992 0.854326
4609.68018 0.854843
4610.18994 0.855183
4610.68994 0.855218
4611.20020 0.855253
4611.70020 0.855288
4612.20996 0.855322
4612.72021 0.855357
4613.22021 0.855391
4613.72021 0.855426
4614.22998 0.855462
4614.74023 0.855497
4615.24023 0.855532
4615.74023 0.855567
4616.25000 0.855602
4616.75977 0.855635
4617.25977 0.85567
4617.77002 0.855706
4618.27979 0.85574
4618.77979 0.855775
4619.29004 0.855809
4619.79980 0.855843
4620.29980 0.856216
4620.81006 0.856813
4621.31006 0.857414
4621.81982 0.858014
4622.33008 0.858612
4622.83984 0.859213
4623.33984 0.859812
4623.85010 0.860414
4624.35010 0.861012
4624.85986 0.861613
4625.37012 0.862212
4625.87012 0.862815
4626.37988 0.863414
4626.89014 0.864015
4627.39990 0.864617
4627.89990 0.865219
4628.41016 0.865819
4628.91992 0.866426
4629.43018 0.867029
4629.93018 0.867626
4630.43994 0.868098
4630.95020 0.868549
4631.45996 0.869002
4631.95996 0.869449
4632.47021 0.8699
4632.97998 0.870351
4633.49023 0.870803
4633.99023 0.871252
4634.50000 0.871704
4635.00977 0.872156
4635.52002 0.872607
4636.02002 0.873058
4636.52979 0.87351
4637.04004 0.873961
4637.54980 0.874411
4638.06006 0.874863
4638.56982 0.875315
4639.06982 0.875767
4639.58008 0.876218
4640.08984 0.876648
4640.60010 0.876967
4641.10010 0.877286
4641.60986 0.877606
4642.12012 0.877927
4642.62988 0.878246
4643.14014 0.878567
4643.64990 0.878886
4644.16016 0.879207
4644.66992 0.879529
4645.18018 0.879849
4645.68994 0.88017
4646.20020 0.880491
4646.70996 0.880812
4647.22021 0.881133
4647.72998 0.881455
4648.22998 0.881774
4648.74023 0.882094
4649.25000 0.882416
4649.75977 0.882738
4650.27002 0.883035
4650.77979 0.883311
4651.29004 0.88359
4651.79980 0.883869
4652.31006 0.884148
4652.81982 0.884423
4653.33008 0.884701
4653.83984 0.884979
4654.35010 0.885258
4654.85986 0.885535
4655.37012 0.885814
4655.87988 0.886092
4656.39014 0.88637
4656.89990 0.886649
4657.41016 0.886928
4657.91992 0.887206
4658.43018 0.887484
4658.93994 0.887763
4659.45020 0.888041
4659.97021 0.88832
4660.47021 0.888847
4660.97998 0.889392
4661.49023 0.889939
4662.00977 0.890486
4662.52002 0.891031
4663.02979 0.891579
4663.54004 0.892129
4664.04980 0.892673
4664.56006 0.89322
4665.06982 0.893769
4665.58984 0.894318
4666.10010 0.894868
4666.60986 0.895413
4667.12012 0.895961
4667.62988 0.896507
4668.14014 0.897056
4668.64990 0.897602
4669.16992 0.898152
4669.68018 0.8987
4670.18994 0.899093
4670.70020 0.899217
4671.20996 0.899341
4671.72021 0.899465
4672.22998 0.899589
4672.75000 0.899714
4673.25977 0.899838
4673.77002 0.899961
4674.27979 0.900085
4674.79980 0.90021
4675.31006 0.900334
4675.81982 0.900459
4676.33984 0.900583
4676.85010 0.900707
4677.35986 0.900831
4677.87012 0.900956
4678.39014 0.90108
4678.89990 0.901203
4679.41016 0.901327
4679.91992 0.901452
4680.43994 0.901362
4680.95020 0.901234
4681.45996 0.901108
4681.97998 0.90098
4682.49023 0.900854
4683.00000 0.900728
4683.50977 0.900598
4684.02979 0.900469
4684.54004 0.900342
4685.04980 0.900214
4685.56982 0.900086
4686.08008 0.899957
4686.60010 0.899829
4687.10986 0.899702
4687.62012 0.899574
4688.14014 0.899445
4688.64990 0.899316
4689.16016 0.899188
4689.68018 0.89906
4690.18994 0.89897
4690.70020 0.898947
4691.22021 0.898923
4691.72998 0.898899
4692.25000 0.898876
4692.75977 0.898854
4693.27979 0.89883
4693.79004 0.898806
4694.31006 0.898783
4694.81982 0.89876
4695.33984 0.898736
4695.85010 0.898712
4696.35986 0.898688
4696.87988 0.898665
4697.39014 0.898641
4697.91016 0.898617
4698.41992 0.898594
4698.93994 0.89857
4699.45020 0.898546
4699.97021 0.898521
4700.47998 0.898568
4701.00000 0.898619
4701.50977 0.898669
4702.02979 0.898719
4702.54004 0.89877
4703.06006 0.89882
4703.58008 0.898872
4704.08984 0.898923
4704.60986 0.898973
4705.12012 0.899024
4705.64014 0.899074
4706.14990 0.899125
4706.66992 0.899175
4707.18018 0.899226
4707.70020 0.899275
4708.20996 0.899325
4708.72998 0.899375
4709.25000 0.899425
4709.75977 0.899475
4710.27979 0.899684
4710.79980 0.900029
4711.31006 0.900375
4711.83008 0.900719
4712.35010 0.901065
4712.85986 0.901411
4713.37988 0.901757
4713.89990 0.902103
4714.41016 0.902448
4714.93018 0.902792
4715.43994 0.903137
4715.95996 0.903481
4716.47998 0.903827
4716.99023 0.904171
4717.50977 0.904514
4718.02979 0.904858
4718.54980 0.905204
4719.06006 0.905549
4719.58008 0.905893
4720.10010 0.906115
4720.60986 0.90579
4721.12988 0.905466
4721.64990 0.905144
4722.16992 0.90482
4722.68994 0.904496
4723.20020 0.904173
4723.72021 0.90385
4724.24023 0.903525
4724.75977 0.903201
4725.27002 0.902877
4725.79004 0.902552
4726.31006 0.902227
4726.83008 0.9019
4727.33984 0.901575
4727.85986 0.901249
4728.37988 0.900922
4728.89990 0.900598
4729.41992 0.900274
4729.93994 0.899948
4730.45020 0.900022
4730.97021 0.900152
4731.49023 0.900284
4732.00977 0.900416
4732.52979 0.900548
4733.04980 0.90068
4733.56006 0.900811
4734.08008 0.900944
4734.60010 0.901074
4735.12012 0.901205
4735.64014 0.901337
4736.16016 0.901469
4736.68018 0.901601
4737.20020 0.901732
4737.72021 0.901864
4738.24023 0.901996
4738.75000 0.902127
4739.27002 0.902258
4739.79980 0.90239
4740.31006 0.902408
4740.83008 0.902351
4741.35010 0.902294
4741.87988 0.902237
4742.39014 0.902179
4742.91016 0.902122
4743.43018 0.902065
4743.95020 0.902009
4744.47021 0.901951
4744.99023 0.901892
4745.50977 0.901834
4746.02979 0.901777
4746.54980 0.90172
4747.06982 0.901662
4747.58984 0.901604
4748.10986 0.901545
4748.62988 0.901488
4749.14990 0.90143
4749.68018 0.901372
4750.18994 0.901557
4750.72021 0.902152
4751.24023 0.902747
4751.75977 0.903339
4752.27002 0.903931
4752.79980 0.904526
4753.31982 0.905122
4753.83984 0.905718
4754.35986 0.906307
4754.87988 0.906903
4755.39990 0.907501
4755.91992 0.908097
4756.43994 0.908692
4756.97021 0.909289
4757.49023 0.909885
4758.00977 0.910478
4758.52979 0.911076
4759.04980 0.911673
4759.56982 0.91227
4760.10010 0.91276
4760.62012 0.912785
4761.14014 0.912809
4761.66016 0.912833
4762.18018 0.912857
4762.70020 0.912882
4763.22998 0.912906
4763.75000 0.912929
4764.27002 0.912952
4764.79004 0.912975
4765.31006 0.912999
4765.83984 0.913023
4766.35986 0.913047
4766.87988 0.91307
4767.39990 0.913094
4767.93018 0.913116
4768.45020 0.91314
4768.97021 0.913164
4769.49023 0.913187
4770.02002 0.913231
4770.54004 0.913875
4771.06006 0.914523
4771.58008 0.915169
4772.10986 0.915818
4772.62988 0.916467
4773.14990 0.917113
4773.66992 0.917759
4774.20020 0.918408
4774.72021 0.919058
4775.24023 0.919705
4775.77002 0.920356
4776.29004 0.921006
4776.81982 0.921657
4777.33984 0.922308
4777.85986 0.922956
4778.39014 0.923607
4778.91016 0.924259
4779.43994 0.924907
4779.95996 0.925559
4780.47998 0.925577
4781.00977 0.925544
4781.52979 0.925511
4782.06006 0.925477
4782.58008 0.925444
4783.10010 0.925412
4783.62012 0.925378
4784.14990 0.925343
4784.68018 0.925309
4785.20020 0.925276
4785.72021 0.925243
4786.25000 0.925209
4786.77002 0.925175
4787.29980 0.925141
4787.81982 0.925107
4788.35010 0.925074
4788.87988 0.92504
4789.39990 0.925007
4789.91992 0.924973
4790.45020 0.925133
4790.97021 0.925328
4791.49023 0.925521
4792.02002 0.925716
4792.54980 0.92591
4793.06982 0.926104
4793.60010 0.9263
4794.12012 0.926494
4794.64990 0.926689
4795.16992 0.926883
4795.70020 0.927077
4796.22998 0.927272
4796.75000 0.927468
4797.27979 0.927662
4797.79980 0.927856
4798.33008 0.928052
4798.85010 0.928247
4799.37988 0.928441
4799.91016 0.928636
4800.43018 0.928718
4800.95996 0.928774
4801.47998 0.928829
4802.00977 0.928885
4802.54004 0.92894
4803.06006 0.928996
4803.58984 0.929053
4804.12012 0.92911
4804.64014 0.929165
4805.16992 0.92922
4805.68994 0.929276
4806.22021 0.929332
4806.75000 0.929389
4807.27979 0.929444
4807.79980 0.929501
4808.33008 0.929557
4808.85010 0.929613
4809.37988 0.92967
4809.91016 0.929725
4810.43994 0.929875
4810.95996 0.930042
4811.49023 0.930212
4812.02002 0.930382
4812.54980 0.930552
4813.06982 0.930719
4813.60010 0.93089
4814.12988 0.93106
4814.64990 0.93123
4815.18018 0.931401
4815.70996 0.93157
4816.24023 0.931741
4816.77002 0.93191
4817.29980 0.93208
4817.81982 0.932249
4818.35010 0.932419
4818.87988 0.932589
4819.41016 0.932759
4819.93018 0.932928
4820.45996 0.93273
4820.99023 0.93248
4821.52002 0.932229
4822.04980 0.931977
4822.58008 0.931727
4823.10010 0.931475
4823.64014 0.931224
4824.16016 0.930972
4824.68994 0.930721
4825.22021 0.930468
4825.75000 0.930214
4826.27979 0.929964
4826.81006 0.929713
4827.33984 0.92946
4827.85986 0.929208
4828.39014 0.928955
4828.91992 0.928701
4829.45020 0.928448
4829.97998 0.928195
4830.50977 0.928272
4831.04004 0.92836
4831.56982 0.928446
4832.10010 0.928533
4832.62988 0.92862
4833.16016 0.928707
4833.68994 0.928793
4834.22021 0.928879
4834.75000 0.928966
4835.27979 0.929053
4835.81006 0.92914
4836.33984 0.929226
4836.87012 0.929312
4837.39990 0.929398
4837.93018 0.929484
4838.45996 0.929571
4838.99023 0.929658
4839.52002 0.929746
4840.04980 0.929812
4840.58008 0.929673
4841.10986 0.929533
4841.64014 0.929393
4842.16992 0.929252
4842.70020 0.929113
4843.22998 0.928974
4843.77002 0.928833
4844.29004 0.928694
4844.83008 0.928553
4845.35986 0.928413
4845.89014 0.928272
4846.41992 0.928132
4846.95020 0.927992
4847.47998 0.927851
4848.00977 0.92771
4848.54004 0.92757
4849.06982 0.927431
4849.60010 0.927291
4850.14014 0.927233
4850.66992 0.927417
4851.20020 0.9276
4851.72998 0.927785
4852.25977 0.927969
4852.79980 0.928154
4853.33008 0.928338
4853.85986 0.928522
4854.39014 0.928706
4854.93018 0.928889
4855.45996 0.929074
4855.97998 0.929256
4856.52002 0.929442
4857.04980 0.929627
4857.58984 0.929811
4858.10986 0.929994
4858.64990 0.930179
4859.18018 0.930364
4859.70996 0.930549
4860.24023 0.930571
4860.77979 0.9304
4861.31006 0.930231
4861.83984 0.930062
4862.37988 0.929892
4862.91016 0.929722
4863.43994 0.929551
4863.97998 0.929382
4864.50977 0.929212
4865.04004 0.929042
4865.58008 0.92887
4866.10986 0.928699
4866.64014 0.92853
4867.18018 0.928359
4867.70996 0.928188
4868.24023 0.928017
4868.77002 0.927846
4869.31006 0.927675
4869.83984 0.927504
4870.37988 0.927514
4870.91016 0.927602
4871.43994 0.927689
4871.97998 0.927776
4872.50977 0.927863
4873.04980 0.927952
4873.58008 0.928039
4874.10986 0.928127
4874.64990 0.928215
4875.18994 0.928303
4875.72021 0.92839
4876.25000 0.928477
4876.79004 0.928565
4877.31982 0.928652
4877.85010 0.928738
4878.39014 0.928826
4878.91992 0.928914
4879.45996 0.929003
4879.99023 0.92909
4880.52002 0.929197
4881.06006 0.929305
4881.60010 0.929411
4882.12988 0.929518
4882.66992 0.929627
4883.20020 0.929735
4883.74023 0.929842
4884.27002 0.929949
4884.81006 0.930055
4885.35010 0.930163
4885.87988 0.930271
4886.41016 0.930379
4886.95020 0.930486
4887.47998 0.930594
4888.02002 0.930701
4888.56006 0.930808
4889.08984 0.930914
4889.62988 0.931023
4890.16016 0.931216
4890.70020 0.931601
4891.24023 0.931985
4891.77002 0.932367
4892.31006 0.932752
4892.85010 0.93314
4893.37988 0.933526
4893.91992 0.93391
4894.45996 0.934297
4894.99023 0.934683
4895.52979 0.935068
4896.06006 0.935452
4896.60010 0.935838
4897.14014 0.936224
4897.66992 0.936608
4898.20996 0.936996
4898.75000 0.937383
4899.27979 0.93777
4899.81982 0.938153
4900.35986 0.938503
4900.89014 0.938829
4901.43018 0.939156
4901.97021 0.939483
4902.50977 0.939809
4903.04980 0.940136
4903.58008 0.94046
4904.12012 0.940788
4904.64990 0.941115
4905.18994 0.941443
4905.72998 0.941768
4906.27002 0.942096
4906.81006 0.942424
4907.33984 0.942751
4907.87988 0.943076
4908.41992 0.943403
4908.95020 0.943732
4909.49023 0.944061
4910.02979 0.944408
4910.56982 0.945066
4911.10986 0.945724
4911.64990 0.946376
4912.18018 0.947035
4912.72998 0.947698
4913.25977 0.948355
4913.79980 0.949013
4914.33984 0.949673
4914.87988 0.950329
4915.41992 0.950986
4915.95996 0.951645
4916.50000 0.952308
4917.02979 0.952971
4917.56982 0.953628
4918.10986 0.954285
4918.64990 0.954946
4919.18994 0.955609
4919.72998 0.956268
4920.27002 0.956633
4920.81006 0.956695
4921.35010 0.956756
4921.89014 0.956817
4922.43018 0.956879
4922.97021 0.95694
4923.50977 0.957001
4924.04004 0.957061
4924.58008 0.957123
4925.12012 0.957186
4925.66016 0.957246
4926.20020 0.957307
4926.74023 0.957368
4927.27979 0.957429
4927.81982 0.95749
4928.35986 0.957552
4928.89990 0.957615
4929.43994 0.957676
4929.97998 0.957737
4930.52002 0.957837
4931.06006 0.957939
4931.60986 0.958039
4932.14014 0.95814
4932.68018 0.958242
4933.22998 0.958344
4933.77002 0.958444
4934.31006 0.958546
4934.85010 0.958647
4935.39014 0.958748
4935.93018 0.958849
4936.47021 0.958951
4937.00977 0.959051
4937.54980 0.959152
4938.08984 0.959254
4938.62988 0.959356
4939.18018 0.959457
4939.70996 0.959557
4940.25977 0.959805
4940.79980 0.960218
4941.33984 0.960632
4941.87988 0.961045
4942.43018 0.961458
4942.97021 0.961872
4943.50977 0.962284
4944.04980 0.962694
4944.58984 0.963107
4945.12988 0.963522
4945.68018 0.963938
4946.22021 0.964349
4946.75977 0.964763
4947.29980 0.965177
4947.85010 0.965591
4948.37988 0.966001
4948.93018 0.966418
4949.47021 0.966832
4950.00977 0.96724
4950.56006 0.967378
4951.10010 0.967516
4951.64014 0.967653
4952.18018 0.96779
4952.72998 0.967927
4953.27002 0.968064
4953.81006 0.968201
4954.35010 0.968337
4954.89990 0.968476
4955.43994 0.968613
4955.97998 0.96875
4956.52002 0.968887
4957.06982 0.969025
4957.60986 0.969161
4958.14990 0.969299
4958.70020 0.969437
4959.24023 0.969575
4959.79004 0.969713
4960.33008 0.969838
4960.87012 0.969957
4961.41992 0.970074
4961.95996 0.970192
4962.50977 0.970311
4963.04980 0.97043
4963.58984 0.970548
4964.14014 0.970666
4964.68018 0.970784
4965.22998 0.970903
4965.77002 0.971022
4966.31006 0.971139
4966.85986 0.971258
4967.39990 0.971376
4967.95020 0.971495
4968.49023 0.971613
4969.02979 0.971732
4969.58008 0.97185
4970.12012 0.971966
4970.66992 0.972071
4971.22021 0.972176
4971.75977 0.97228
4972.29980 0.972383
4972.85010 0.972489
4973.39014 0.972593
4973.93994 0.972698
4974.47998 0.972801
4975.02979 0.972906
4975.56982 0.97301
4976.12012 0.973114
4976.66016 0.973219
4977.20996 0.973324
4977.75000 0.973429
4978.29980 0.973532
4978.85010 0.973636
4979.39014 0.97374
4979.93994 0.973845
4980.47998 0.973969
4981.02979 0.974097
4981.58008 0.974225
4982.12012 0.974352
4982.66992 0.97448
4983.20996 0.974606
4983.75977 0.974733
4984.31006 0.974861
4984.85010 0.974989
4985.39990 0.975116
4985.93994 0.975242
4986.49023 0.97537
4987.04004 0.975498
4987.58008 0.975625
4988.12988 0.975753
4988.66992 0.975881
4989.22021 0.976009
4989.77002 0.976137
4990.31982 0.976367
4990.87012 0.976674
4991.41016 0.97698
4991.95996 0.977287
4992.50977 0.977592
4993.04980 0.9779
4993.60010 0.978207
4994.14990 0.978514
4994.68994 0.978818
4995.24023 0.979125
4995.79004 0.979433
4996.33984 0.979742
4996.87988 0.980046
4997.43018 0.980354
4997.97998 0.980661
4998.52979 0.980969
4999.08008 0.981276
4999.62012 0.981585
5000.16992 0.981693
5000.72021 0.981368
5001.27002 0.981039
5001.81006 0.980709
5002.35986 0.98038
5002.91016 0.980052
5003.45996 0.979723
5004.00977 0.979392
5004.56006 0.979062
5005.10986 0.978731
5005.64990 0.978404
5006.20020 0.978073
5006.75000 0.977743
5007.29980 0.977411
5007.85010 0.977083
5008.39990 0.97675
5008.93994 0.976421
5009.49023 0.976089
5010.04004 0.975791
5010.58984 0.975902
5011.14014 0.976013
5011.68994 0.976122
5012.24023 0.976233
5012.79004 0.976342
5013.33984 0.976453
5013.89014 0.976565
5014.43994 0.976675
5014.99023 0.976786
5015.54004 0.976898
5016.08984 0.977009
5016.64014 0.977119
5017.18018 0.977227
5017.72998 0.977337
5018.27979 0.977448
5018.83984 0.97756
5019.39014 0.97767
5019.93994 0.97778
5020.49023 0.977611
5021.02979 0.977408
5021.58984 0.977203
5022.14014 0.976999
5022.68994 0.976795
5023.22998 0.976592
5023.79004 0.976387
5024.33984 0.976182
5024.89014 0.975977
5025.43994 0.975773
5025.99023 0.975566
5026.54004 0.97536
5027.08984 0.975154
5027.64014 0.974949
5028.20020 0.974742
5028.75000 0.974534
5029.29980 0.97433
5029.85010 0.974122
5030.39990 0.974012
5030.95020 0.973938
5031.50000 0.973864
5032.06006 0.973789
5032.60986 0.973716
5033.16016 0.973644
5033.70996 0.973569
5034.25977 0.973495
5034.81006 0.973421
5035.35986 0.973346
5035.91016 0.973271
5036.47021 0.973195
5037.02002 0.97312
5037.56982 0.973046
5038.12012 0.972972
5038.66992 0.972896
5039.22998 0.97282
5039.77979 0.972744
5040.33008 0.972391
5040.89014 0.971851
5041.43994 0.971317
5041.99023 0.970776
5042.54004 0.970235
5043.10010 0.969695
5043.64990 0.969161
5044.20020 0.96862
5044.75000 0.968078
5045.31006 0.967537
5045.85010 0.967
5046.41016 0.966458
5046.95996 0.965916
5047.52002 0.965372
5048.06982 0.964829
5048.62012 0.964284
5049.18018 0.96374
5049.72998 0.963201
5050.27979 0.96311
5050.83984 0.963454
5051.39014 0.963797
5051.95020 0.96414
5052.50000 0.964483
5053.04980 0.964825
5053.60986 0.965169
5054.16016 0.965513
5054.70996 0.965855
5055.27002 0.966199
5055.81982 0.966541
5056.37988 0.966885
5056.93018 0.96723
5057.47998 0.967573
5058.04004 0.967915
5058.58984 0.96826
5059.14990 0.968605
5059.70020 0.968951
5060.25977 0.969106
5060.81006 0.969039
5061.37012 0.968972
5061.91992 0.968905
5062.47998 0.968839
5063.02979 0.968774
5063.58984 0.968706
5064.14014 0.96864
5064.68994 0.968573
5065.25000 0.968505
5065.81006 0.968437
5066.35986 0.96837
5066.91016 0.968303
5067.47021 0.968235
5068.02002 0.968167
5068.58008 0.968098
5069.14014 0.96803
5069.68994 0.967962
5070.25000 0.968153
5070.79980 0.968662
5071.35986 0.969173
5071.91992 0.969685
5072.47021 0.970193
5073.02002 0.970702
5073.58008 0.971214
5074.14014 0.971727
5074.68994 0.972236
5075.25000 0.972748
5075.81006 0.973258
5076.35986 0.973771
5076.91992 0.974284
5077.47021 0.974796
5078.02979 0.975313
5078.58984 0.975821
5079.14014 0.976334
5079.70020 0.976847
5080.25977 0.977049
5080.81982 0.976893
5081.37988 0.976736
5081.93018 0.97658
5082.49023 0.976423
5083.04004 0.976266
5083.60010 0.976109
5084.16016 0.975952
5084.70996 0.975797
5085.27002 0.97564
5085.83008 0.975482
5086.39014 0.975323
5086.93994 0.975167
5087.50000 0.975008
5088.06006 0.97485
5088.62012 0.974692
5089.18018 0.974534
5089.72998 0.974377
5090.29004 0.97443
5090.85010 0.974678
5091.39990 0.974928
5091.95996 0.975178
5092.52002 0.975428
5093.08008 0.975677
5093.64014 0.975926
5094.18994 0.976175
5094.75977 0.976425
5095.31006 0.976673
5095.87012 0.976922
5096.43018 0.977173
5096.99023 0.977425
5097.54004 0.977674
5098.10010 0.977924
5098.66992 0.978177
5099.22021 0.978424
5099.77979 0.978674
5100.33984 0.979069
5100.89990 0.979558
5101.45996 0.980047
5102.02002 0.980534
5102.58008 0.981023
5103.14014 0.981513
5103.70020 0.982
5104.25977 0.982489
5104.81006 0.982976
5105.37988 0.983467
5105.93018 0.983956
5106.49023 0.984447
5107.04980 0.984936
5107.60986 0.985426
5108.16992 0.985914
5108.72998 0.986405
5109.29004 0.986897
5109.85010 0.987385
5110.41016 0.987736
5110.97998 0.988036
5111.54004 0.988333
5112.08984 0.988628
5112.64990 0.988925
5113.20996 0.989223
5113.77002 0.989519
5114.33008 0.989817
5114.89014 0.990116
5115.45020 0.990415
5116.00977 0.99071
5116.56982 0.991008
5117.12988 0.991306
5117.70020 0.991605
5118.25977 0.991902
5118.81982 0.992202
5119.37988 0.9925
5119.93994 0.992797
5120.50000 0.992851
5121.06006 0.992878
5121.62012 0.992903
5122.18994 0.992929
5122.75000 0.992955
5123.31006 0.99298
5123.87012 0.993005
5124.43018 0.993029
5124.99023 0.993054
5125.56006 0.993079
5126.10986 0.993105
5126.68018 0.99313
5127.24023 0.993155
5127.79980 0.993179
5128.35986 0.993204
5128.91992 0.993228
5129.49023 0.993252
5130.04980 0.993309
5130.60986 0.993689
5131.18018 0.994072
5131.74023 0.994454
5132.29980 0.994835
5132.85986 0.995215
5133.43018 0.995598
5133.99023 0.99598
5134.54980 0.996362
5135.10986 0.996741
5135.68018 0.997124
5136.24023 0.997506
5136.79980 0.997889
5137.35986 0.998269
5137.93018 0.998653
5138.49023 0.999037
5139.04980 0.999421
5139.60986 0.999802
5140.18018 1.0
5140.74023 0.999797
5141.31006 0.999595
5141.87012 0.999392
5142.43994 0.999191
5143.00000 0.99899
5143.56006 0.998786
5144.12012 0.998584
5144.68994 0.99838
5145.25000 0.998177
5145.81006 0.997974
5146.37988 0.997772
5146.93994 0.997566
5147.50000 0.997362
5148.06982 0.997157
5148.64014 0.996952
5149.20020 0.996746
5149.75977 0.996543
5150.33008 0.996528
5150.89014 0.996652
5151.45996 0.996775
5152.02002 0.996898
5152.58984 0.997021
5153.14990 0.997144
5153.72021 0.997267
5154.27979 0.99739
5154.85010 0.997513
5155.41016 0.997635
5155.97998 0.997757
5156.54004 0.997881
5157.10986 0.998004
5157.66992 0.998125
5158.22998 0.998247
5158.79980 0.998371
5159.37012 0.998494
5159.93018 0.998615
5160.50000 0.998518
5161.06006 0.99839
5161.62988 0.998262
5162.18994 0.998134
5162.75977 0.998005
5163.33008 0.997876
5163.89990 0.997747
5164.45996 0.997619
5165.02002 0.99749
5165.58984 0.99736
5166.16016 0.997231
5166.72021 0.997102
5167.29004 0.996973
5167.85010 0.996844
5168.41992 0.996714
5168.99023 0.996584
5169.56006 0.996452
5170.12012 0.996287
5170.68994 0.995994
5171.25000 0.995699
5171.81982 0.995404
5172.39014 0.995109
5172.95020 0.994814
5173.52002 0.994517
5174.08984 0.994221
5174.66016 0.993926
5175.22021 0.99363
5175.79004 0.993333
5176.35986 0.993036
5176.91992 0.99274
5177.49023 0.992441
5178.06006 0.992144
5178.62988 0.991844
5179.18994 0.991546
5179.75977 0.991247
5180.33008 0.99089
5180.89990 0.990492
5181.45996 0.990096
5182.02979 0.989699
5182.60010 0.989299
5183.16992 0.988904
5183.74023 0.988505
5184.31006 0.988105
5184.87988 0.987704
5185.43994 0.987308
5186.00977 0.986908
5186.58008 0.986507
5187.14990 0.986106
5187.70996 0.985709
5188.27979 0.985307
5188.85010 0.984906
5189.41992 0.984504
5189.99023 0.984101
5190.56006 0.98392
5191.12988 0.983741
5191.68994 0.983562
5192.27002 0.983383
5192.83984 0.983202
5193.39990 0.983022
5193.97021 0.982843
5194.54004 0.982664
5195.10986 0.982484
5195.68018 0.982306
5196.25000 0.982126
5196.81982 0.981946
5197.39014 0.981765
5197.95020 0.981586
5198.52002 0.981406
5199.10010 0.981226
5199.66992 0.981045
5200.22998 0.980903
5200.81006 0.980815
5201.37988 0.980726
5201.95020 0.980636
5202.52002 0.980546
5203.08984 0.980456
5203.66016 0.980366
5204.22998 0.980277
5204.79980 0.980186
5205.37012 0.980096
5205.93994 0.980006
5206.50977 0.979915
5207.08008 0.979824
5207.64990 0.979733
5208.22021 0.979643
5208.79004 0.979552
5209.35986 0.979461
5209.93018 0.979371
5210.50977 0.97945
5211.06982 0.97955
5211.64990 0.97965
5212.22021 0.979751
5212.79004 0.979851
5213.35986 0.979952
5213.93018 0.980052
5214.50977 0.980154
5215.08008 0.980256
5215.64990 0.980356
5216.22021 0.980457
5216.79004 0.980557
5217.35986 0.980657
5217.93018 0.980758
5218.50000 0.980858
5219.08008 0.980959
5219.64990 0.98106
5220.22021 0.980999
5220.79004 0.980678
5221.35986 0.980356
5221.93994 0.980032
5222.50977 0.979709
5223.08008 0.979386
5223.64990 0.979065
5224.22998 0.978742
5224.79980 0.978419
5225.37012 0.978097
5225.95020 0.977774
5226.52002 0.977451
5227.08984 0.977127
5227.66016 0.976804
5228.24023 0.976479
5228.81006 0.976157
5229.37988 0.975832
5229.95020 0.975508
5230.52979 0.9759
5231.10010 0.976357
5231.68018 0.976815
5232.25000 0.977269
5232.81982 0.977726
5233.39990 0.978183
5233.97021 0.978638
5234.54004 0.979096
5235.12012 0.979554
5235.68994 0.980012
5236.25977 0.980468
5236.83984 0.980925
5237.41016 0.981383
5237.99023 0.98184
5238.56006 0.982297
5239.12988 0.982754
5239.70996 0.983214
5240.27979 0.983363
5240.85010 0.983191
5241.43018 0.983018
5242.00977 0.982846
5242.58008 0.982673
5243.14990 0.9825
5243.72998 0.982326
5244.31006 0.982152
5244.87988 0.98198
5245.45020 0.981806
5246.02979 0.981631
5246.60010 0.981457
5247.18018 0.981283
5247.75000 0.981109
5248.33008 0.980935
5248.89990 0.98076
5249.47998 0.980586
5250.04980 0.98048
5250.62988 0.981079
5251.20020 0.981675
5251.77979 0.982275
5252.35010 0.982875
5252.93018 0.983476
5253.50977 0.984074
5254.08008 0.984676
5254.66016 0.985278
5255.22998 0.985875
5255.81006 0.986476
5256.39014 0.987077
5256.97021 0.987679
5257.54004 0.988276
5258.10986 0.988879
5258.68994 0.989483
5259.27002 0.990086
5259.83984 0.990682
5260.41992 0.990451
5260.99023 0.989901
5261.56982 0.989351
5262.14990 0.988806
5262.72998 0.988252
5263.29980 0.987699
5263.87988 0.987146
5264.45996 0.986597
5265.02979 0.986046
5265.60986 0.985493
5266.18994 0.984942
5266.77002 0.984386
5267.33984 0.983833
5267.91992 0.983278
5268.49023 0.982727
5269.06982 0.982171
5269.64990 0.981615
5270.22998 0.981264
5270.79980 0.98122
5271.37988 0.981175
5271.95996 0.98113
5272.54004 0.981085
5273.12012 0.98104
5273.68994 0.980993
5274.27002 0.980947
5274.85010 0.980901
5275.43018 0.980855
5276.00977 0.980809
5276.58984 0.980762
5277.16016 0.980717
5277.74023 0.980671
5278.31982 0.980626
5278.89990 0.980579
5279.47998 0.980532
5280.06006 0.98046
5280.64014 0.980179
5281.20996 0.9799
5281.79004 0.979619
5282.37012 0.979337
5282.95020 0.979054
5283.52979 0.978774
5284.10986 0.978492
5284.68994 0.978209
5285.27002 0.977926
5285.85010 0.977645
5286.43018 0.977361
5287.00977 0.977077
5287.58008 0.976796
5288.16016 0.976514
5288.74023 0.97623
5289.31982 0.975946
5289.89990 0.975663
5290.47998 0.975341
5291.06006 0.975013
5291.64014 0.97468
5292.22021 0.97435
5292.79980 0.974019
5293.37988 0.973687
5293.95996 0.973352
5294.54004 0.973021
5295.12012 0.972688
5295.70020 0.972355
5296.27979 0.972024
5296.85986 0.971688
5297.43994 0.971354
5298.02979 0.971019
5298.60986 0.970686
5299.18994 0.970351
5299.77002 0.970016
5300.35010 0.969477
5300.93018 0.968806
5301.50977 0.968131
5302.08984 0.96746
5302.66992 0.966782
5303.25000 0.966108
5303.83008 0.965432
5304.41016 0.964756
5304.99023 0.964083
5305.58008 0.963406
5306.16016 0.962731
5306.74023 0.962053
5307.31982 0.961373
5307.89990 0.960693
5308.49023 0.960013
5309.06006 0.95934
5309.64990 0.95866
5310.22998 0.957924
5310.81006 0.957105
5311.39014 0.956294
5311.97021 0.955474
5312.56006 0.954652
5313.14014 0.953829
5313.72021 0.953011
5314.29980 0.952192
5314.89014 0.951365
5315.47021 0.950539
5316.04980 0.949718
5316.64014 0.948892
5317.22021 0.948066
5317.79980 0.947244
5318.39014 0.946417
5318.97021 0.945588
5319.54980 0.944765
5320.12988 0.943878
5320.72021 0.942767
5321.29980 0.941657
5321.87988 0.940552
5322.47021 0.939441
5323.04980 0.938336
5323.62988 0.937223
5324.22021 0.93611
5324.79980 0.935002
5325.37988 0.933887
5325.97021 0.932774
5326.54980 0.931665
5327.12988 0.930555
5327.72021 0.92944
5328.29980 0.928317
5328.89014 0.927205
5329.47021 0.926088
5330.06006 0.925026
5330.64014 0.924499
5331.22021 0.923971
5331.81006 0.923441
5332.39014 0.922911
5332.97998 0.922379
5333.56006 0.921852
5334.14014 0.92132
5334.72998 0.920788
5335.31006 0.920254
5335.89990 0.919722
5336.47998 0.919189
5337.06982 0.918657
5337.64990 0.918126
5338.24023 0.917592
5338.81982 0.917057
5339.41016 0.916525
5339.99023 0.915988
5340.58008 0.915408
5341.16016 0.914823
5341.75000 0.914243
5342.33008 0.913659
5342.91992 0.913077
5343.50000 0.91249
5344.08984 0.911907
5344.66992 0.91132
5345.25977 0.910734
5345.85010 0.91015
5346.43018 0.909563
5347.02002 0.908974
5347.60986 0.908384
5348.18994 0.907795
5348.77002 0.907212
5349.35986 0.906619
5349.95020 0.906028
5350.54004 0.906061
5351.12012 0.906149
5351.70996 0.906237
5352.29980 0.906323
5352.87988 0.90641
5353.47021 0.906497
5354.06006 0.906584
5354.64014 0.906671
5355.22998 0.906757
5355.81006 0.906845
5356.39990 0.906932
5356.99023 0.907019
5357.58008 0.907106
5358.16016 0.907193
5358.75000 0.907279
5359.33984 0.907365
5359.93018 0.907452
5360.52002 0.907257
5361.10010 0.907023
5361.68994 0.90679
5362.27979 0.906555
5362.85986 0.906321
5363.45020 0.906085
5364.04004 0.905851
5364.62012 0.905615
5365.20996 0.905379
5365.79980 0.905143
5366.39014 0.904908
5366.97998 0.904672
5367.56006 0.904435
5368.14990 0.904198
5368.74023 0.903961
5369.33008 0.903723
5369.91992 0.903483
5370.50977 0.904337
5371.10010 0.905361
5371.68994 0.906382
5372.27979 0.907408
5372.87012 0.908433
5373.45020 0.909454
5374.04004 0.910479
5374.62988 0.911501
5375.22021 0.912528
5375.81006 0.91355
5376.39990 0.914578
5376.97998 0.915601
5377.58008 0.916629
5378.16992 0.917657
5378.75977 0.918687
5379.33984 0.919711
5379.93018 0.920736
5380.52002 0.921788
5381.10986 0.922842
5381.70020 0.9239
5382.29980 0.924957
5382.89014 0.926013
5383.47021 0.92706
5384.06006 0.928118
5384.64990 0.929177
5385.24023 0.930236
5385.83008 0.931285
5386.41992 0.932345
5387.00977 0.933405
5387.60010 0.934466
5388.18994 0.935518
5388.77979 0.936578
5389.37988 0.937646
5389.97021 0.938703
5390.56006 0.940563
5391.14990 0.942472
5391.74023 0.944382
5392.33008 0.946282
5392.91992 0.948185
5393.50977 0.950096
5394.10010 0.952009
5394.68994 0.953913
5395.27979 0.955828
5395.87988 0.957735
5396.47021 0.959649
5397.06006 0.961555
5397.64990 0.963474
5398.24023 0.965383
5398.83008 0.967302
5399.43018 0.969222
5400.02002 0.971111
5400.60986 0.971985
5401.20020 0.972851
5401.79004 0.973725
5402.39014 0.974605
5402.97998 0.975475
5403.56982 0.97635
5404.16016 0.977226
5404.75977 0.978101
5405.33984 0.978969
5405.93994 0.979847
5406.52979 0.980724
5407.12012 0.981601
5407.70996 0.982469
5408.31006 0.983347
5408.89990 0.984227
5409.49023 0.985106
5410.08008 0.985964
5410.68018 0.986761
5411.27002 0.98755
5411.85986 0.988345
5412.45996 0.989139
5413.04980 0.989934
5413.64990 0.990728
5414.24023 0.991516
5414.83008 0.992312
5415.43018 0.993108
5416.02002 0.993904
5416.60986 0.994691
5417.20020 0.995487
5417.79980 0.996285
5418.39014 0.997081
5418.97998 0.997872
5419.58008 0.998667
5420.16992 0.999006
5420.77002 0.998215
5421.35986 0.997426
5421.95996 0.996637
5422.54980 0.995847
5423.14014 0.995064
5423.74023 0.994272
5424.33984 0.993475
5424.93018 0.992685
5425.52002 0.991891
5426.12012 0.991097
5426.70996 0.990308
5427.31006 0.989518
5427.89990 0.988722
5428.50000 0.987927
5429.08984 0.98713
5429.68994 0.986342
5430.27979 0.985456
5430.87988 0.98447
5431.47021 0.983483
5432.06982 0.9825
5432.66016 0.981516
5433.25977 0.980527
5433.85010 0.979538
5434.45020 0.978547
5435.04980 0.977556
5435.64014 0.976564
5436.22998 0.975581
5436.83008 0.97459
5437.43018 0.973596
5438.02002 0.972602
5438.62012 0.971617
5439.20996 0.970621
5439.81006 0.969625
5440.41016 0.967032
5441.00000 0.963724
5441.60010 0.960384
5442.18994 0.95704
5442.79004 0.953697
5443.39014 0.95035
5443.99023 0.947002
5444.58984 0.943654
5445.18018 0.940337
5445.77979 0.936967
5446.37012 0.933632
5446.97021 0.930277
5447.56982 0.926919
5448.16016 0.923575
5448.75977 0.920231
5449.35986 0.91687
5449.95996 0.913508
5450.54980 0.908844
5451.14990 0.904101
5451.74023 0.89935
5452.33984 0.894576
5452.93994 0.8898
5453.54004 0.885021
5454.12988 0.880282
5454.72998 0.875499
5455.33008 0.870711
5455.93018 0.865924
5456.52979 0.861132
5457.12988 0.856337
5457.72998 0.851537
5458.31982 0.846785
5458.91992 0.841984
5459.52002 0.837178
5460.12012 0.831736
5460.70996 0.823808
5461.31006 0.815799
5461.91016 0.807788
5462.50977 0.799774
5463.10986 0.791837
5463.70996 0.783811
5464.31006 0.775743
5464.91016 0.767757
5465.50977 0.759723
5466.10986 0.751687
5466.70996 0.743648
5467.29980 0.735684
5467.89990 0.727633
5468.50000 0.719585
5469.10010 0.711529
5469.70020 0.703509
5470.29980 0.69483
5470.89990 0.685436
5471.50000 0.676038
5472.10010 0.666635
5472.68994 0.657314
5473.29004 0.647904
5473.89990 0.638481
5474.50000 0.629056
5475.10010 0.619626
5475.70020 0.610191
5476.29004 0.600844
5476.89990 0.591395
5477.50000 0.581948
5478.10010 0.57249
5478.70020 0.563028
5479.29980 0.553562
5479.89990 0.544093
5480.50977 0.533943
5481.10010 0.52377
5481.70020 0.513495
5482.29980 0.503208
5482.89990 0.493027
5483.50000 0.482734
5484.10010 0.472438
5484.70996 0.46213
5485.29980 0.451929
5485.89990 0.441624
5486.50977 0.431307
5487.10986 0.420989
5487.70996 0.410666
5488.31006 0.400341
5488.91992 0.390012
5489.50977 0.379781
5490.12012 0.369831
5490.72021 0.361473
5491.31982 0.353113
5491.91992 0.344838
5492.52002 0.336473
5493.12012 0.328105
5493.72998 0.319735
5494.33008 0.311443
5494.93018 0.303061
5495.52979 0.294677
5496.14014 0.286298
5496.74023 0.277908
5497.33984 0.269517
5497.95020 0.261117
5498.54004 0.252802
5499.14990 0.244404
5499.75000 0.235996
5500.35986 0.229135
5500.95996 0.223357
5501.56006 0.21757
5502.16992 0.211776
5502.77002 0.206041
5503.37012 0.200247
5503.97998 0.194446
5504.58008 0.188646
5505.18018 0.182896
5505.77979 0.177087
5506.39014 0.171274
5506.99023 0.16546
5507.60010 0.159643
5508.18994 0.153874
5508.79980 0.148052
5509.39990 0.142222
5510.00977 0.136423
5510.60986 0.132898
5511.22021 0.129371
5511.81982 0.125843
5512.41992 0.122346
5513.02979 0.118817
5513.62988 0.115284
5514.22998 0.111787
5514.83984 0.108252
5515.43994 0.104717
5516.04980 0.101177
5516.64990 0.0976743
5517.25977 0.0941363
5517.85986 0.0905946
5518.47021 0.0870519
5519.06982 0.0835083
5519.68018 0.079964
5520.27979 0.077159
5520.89014 0.0751871
5521.49023 0.0732351
5522.10010 0.0712635
5522.70020 0.0692896
5523.31006 0.0673151
5523.91016 0.0653494
5524.52002 0.0633831
5525.12012 0.0614067
5525.72998 0.0594279
5526.33984 0.0574502
5526.93994 0.0554909
5527.54004 0.0535102
5528.14990 0.0515289
5528.75977 0.0495469
5529.35986 0.0475739
5529.97021 0.0455986
5530.56982 0.0444454
5531.18018 0.043339
5531.79004 0.0422323
5532.39990 0.0411253
5533.00000 0.0400179
5533.60986 0.0389101
5534.22021 0.0378019
5534.81982 0.0367041
5535.43018 0.0355944
5536.04004 0.0344843
5536.64014 0.0333739
5537.24023 0.0322747
5537.85010 0.0311627
5538.45996 0.0300512
5539.06982 0.0289393
5539.66992 0.0278378
5540.27979 0.0269432
5540.89014 0.0263054
5541.50000 0.0256674
5542.10010 0.0250292
5542.70996 0.0243909
5543.31982 0.023755
5543.93018 0.0231195
5544.52979 0.0224802
5545.14014 0.0218413
5545.75000 0.0212048
5546.35010 0.0205681
5546.95996 0.0199283
5547.56982 0.0192877
5548.18018 0.0186475
5548.79004 0.0180097
5549.39014 0.0173723
5550.00000 0.0167326
5550.60986 0.0163837
5551.22021 0.0160365
5551.83008 0.0156854
5552.43994 0.0153361
5553.04004 0.0149901
5553.64990 0.0146402
5554.25977 0.0142903
5554.87012 0.0139401
5555.47998 0.0135899
5556.08984 0.0132395
5556.70020 0.0128906
5557.31006 0.0125413
5557.91992 0.0121905
5558.52979 0.0118392
5559.14014 0.0114878
5559.74023 0.0111396
5560.35010 0.0108664
5560.95996 0.0106503
5561.56982 0.010434
5562.18018 0.0102198
5562.79004 0.0100033
5563.39990 0.0097868
5564.00977 0.0095702
5564.62012 0.00935355
5565.22998 0.00913786
5565.85010 0.00891986
5566.45020 0.00870511
5567.06006 0.00848804
5567.66992 0.0082709
5568.27979 0.0080537
5568.89014 0.0078387
5569.50000 0.00762121
5570.10986 0.0074354
5570.72021 0.00739078
5571.33008 0.00734611
5571.93994 0.00730123
5572.54980 0.00725633
5573.16016 0.00721167
5573.77979 0.0071665
5574.39014 0.00712157
5575.00000 0.0070766
5575.60986 0.0070321
5576.22021 0.00698712
5576.83008 0.00694212
5577.43994 0.00689712
5578.06006 0.00685211
5578.66016 0.00680729
5579.27002 0.00676247
5579.89014 0.0067174
5580.50000 0.00667261
5581.10986 0.00662813
5581.72021 0.00658334
5582.33008 0.00653883
5582.93994 0.00649402
5583.56006 0.00644924
5584.16992 0.00640461
5584.77979 0.00636
5585.39014 0.00631513
5586.00977 0.00627026
5586.60986 0.00622558
5587.22998 0.00618067
5587.85010 0.0061355
5588.45996 0.00609057
5589.06982 0.00604605
5589.68018 0.00600106
5590.29004 0.00594837
5590.91016 0.00588726
5591.52002 0.00582672
5592.12988 0.00576557
5592.74023 0.00570435
5593.35986 0.00564311
5593.97021 0.00558248
5594.58008 0.00552119
5595.18994 0.00545988
5595.81006 0.00539853
5596.41992 0.00533717
5597.04004 0.00527574
5597.64990 0.00521463
5598.25977 0.00515344
5598.87988 0.00509192
5599.49023 0.00503039
5600.10010 0.00496883
5600.72021 0.0049075
5601.33008 0.00484614
5601.93994 0.00478441
5602.56006 0.00472271
5603.16992 0.00466124
5603.79004 0.00459945
5604.39990 0.00453793
5605.00977 0.00447609
5605.62988 0.00441423
5606.24023 0.00435259
5606.85986 0.00429035
5607.47021 0.00422901
5608.08984 0.00416701
5608.70020 0.00410499
5609.31982 0.00404295
5609.93018 0.00398083
5610.54980 0.00391883
5611.16016 0.00385676
5611.77002 0.00379531
5612.39014 0.0037332
5613.00977 0.00367105
5613.62012 0.00360888
5614.22998 0.00354728
5614.85010 0.00348501
5615.47021 0.00342277
5616.08008 0.00336045
5616.68994 0.00329874
5617.31006 0.00323638
5617.93018 0.00317399
5618.54004 0.00311151
5619.16016 0.00304907
5619.77002 0.00298685
5620.39014 0.00292422
6182.42920 0.0
