# %ECSV 0.9
# ---
# datatype:
# - {name: wavelength, unit: Angstrom, datatype: float32}
# - {name: response, datatype: float32}
# meta: !!omap
# - {band_name: F555W_77}
# - {group_name: ACS_WFC}
wavelength response
4088.94312 0.0
4543.27002 0.00218664
4543.77002 0.00221501
4544.27002 0.00224339
4544.77979 0.00227191
4545.27979 0.00230044
4545.77979 0.00232869
4546.27979 0.00235712
4546.79004 0.00238566
4547.29004 0.00241409
4547.79004 0.00244239
4548.29004 0.00247094
4548.79004 0.00249939
4549.29980 0.00252785
4549.79980 0.00255646
4550.29980 0.00258469
4550.81006 0.00261315
4551.31006 0.00264148
4551.81006 0.0026698
4552.31006 0.00269814
4552.81006 0.00272648
4553.31982 0.00275496
4553.81982 0.00278331
4554.31982 0.00281165
4554.83008 0.00284
4555.33008 0.00286851
4555.83008 0.00289686
4556.33008 0.0029251
4556.83984 0.00295362
4557.33984 0.002982
4557.85010 0.00301035
4558.35010 0.0030389
4558.85010 0.00306714
4559.35010 0.00309553
4559.85986 0.00312408
4560.37012 0.00323489
4560.87012 0.00337661
4561.37012 0.00351752
4561.87988 0.00365997
4562.37988 0.00380178
4562.87988 0.00394374
4563.39014 0.0040856
4563.89014 0.00422818
4564.39990 0.00437024
4564.89990 0.00451218
4565.39990 0.00465429
4565.91016 0.00479643
4566.41016 0.00493847
4566.91992 0.0050815
4567.41992 0.00522373
4567.91992 0.00536529
4568.43018 0.00550827
4568.93994 0.00565141
4569.43994 0.00579376
4569.93994 0.00593559
4570.45020 0.00607853
4570.95020 0.00622076
4571.45996 0.006363
4571.95996 0.00650594
4572.47021 0.0066482
4572.97021 0.00679061
4573.47998 0.00693291
4573.97998 0.00707606
4574.49023 0.00721851
4574.99023 0.00736015
4575.50000 0.00750346
4576.00977 0.00764597
4576.50977 0.00778847
4577.02002 0.007931
4577.52002 0.00807354
4578.02979 0.00821692
4578.52979 0.00835964
4579.04004 0.00850305
4579.54004 0.00864494
4580.04980 0.00878875
4580.56006 0.00894367
4581.06006 0.00909696
4581.56982 0.00925174
4582.06982 0.00940579
4582.58008 0.00956076
4583.08984 0.00971499
4583.58984 0.00986834
4584.10010 0.0100233
4584.60010 0.0101776
4585.10986 0.010332
4585.62012 0.0104871
4586.12012 0.0106406
4586.62988 0.0107951
4587.12988 0.0109494
4587.64014 0.0111046
4588.14990 0.0112598
4588.66016 0.0114136
4589.16016 0.0115689
4589.66992 0.0117234
4590.18018 0.0118925
4590.68994 0.0120898
4591.18994 0.012286
4591.70020 0.0124825
4592.20996 0.012679
4592.70996 0.0128755
4593.22021 0.013073
4593.72998 0.0132687
4594.24023 0.0134663
4594.74023 0.0136621
4595.25000 0.0138599
4595.75977 0.0140558
4596.27002 0.0142537
4596.77002 0.0144506
4597.27979 0.0146476
4597.79004 0.0148457
4598.29980 0.015043
4598.79980 0.0152403
4599.31006 0.0154384
4599.81982 0.0156369
4600.33008 0.0158812
4600.83984 0.0161529
4601.35010 0.0164259
4601.85010 0.0166977
4602.35986 0.0169681
4602.87012 0.0172412
4603.37988 0.0175131
4603.89014 0.0177852
4604.39014 0.0180559
4604.89990 0.0183294
4605.41016 0.0186014
4605.91992 0.0188737
4606.43018 0.0191473
4606.93994 0.019421
4607.45020 0.0196921
4607.95020 0.0199648
4608.47021 0.0202399
4608.97021 0.0205114
4609.47998 0.020784
4609.99023 0.0210582
4610.50000 0.0213997
4611.00977 0.0217405
4611.52002 0.0220845
4612.02979 0.0224269
4612.54004 0.0227697
4613.04004 0.0231106
4613.56006 0.0234551
4614.06006 0.0237976
4614.56982 0.0241405
4615.08984 0.0244851
4615.60010 0.0248297
4616.10010 0.025171
4616.60986 0.0255143
4617.12988 0.0258589
4617.64014 0.0262023
4618.14990 0.026547
4618.66016 0.0268905
4619.16992 0.0272339
4619.68018 0.0275773
4620.18994 0.027961
4620.70020 0.0284145
4621.20996 0.0288681
4621.72021 0.0293222
4622.22998 0.0297759
4622.74023 0.0302324
4623.25000 0.0306843
4623.75977 0.0311414
4624.27002 0.0315955
4624.77979 0.0320506
4625.29004 0.0325054
4625.79980 0.0329625
4626.31006 0.0334179
4626.83008 0.0338751
4627.33984 0.0343329
4627.85010 0.0347864
4628.35986 0.0352422
4628.87012 0.0357003
4629.37988 0.0361563
4629.89014 0.0366102
4630.39990 0.0371498
4630.91016 0.0377154
4631.43018 0.0382785
4631.93994 0.0388383
4632.45020 0.0394041
4632.95996 0.0399672
4633.47021 0.0405305
4633.97998 0.041097
4634.50000 0.0416603
4635.00977 0.0422237
4635.52002 0.0427877
4636.04004 0.043357
4636.54004 0.0439179
4637.06006 0.044482
4637.56982 0.0450489
4638.08008 0.0456131
4638.58984 0.0461747
4639.10010 0.0467395
4639.62012 0.0473066
4640.12988 0.0479103
4640.64014 0.0486237
4641.14990 0.0493447
4641.66992 0.0500624
4642.18018 0.0507802
4642.68994 0.0515022
4643.20996 0.0522236
4643.72021 0.0529383
4644.22998 0.0536572
4644.74023 0.054379
4645.25977 0.0550981
4645.77002 0.0558207
4646.29004 0.05654
4646.79980 0.0572593
4647.31006 0.0579788
4647.81982 0.0586991
4648.33984 0.0594188
4648.85010 0.0601393
4649.35986 0.0608592
4649.87988 0.0615834
4650.39014 0.0624312
4650.89990 0.0633145
4651.41992 0.0642064
4651.93018 0.0650942
4652.43994 0.065983
4652.95996 0.0668711
4653.47021 0.0677643
4653.99023 0.0686534
4654.50000 0.0695419
4655.02002 0.0704408
4655.52979 0.0713261
4656.04980 0.0722158
4656.56006 0.0731057
4657.06982 0.0740008
4657.58984 0.0748867
4658.10010 0.075777
4658.62012 0.0766726
4659.12988 0.0775641
4659.64014 0.0784514
4660.16016 0.0793918
4660.66992 0.0804277
4661.18994 0.0814646
4661.70020 0.0825057
4662.22021 0.083543
4662.72998 0.0845805
4663.25000 0.0856172
4663.77002 0.0866611
4664.27979 0.0876991
4664.79980 0.0887374
4665.31006 0.0897759
4665.83008 0.0908205
4666.33984 0.0918545
4666.85010 0.0928935
4667.37012 0.0939386
4667.89014 0.0949789
4668.39990 0.0960195
4668.91992 0.0970603
4669.43018 0.0981013
4669.95020 0.0991435
4670.47021 0.100292
4670.97998 0.101453
4671.50000 0.102602
4672.00977 0.103758
4672.52979 0.10492
4673.04980 0.106077
4673.56006 0.107233
4674.08008 0.108391
4674.60010 0.109553
4675.10986 0.110712
4675.62988 0.111869
4676.14014 0.113028
4676.66016 0.114186
4677.18018 0.115345
4677.68994 0.11651
4678.20996 0.117664
4678.72021 0.118823
4679.24023 0.119989
4679.75977 0.121149
4680.27002 0.122412
4680.79004 0.123765
4681.31006 0.125127
4681.83008 0.126482
4682.33984 0.127836
4682.85986 0.129191
4683.37988 0.130553
4683.89990 0.131909
4684.41016 0.133265
4684.93018 0.134629
4685.45020 0.135979
4685.97021 0.137337
4686.47998 0.138701
4687.00000 0.140059
4687.52002 0.141411
4688.02979 0.14277
4688.54980 0.144135
4689.06982 0.145495
4689.58984 0.146862
4690.10986 0.148334
4690.62988 0.150224
4691.14014 0.152116
4691.66016 0.154016
4692.18018 0.15591
4692.70020 0.157802
4693.22021 0.159696
4693.74023 0.1616
4694.25000 0.163484
4694.77002 0.165379
4695.29004 0.167284
4695.81006 0.169179
4696.33008 0.171077
4696.83984 0.172965
4697.35986 0.174871
4697.87988 0.17677
4698.39990 0.178669
4698.93018 0.180586
4699.43994 0.182477
4699.95996 0.184377
4700.47998 0.185977
4701.00000 0.187546
4701.52002 0.189114
4702.04004 0.190683
4702.56006 0.19226
4703.08008 0.193829
4703.60010 0.195399
4704.10986 0.19697
4704.62988 0.198541
4705.14990 0.200114
4705.66992 0.201686
4706.18994 0.203258
4706.70996 0.204832
4707.22998 0.206406
4707.75000 0.207988
4708.27002 0.209563
4708.79004 0.211138
4709.31006 0.212721
4709.83008 0.214298
4710.35010 0.215896
4710.87012 0.217505
4711.39990 0.219121
4711.91992 0.220731
4712.43994 0.222341
4712.95996 0.223958
4713.47998 0.225561
4714.00000 0.227172
4714.52002 0.228783
4715.04004 0.230402
4715.56006 0.232004
4716.08008 0.233616
4716.60010 0.235236
4717.12012 0.236848
4717.64014 0.23845
4718.16016 0.240079
4718.68994 0.241693
4719.20996 0.243305
4719.72998 0.244919
4720.25000 0.246594
4720.77002 0.248323
4721.29004 0.250052
4721.81006 0.25179
4722.33008 0.253512
4722.85010 0.255244
4723.37988 0.256975
4723.89990 0.258716
4724.41992 0.260448
4724.93994 0.262173
4725.45996 0.263915
4725.97998 0.265649
4726.50977 0.267383
4727.02979 0.269117
4727.54980 0.270862
4728.06982 0.272597
4728.60010 0.274335
4729.12012 0.276081
4729.64014 0.277817
4730.16016 0.279508
4730.68994 0.281104
4731.20996 0.282692
4731.72998 0.284279
4732.25000 0.28586
4732.77979 0.287458
4733.29980 0.289047
4733.81982 0.290637
4734.33984 0.292228
4734.87012 0.293818
4735.39014 0.29541
4735.91016 0.297009
4736.43994 0.298602
4736.95996 0.300194
4737.47998 0.301788
4738.00977 0.303389
4738.52979 0.304983
4739.04980 0.306576
4739.58008 0.30818
4740.10010 0.309801
4740.62012 0.311533
4741.14990 0.313257
4741.66992 0.314999
4742.18994 0.316732
4742.72021 0.318465
4743.24023 0.320209
4743.77002 0.321933
4744.29004 0.323668
4744.81006 0.325412
4745.33984 0.327146
4745.85986 0.328873
4746.39014 0.330618
4746.91016 0.332363
4747.43994 0.3341
4747.95996 0.335836
4748.49023 0.337582
4749.00977 0.33932
4749.52979 0.341059
4750.06006 0.342816
4750.58008 0.34473
4751.10986 0.346643
4751.62988 0.348559
4752.16016 0.350483
4752.68018 0.352399
4753.20020 0.354307
4753.72998 0.356233
4754.25977 0.358152
4754.77979 0.36007
4755.31006 0.361991
4755.83008 0.363921
4756.35986 0.365842
4756.87988 0.367764
4757.41016 0.369695
4757.93994 0.371617
4758.45996 0.37354
4758.97998 0.375466
4759.50977 0.3774
4760.04004 0.379302
4760.56006 0.380907
4761.08984 0.382527
4761.60986 0.384141
4762.14014 0.385754
4762.66992 0.387376
4763.18994 0.388983
4763.72021 0.390597
4764.24023 0.39222
4764.77002 0.393835
4765.29980 0.395451
4765.81982 0.397068
4766.35010 0.398692
4766.87012 0.400301
4767.39990 0.401927
4767.93018 0.403544
4768.45996 0.405171
4768.97998 0.406791
4769.50977 0.408401
4770.04004 0.41005
4770.56006 0.411984
4771.08984 0.413919
4771.62012 0.415866
4772.14014 0.417793
4772.66992 0.419729
4773.20020 0.421677
4773.72021 0.423616
4774.25000 0.425547
4774.77979 0.427496
4775.31006 0.429448
4775.83008 0.431389
4776.35986 0.433331
4776.89014 0.435283
4777.41992 0.437226
4777.93994 0.43917
4778.47021 0.441116
4779.00000 0.443061
4779.52979 0.445007
4780.06006 0.446952
4780.58984 0.448889
4781.10986 0.450807
4781.64014 0.452745
4782.16992 0.454672
4782.68994 0.456602
4783.22021 0.458532
4783.75000 0.460462
4784.27979 0.4624
4784.81006 0.464333
4785.33984 0.466263
4785.87012 0.468206
4786.39014 0.470128
4786.91992 0.47207
4787.45020 0.474005
4787.97998 0.475947
4788.50977 0.477884
4789.04004 0.479808
4789.56982 0.481753
4790.10010 0.48369
4790.62988 0.485634
4791.16016 0.487588
4791.68018 0.489522
4792.20996 0.491467
4792.74023 0.493413
4793.27002 0.49537
4793.79980 0.497317
4794.33008 0.499265
4794.85986 0.501222
4795.39014 0.503161
4795.91992 0.505119
4796.45020 0.507069
4796.97998 0.509028
4797.50977 0.510978
4798.04004 0.51292
4798.56982 0.514882
4799.10010 0.516834
4799.62988 0.518788
4800.16016 0.520633
4800.68994 0.52219
4801.22021 0.523756
4801.75000 0.525322
4802.27979 0.526897
4802.81006 0.528457
4803.33984 0.530033
4803.87012 0.53161
4804.39990 0.533178
4804.93018 0.534747
4805.47021 0.536326
4806.00000 0.537897
4806.52979 0.539468
4807.06006 0.541032
4807.58984 0.54261
4808.12012 0.544184
4808.64990 0.545757
4809.18018 0.54734
4809.70996 0.548906
4810.24023 0.550606
4810.77002 0.552426
4811.31006 0.554266
4811.83008 0.556089
4812.37012 0.557931
4812.89990 0.559772
4813.43018 0.561605
4813.95996 0.563439
4814.50000 0.565285
4815.02002 0.56711
4815.56006 0.568956
4816.08984 0.570792
4816.62012 0.572631
4817.16016 0.574478
4817.68994 0.576307
4818.22021 0.578155
4818.75000 0.579995
4819.27979 0.581835
4819.81006 0.583668
4820.35010 0.585358
4820.87988 0.586958
4821.41016 0.588556
4821.93994 0.590163
4822.47998 0.591757
4823.00977 0.593365
4823.54004 0.594974
4824.06982 0.596569
4824.60986 0.598179
4825.14014 0.599781
4825.68018 0.601393
4826.20996 0.602998
4826.74023 0.604596
4827.27002 0.60621
4827.81006 0.607816
4828.33984 0.609422
4828.87012 0.611021
4829.41016 0.612637
4829.93994 0.614245
4830.47021 0.615818
4831.00977 0.617393
4831.54004 0.618952
4832.06982 0.620527
4832.60986 0.622105
4833.14014 0.623674
4833.68018 0.625243
4834.20996 0.626805
4834.75000 0.628393
4835.27979 0.629964
4835.81006 0.63153
4836.35010 0.63311
4836.87988 0.634692
4837.41016 0.636256
4837.95020 0.63783
4838.47998 0.639407
4839.02002 0.640991
4839.54980 0.64256
4840.08984 0.644073
4840.62012 0.645194
4841.14990 0.646325
4841.68994 0.647457
4842.22998 0.648584
4842.75977 0.649712
4843.29004 0.650834
4843.83008 0.651967
4844.37012 0.653101
4844.89990 0.654229
4845.43994 0.655358
4845.97021 0.656492
4846.50000 0.657616
4847.04004 0.658745
4847.58008 0.65988
4848.10986 0.661011
4848.64014 0.662136
4849.18018 0.663273
4849.72021 0.664405
4850.25000 0.665702
4850.79004 0.667196
4851.31982 0.668676
4851.85986 0.670171
4852.39014 0.671651
4852.93018 0.673147
4853.47021 0.674642
4854.00977 0.67613
4854.54004 0.677625
4855.08008 0.679114
4855.60986 0.680596
4856.14990 0.682094
4856.68994 0.683585
4857.22021 0.685076
4857.75977 0.68656
4858.29980 0.68806
4858.83008 0.689552
4859.37012 0.691044
4859.91016 0.692543
4860.43994 0.693366
4860.97998 0.694055
4861.52002 0.694741
4862.04980 0.695426
4862.58984 0.696116
4863.12012 0.696799
4863.66992 0.697492
4864.20020 0.698179
4864.74023 0.698863
4865.27979 0.699553
4865.81982 0.700244
4866.35010 0.700929
4866.89014 0.701614
4867.43018 0.702306
4867.97021 0.702998
4868.50000 0.703684
4869.04004 0.704377
4869.56982 0.705063
4870.10986 0.705788
4870.64990 0.706632
4871.18994 0.707472
4871.72998 0.708312
4872.25977 0.709148
4872.79980 0.709993
4873.33984 0.710838
4873.87988 0.71168
4874.41992 0.712521
4874.95996 0.713367
4875.50000 0.714205
4876.02979 0.715048
4876.56982 0.71589
4877.10986 0.716736
4877.64990 0.717574
4878.18994 0.718421
4878.72998 0.719265
4879.27002 0.720109
4879.81006 0.720957
4880.33984 0.721774
4880.87988 0.722586
4881.41992 0.723389
4881.95996 0.7242
4882.50000 0.725014
4883.04004 0.72582
4883.58008 0.726632
4884.12012 0.727445
4884.66016 0.72825
4885.20020 0.729064
4885.74023 0.729874
4886.27979 0.730685
4886.81006 0.731492
4887.35986 0.732306
4887.89990 0.733121
4888.43994 0.733928
4888.97998 0.734743
4889.50977 0.735551
4890.06006 0.736345
4890.60010 0.736938
4891.14014 0.737531
4891.68018 0.738128
4892.22021 0.738719
4892.75977 0.739317
4893.29980 0.739915
4893.83984 0.740506
4894.37988 0.741105
4894.91992 0.741703
4895.45996 0.742296
4896.00000 0.742888
4896.54004 0.743486
4897.08008 0.744085
4897.62012 0.744679
4898.16016 0.74528
4898.70020 0.745874
4899.25000 0.746474
4899.77979 0.747068
4900.33008 0.74761
4900.87012 0.748108
4901.41016 0.748602
4901.95020 0.749101
4902.50000 0.7496
4903.02979 0.750094
4903.58008 0.750595
4904.12012 0.751095
4904.66016 0.75159
4905.20020 0.752089
4905.74023 0.752587
4906.29004 0.753088
4906.83008 0.753584
4907.37012 0.754084
4907.91016 0.754579
4908.45020 0.755081
4908.99023 0.755578
4909.54004 0.756079
4910.08008 0.756594
4910.62012 0.75718
4911.16016 0.757772
4911.70996 0.758364
4912.25000 0.758952
4912.79004 0.759545
4913.33984 0.760138
4913.87988 0.760726
4914.41992 0.761319
4914.97021 0.76191
4915.50977 0.7625
4916.04980 0.763088
4916.58984 0.763684
4917.14014 0.76428
4917.68018 0.764868
4918.22021 0.765456
4918.75977 0.766051
4919.31006 0.766647
4919.85010 0.767241
4920.39990 0.767701
4920.93994 0.768112
4921.47998 0.768519
4922.02979 0.768931
4922.56982 0.769342
4923.10986 0.769749
4923.66016 0.770162
4924.20020 0.770574
4924.74023 0.770983
4925.29004 0.771391
4925.83008 0.771803
4926.37988 0.772216
4926.91992 0.772624
4927.45996 0.773033
4928.00977 0.773446
4928.54980 0.773859
4929.10010 0.77427
4929.64014 0.774685
4930.18994 0.775126
4930.72998 0.77562
4931.27979 0.77612
4931.81982 0.77662
4932.35986 0.777115
4932.91016 0.777617
4933.45996 0.778117
4934.00000 0.778612
4934.54004 0.779111
4935.08984 0.779611
4935.64014 0.780111
4936.18018 0.780608
4936.72998 0.78111
4937.27002 0.781607
4937.81006 0.782109
4938.35986 0.782606
4938.89990 0.78311
4939.45020 0.783612
4939.99023 0.784109
4940.54004 0.783887
4941.08984 0.783659
4941.62988 0.783433
4942.18018 0.783204
4942.72998 0.782975
4943.27002 0.782748
4943.81982 0.782519
4944.37012 0.782289
4944.91016 0.782062
4945.45020 0.781836
4946.00000 0.781608
4946.54980 0.781377
4947.10010 0.781148
4947.64014 0.780919
4948.18994 0.780688
4948.72998 0.780458
4949.27979 0.78023
4949.83008 0.779998
4950.37988 0.780894
4950.91992 0.78229
4951.47021 0.783699
4952.02002 0.785111
4952.56006 0.786506
4953.10986 0.787917
4953.66016 0.789328
4954.20020 0.790726
4954.75000 0.792125
4955.29980 0.793538
4955.85010 0.79495
4956.39014 0.79635
4956.93994 0.79775
4957.49023 0.799163
4958.04004 0.800577
4958.58008 0.801978
4959.12988 0.803393
4959.68018 0.804809
4960.22998 0.805803
4960.77002 0.806218
4961.31982 0.806633
4961.87012 0.807044
4962.41992 0.807459
4962.97021 0.807875
4963.52002 0.808287
4964.06006 0.808701
4964.60986 0.809115
4965.16016 0.809531
4965.70996 0.809944
4966.25977 0.810361
4966.79980 0.810774
4967.35010 0.811191
4967.89990 0.811603
4968.45020 0.812021
4969.00000 0.812437
4969.54980 0.812852
4970.10010 0.813421
4970.64990 0.814699
4971.18994 0.815964
4971.75000 0.817241
4972.29980 0.818519
4972.83984 0.819785
4973.39014 0.821064
4973.93994 0.822332
4974.49023 0.823612
4975.04004 0.82488
4975.58984 0.82616
4976.14014 0.827442
4976.68994 0.828712
4977.22998 0.829983
4977.79004 0.831267
4978.33984 0.83255
4978.89014 0.833821
4979.43994 0.835106
4979.99023 0.836392
4980.54004 0.836573
4981.08984 0.836735
4981.64014 0.836896
4982.18994 0.837056
4982.74023 0.837218
4983.29004 0.837378
4983.83984 0.837539
4984.39014 0.837699
4984.93994 0.837861
4985.49023 0.838023
4986.04004 0.838183
4986.58984 0.838343
4987.14014 0.838505
4987.68994 0.838667
4988.24023 0.838828
4988.79980 0.838991
4989.35010 0.839153
4989.89990 0.839313
4990.45020 0.839964
4991.00000 0.840728
4991.54980 0.841485
4992.10010 0.84225
4992.64990 0.843009
4993.20996 0.843775
4993.75977 0.844538
4994.31006 0.8453
4994.85986 0.846066
4995.41016 0.846826
4995.97021 0.847595
4996.50977 0.848355
4997.06982 0.849123
4997.62012 0.849883
4998.16992 0.850651
4998.72021 0.851416
4999.27002 0.852182
4999.83008 0.852952
5000.37988 0.853696
5000.93018 0.854421
5001.47998 0.855148
5002.02979 0.855875
5002.58984 0.856607
5003.14990 0.857339
5003.68994 0.858064
5004.25000 0.858795
5004.79980 0.85952
5005.35010 0.860254
5005.91016 0.860983
5006.45996 0.861713
5007.00977 0.862439
5007.56006 0.863175
5008.12012 0.863909
5008.66992 0.864636
5009.22021 0.865371
5009.77979 0.866105
5010.33008 0.866683
5010.87988 0.867162
5011.43994 0.867643
5011.99023 0.868122
5012.54980 0.868604
5013.10010 0.869082
5013.64990 0.869565
5014.20020 0.870043
5014.75977 0.870526
5015.31982 0.87101
5015.87012 0.87149
5016.41992 0.871971
5016.97021 0.872451
5017.52979 0.872934
5018.08008 0.873413
5018.64014 0.873896
5019.18994 0.874383
5019.74023 0.874861
5020.29980 0.875156
5020.85986 0.875292
5021.41016 0.875426
5021.97021 0.875562
5022.52002 0.875697
5023.06982 0.875834
5023.62988 0.875969
5024.18018 0.876104
5024.74023 0.876241
5025.29004 0.876375
5025.85010 0.87651
5026.39990 0.876645
5026.95996 0.876781
5027.50977 0.876916
5028.06982 0.877052
5028.62012 0.877186
5029.18018 0.877321
5029.74023 0.877457
5030.29004 0.877836
5030.85010 0.878425
5031.39990 0.879018
5031.95996 0.879612
5032.52002 0.880209
5033.06982 0.880807
5033.62988 0.881398
5034.18018 0.881995
5034.74023 0.882588
5035.29980 0.883185
5035.85010 0.883779
5036.41016 0.884374
5036.95996 0.884965
5037.52002 0.885564
5038.08008 0.886164
5038.62988 0.886757
5039.18994 0.887355
5039.75000 0.887954
5040.29980 0.888133
5040.85986 0.887965
5041.41016 0.887796
5041.97021 0.887624
5042.52979 0.887454
5043.08984 0.887285
5043.64990 0.887115
5044.20020 0.886946
5044.75977 0.886775
5045.31982 0.886603
5045.87012 0.886434
5046.43018 0.886263
5046.97998 0.886093
5047.54980 0.885921
5048.10010 0.885751
5048.66016 0.885579
5049.22021 0.885406
5049.77002 0.885235
5050.33008 0.885555
5050.89014 0.886205
5051.45020 0.88686
5052.00977 0.887515
5052.56006 0.888165
5053.12012 0.888821
5053.68018 0.889475
5054.24023 0.890127
5054.79980 0.890784
5055.35010 0.891434
5055.91016 0.892087
5056.47021 0.892742
5057.02979 0.893401
5057.58984 0.894052
5058.14014 0.894707
5058.70020 0.895365
5059.25977 0.896021
5059.81982 0.896681
5060.37988 0.896458
5060.93994 0.895824
5061.50000 0.895192
5062.06006 0.89456
5062.62012 0.893925
5063.18018 0.893294
5063.74023 0.89266
5064.29980 0.892024
5064.85010 0.891393
5065.41992 0.890756
5065.97021 0.890124
5066.52979 0.889486
5067.08984 0.888855
5067.64990 0.888216
5068.20996 0.887579
5068.77002 0.886943
5069.33008 0.886306
5069.89014 0.885669
5070.45020 0.88583
5071.00977 0.886186
5071.56982 0.886541
5072.12988 0.886898
5072.70020 0.887254
5073.25000 0.887608
5073.81006 0.887965
5074.37988 0.888321
5074.93994 0.888677
5075.49023 0.889031
5076.06006 0.889388
5076.62012 0.889745
5077.18018 0.890102
5077.74023 0.890461
5078.29980 0.890816
5078.85986 0.891172
5079.41992 0.89153
5079.97998 0.891886
5080.54004 0.891365
5081.10010 0.890817
5081.66016 0.890263
5082.22998 0.889709
5082.79004 0.88916
5083.35010 0.888606
5083.91016 0.888053
5084.47021 0.887502
5085.02979 0.886953
5085.60010 0.886397
5086.16016 0.885843
5086.72021 0.885289
5087.27979 0.884732
5087.83984 0.884181
5088.39990 0.883626
5088.97021 0.88307
5089.52979 0.882515
5090.08984 0.882029
5090.64990 0.881909
5091.22021 0.881788
5091.77979 0.881668
5092.33984 0.881547
5092.89990 0.881426
5093.47021 0.881306
5094.02979 0.881185
5094.58984 0.881063
5095.14990 0.880942
5095.72021 0.88082
5096.27979 0.880699
5096.83984 0.880578
5097.39990 0.880458
5097.97021 0.880336
5098.52979 0.880214
5099.08984 0.880092
5099.64990 0.879969
5100.22021 0.879842
5100.77979 0.879708
5101.35010 0.879574
5101.91016 0.87944
5102.47998 0.879305
5103.04004 0.87917
5103.60010 0.879036
5104.16016 0.878901
5104.72998 0.878764
5105.29004 0.878629
5105.85010 0.878496
5106.41992 0.87836
5106.97998 0.878224
5107.54980 0.878087
5108.10986 0.87795
5108.66992 0.877814
5109.24023 0.877677
5109.79980 0.87754
5110.37012 0.877515
5110.93018 0.87755
5111.50000 0.877583
5112.06006 0.877617
5112.62988 0.87765
5113.18994 0.877684
5113.75977 0.877718
5114.31982 0.877752
5114.89014 0.877786
5115.45020 0.87782
5116.02002 0.877854
5116.58008 0.877887
5117.14990 0.877921
5117.70996 0.877954
5118.27002 0.877987
5118.83984 0.87802
5119.39990 0.878053
5119.97021 0.878086
5120.54004 0.878155
5121.10010 0.878225
5121.66992 0.878296
5122.22998 0.878367
5122.79980 0.878437
5123.37012 0.878508
5123.93018 0.878577
5124.50000 0.878647
5125.06006 0.878717
5125.62988 0.878787
5126.20020 0.878857
5126.75977 0.878928
5127.33008 0.878998
5127.89990 0.879068
5128.45996 0.879137
5129.02002 0.879206
5129.58984 0.879277
5130.16016 0.879308
5130.72998 0.87924
5131.29980 0.879171
5131.85986 0.879102
5132.43018 0.879034
5133.00000 0.878966
5133.56982 0.878896
5134.12988 0.878828
5134.70020 0.878759
5135.27002 0.87869
5135.83008 0.878621
5136.39990 0.878552
5136.97021 0.878482
5137.52979 0.878414
5138.10010 0.878345
5138.66016 0.878276
5139.22998 0.878206
5139.79980 0.878137
5140.37012 0.878098
5140.93994 0.878075
5141.50977 0.878053
5142.06982 0.878031
5142.64014 0.87801
5143.20996 0.877988
5143.77979 0.877965
5144.35010 0.877943
5144.91992 0.87792
5145.47998 0.877898
5146.04980 0.877876
5146.62012 0.877853
5147.18994 0.877829
5147.75977 0.877806
5148.31982 0.877782
5148.89014 0.877759
5149.45996 0.877735
5150.02979 0.877722
5150.60010 0.877885
5151.16992 0.878048
5151.74023 0.878209
5152.31006 0.878372
5152.87988 0.878535
5153.43994 0.878697
5154.02002 0.87886
5154.58984 0.879022
5155.14990 0.879184
5155.72021 0.879346
5156.29004 0.879508
5156.85986 0.879671
5157.43018 0.879832
5158.00000 0.879994
5158.56982 0.880157
5159.14014 0.880319
5159.70996 0.880481
5160.27979 0.880792
5160.85010 0.88126
5161.41992 0.881726
5161.99023 0.882194
5162.56006 0.882661
5163.12988 0.883128
5163.70020 0.883595
5164.27002 0.884064
5164.83984 0.884532
5165.41016 0.885
5165.97998 0.885469
5166.56006 0.885937
5167.12012 0.886403
5167.68994 0.886872
5168.27002 0.887343
5168.83984 0.887812
5169.39990 0.888277
5169.97998 0.888748
5170.54980 0.889358
5171.12012 0.889975
5171.68994 0.890595
5172.25977 0.891211
5172.83008 0.891828
5173.39990 0.892445
5173.97998 0.893065
5174.54980 0.893683
5175.12012 0.8943
5175.68994 0.894921
5176.25977 0.89554
5176.83008 0.896156
5177.39990 0.896775
5177.97998 0.897397
5178.54980 0.898015
5179.12012 0.898634
5179.68994 0.899253
5180.25977 0.899581
5180.83984 0.899568
5181.41016 0.899555
5181.97998 0.899543
5182.54980 0.89953
5183.12012 0.899517
5183.70020 0.899504
5184.27002 0.89949
5184.85010 0.899476
5185.41992 0.899462
5185.99023 0.899449
5186.56006 0.899435
5187.14014 0.899421
5187.70996 0.899407
5188.27979 0.899393
5188.85010 0.899379
5189.43018 0.899365
5190.00000 0.899351
5190.56982 0.899967
5191.14990 0.900588
5191.72021 0.901206
5192.29004 0.901823
5192.87012 0.90244
5193.43994 0.903061
5194.02002 0.90368
5194.58984 0.904299
5195.16016 0.904921
5195.74023 0.905541
5196.31006 0.90616
5196.87988 0.906779
5197.45996 0.907403
5198.02979 0.908019
5198.60010 0.90864
5199.18018 0.909264
5199.75977 0.909885
5200.33008 0.910206
5200.89990 0.910305
5201.47998 0.910403
5202.04980 0.9105
5202.62988 0.910598
5203.20020 0.910696
5203.77979 0.910794
5204.35010 0.910892
5204.93018 0.910989
5205.50000 0.911087
5206.08008 0.911185
5206.64990 0.911282
5207.22998 0.91138
5207.79980 0.911478
5208.37988 0.911575
5208.95020 0.911673
5209.52979 0.911771
5210.10010 0.911956
5210.68018 0.912538
5211.25000 0.91312
5211.83008 0.913702
5212.39990 0.914288
5212.97998 0.914871
5213.56006 0.915455
5214.12988 0.916039
5214.70996 0.916626
5215.27979 0.917212
5215.85986 0.917796
5216.43994 0.918381
5217.00977 0.918968
5217.58984 0.919554
5218.16992 0.920139
5218.74023 0.920725
5219.31982 0.921312
5219.89014 0.921899
5220.47021 0.922117
5221.04980 0.922248
5221.62012 0.92238
5222.20020 0.922512
5222.77979 0.922643
5223.35010 0.922775
5223.93018 0.922908
5224.50977 0.923041
5225.08984 0.923173
5225.66016 0.923306
5226.24023 0.923438
5226.81982 0.92357
5227.39990 0.923702
5227.97021 0.923834
5228.54980 0.923967
5229.12988 0.924099
5229.70020 0.924231
5230.27979 0.924537
5230.85986 0.925023
5231.43018 0.925507
5232.02002 0.925996
5232.58984 0.926482
5233.16992 0.926969
5233.74023 0.927452
5234.33008 0.927944
5234.89990 0.928432
5235.47998 0.92892
5236.06006 0.92941
5236.64014 0.929898
5237.22021 0.930386
5237.79980 0.930873
5238.37988 0.931363
5238.95020 0.931849
5239.52979 0.932338
5240.10986 0.932692
5240.68994 0.932472
5241.27002 0.932252
5241.85010 0.932033
5242.43018 0.931813
5243.00000 0.931593
5243.58008 0.931372
5244.16016 0.931151
5244.74023 0.93093
5245.31982 0.930709
5245.89990 0.930487
5246.47998 0.930265
5247.06006 0.930043
5247.64014 0.929822
5248.22021 0.9296
5248.79980 0.929377
5249.37988 0.929154
5249.95996 0.928932
5250.54004 0.928968
5251.12012 0.929023
5251.70020 0.929079
5252.27979 0.929134
5252.85986 0.92919
5253.43994 0.929246
5254.02002 0.929301
5254.60010 0.929357
5255.18018 0.929413
5255.75977 0.929467
5256.33984 0.929522
5256.91992 0.929577
5257.50000 0.929633
5258.08984 0.929689
5258.66016 0.929745
5259.24023 0.9298
5259.83008 0.929854
5260.41016 0.930042
5260.99023 0.930288
5261.56982 0.930535
5262.14990 0.930781
5262.72998 0.931026
5263.31006 0.931271
5263.89014 0.931517
5264.47021 0.931764
5265.04980 0.93201
5265.64014 0.932259
5266.22021 0.932505
5266.79980 0.93275
5267.37988 0.932995
5267.97021 0.933241
5268.54980 0.933488
5269.12988 0.933735
5269.70996 0.933983
5270.29004 0.934054
5270.87012 0.933954
5271.45996 0.933851
5272.04004 0.933749
5272.62012 0.933648
5273.20020 0.933545
5273.77979 0.933442
5274.37012 0.93334
5274.95020 0.933236
5275.52979 0.933134
5276.12012 0.93303
5276.70020 0.932927
5277.27979 0.932824
5277.87012 0.932722
5278.43994 0.932619
5279.02979 0.932515
5279.62012 0.93241
5280.20020 0.9321
5280.77979 0.931394
5281.35986 0.930689
5281.95020 0.929983
5282.52979 0.929276
5283.10986 0.928569
5283.70020 0.927858
5284.27979 0.927154
5284.85986 0.926447
5285.45020 0.925735
5286.02979 0.925026
5286.60986 0.924317
5287.20020 0.923604
5287.77979 0.922896
5288.35986 0.922189
5288.95020 0.921475
5289.54004 0.920761
5290.12012 0.920269
5290.70996 0.920604
5291.29004 0.92094
5291.87012 0.921272
5292.45996 0.921607
5293.04004 0.921941
5293.62988 0.922276
5294.20996 0.922609
5294.79004 0.922943
5295.37988 0.92328
5295.97021 0.923615
5296.54980 0.923948
5297.14014 0.924286
5297.72021 0.924621
5298.31006 0.924956
5298.89014 0.925292
5299.47998 0.925628
5300.06006 0.925866
5300.64990 0.925308
5301.24023 0.924747
5301.81982 0.924192
5302.39990 0.923632
5302.99023 0.923072
5303.58008 0.922509
5304.16016 0.921953
5304.75000 0.921391
5305.33008 0.92083
5305.91992 0.920269
5306.50000 0.919708
5307.08984 0.919147
5307.68018 0.918581
5308.25977 0.918018
5308.85010 0.917456
5309.43994 0.91689
5310.02002 0.916355
5310.60986 0.916506
5311.20020 0.916658
5311.77979 0.916808
5312.37012 0.916958
5312.95020 0.917107
5313.54004 0.917257
5314.12988 0.917408
5314.72021 0.917558
5315.31006 0.917709
5315.89014 0.917857
5316.47998 0.918007
5317.06006 0.918158
5317.64990 0.918308
5318.24023 0.918458
5318.83008 0.918607
5319.41992 0.918759
5320.00000 0.918909
5320.58984 0.918403
5321.18018 0.917897
5321.77002 0.917394
5322.35010 0.916891
5322.93994 0.916391
5323.52979 0.915885
5324.12012 0.91538
5324.70020 0.914875
5325.29004 0.914368
5325.87988 0.913866
5326.47021 0.913362
5327.06006 0.912854
5327.64990 0.912349
5328.22998 0.911845
5328.81982 0.911335
5329.41016 0.910826
5330.00000 0.910321
5330.58984 0.910687
5331.18018 0.911054
5331.77002 0.91142
5332.35986 0.911786
5332.93994 0.912149
5333.52979 0.912517
5334.12012 0.912884
5334.70996 0.913249
5335.29980 0.913616
5335.89014 0.913979
5336.47998 0.914348
5337.06982 0.914715
5337.66016 0.915082
5338.24023 0.915448
5338.83984 0.915816
5339.43018 0.916185
5340.02002 0.916532
5340.60986 0.916266
5341.20020 0.915999
5341.77979 0.915736
5342.37988 0.915469
5342.97021 0.915203
5343.56006 0.914936
5344.14990 0.914667
5344.74023 0.914401
5345.33008 0.914133
5345.91992 0.913867
5346.50977 0.913599
5347.10010 0.913329
5347.68994 0.91306
5348.27979 0.912792
5348.87012 0.912524
5349.45996 0.912253
5350.04980 0.912015
5350.64014 0.912107
5351.24023 0.912199
5351.81982 0.91229
5352.41992 0.912381
5353.00977 0.912472
5353.60010 0.912563
5354.18994 0.912654
5354.77979 0.912745
5355.37012 0.912836
5355.97021 0.912927
5356.56006 0.913018
5357.14990 0.913109
5357.74023 0.913199
5358.33008 0.91329
5358.91992 0.913381
5359.52002 0.913471
5360.10010 0.913556
5360.70020 0.913618
5361.29004 0.913679
5361.87988 0.913741
5362.47998 0.913803
5363.06982 0.913865
5363.66016 0.913926
5364.25000 0.913987
5364.83984 0.914048
5365.43994 0.914108
5366.02979 0.914169
5366.62012 0.91423
5367.22021 0.914292
5367.81006 0.914353
5368.39990 0.914414
5368.99023 0.914476
5369.58984 0.914535
5370.18018 0.914802
5370.77002 0.915564
5371.37012 0.916327
5371.95996 0.917088
5372.54980 0.917847
5373.14990 0.918611
5373.74023 0.919367
5374.33984 0.92013
5374.93018 0.920891
5375.52002 0.921652
5376.12012 0.922417
5376.70996 0.923174
5377.29980 0.923939
5377.89990 0.924696
5378.49023 0.925461
5379.08984 0.926228
5379.68018 0.926987
5380.27002 0.927485
5380.85986 0.92767
5381.45996 0.927857
5382.04980 0.928043
5382.64990 0.92823
5383.25000 0.928416
5383.83984 0.928601
5384.43994 0.928788
5385.02979 0.928973
5385.62988 0.929161
5386.22021 0.929347
5386.81006 0.929532
5387.41016 0.92972
5388.00000 0.929907
5388.60010 0.930092
5389.20020 0.930278
5389.79004 0.930463
5390.39014 0.930808
5390.97998 0.931235
5391.56982 0.931663
5392.16992 0.932089
5392.77002 0.932519
5393.35986 0.932949
5393.95996 0.933375
5394.54980 0.933806
5395.14990 0.934232
5395.74023 0.934663
5396.33984 0.935094
5396.93994 0.935519
5397.52979 0.93595
5398.12988 0.936382
5398.72998 0.936808
5399.31982 0.93724
5399.91992 0.937667
5400.52002 0.937964
5401.10986 0.938236
5401.70996 0.938511
5402.29980 0.938784
5402.89990 0.939059
5403.50000 0.939334
5404.10010 0.939607
5404.68994 0.93988
5405.27979 0.940153
5405.87988 0.940428
5406.47998 0.940704
5407.08008 0.940978
5407.68018 0.941251
5408.27979 0.941526
5408.87012 0.9418
5409.47021 0.942075
5410.06006 0.942353
5410.66016 0.942683
5411.25977 0.943012
5411.85986 0.943344
5412.45996 0.943674
5413.04980 0.944004
5413.64990 0.944335
5414.25000 0.944663
5414.85010 0.944996
5415.43994 0.945324
5416.04004 0.945656
5416.64014 0.945987
5417.24023 0.946316
5417.83984 0.94665
5418.43994 0.946979
5419.04004 0.947306
5419.64014 0.947639
5420.22998 0.948117
5420.83008 0.948822
5421.43018 0.949526
5422.02979 0.950238
5422.62988 0.950948
5423.22998 0.951653
5423.83008 0.952363
5424.41992 0.953066
5425.02002 0.953776
5425.62012 0.954483
5426.22021 0.955191
5426.81982 0.955906
5427.41992 0.95661
5428.02002 0.957323
5428.62012 0.958035
5429.22021 0.95874
5429.81982 0.959454
5430.41992 0.959996
5431.02002 0.960462
5431.62012 0.960928
5432.22021 0.961399
5432.81982 0.96187
5433.41992 0.962336
5434.02002 0.962807
5434.62012 0.963274
5435.22021 0.963745
5435.81982 0.964216
5436.41992 0.964686
5437.02002 0.965157
5437.62012 0.965623
5438.22021 0.966095
5438.81982 0.966567
5439.41992 0.967035
5440.02979 0.9675
5440.62988 0.967807
5441.22998 0.96811
5441.83008 0.968413
5442.43018 0.968718
5443.02979 0.969025
5443.62988 0.969327
5444.22998 0.969632
5444.83008 0.969935
5445.43018 0.970242
5446.04004 0.970548
5446.64014 0.970852
5447.24023 0.971158
5447.83984 0.97146
5448.43994 0.971766
5449.04980 0.972072
5449.64990 0.972376
5450.25000 0.972521
5450.85010 0.972435
5451.45020 0.972348
5452.06006 0.972259
5452.66016 0.972173
5453.25977 0.972087
5453.85986 0.971999
5454.45996 0.971911
5455.06982 0.971823
5455.66992 0.971735
5456.27002 0.971647
5456.87012 0.97156
5457.47998 0.971472
5458.08008 0.971383
5458.68018 0.971295
5459.29004 0.971206
5459.89014 0.971118
5460.49023 0.971568
5461.10010 0.972144
5461.70020 0.972715
5462.29980 0.973291
5462.91016 0.973868
5463.50977 0.974439
5464.10986 0.97501
5464.70996 0.975587
5465.31982 0.976163
5465.91992 0.976735
5466.52979 0.977313
5467.12988 0.977885
5467.72998 0.978462
5468.33984 0.97904
5468.93994 0.979612
5469.54980 0.980189
5470.14990 0.980688
5470.75000 0.980965
5471.35986 0.98124
5471.95996 0.981511
5472.56982 0.981787
5473.16992 0.982063
5473.77002 0.982335
5474.37988 0.98261
5474.97998 0.982883
5475.58984 0.983157
5476.18994 0.983429
5476.79980 0.983705
5477.39990 0.983976
5478.00977 0.984251
5478.62012 0.984526
5479.22021 0.984799
5479.81982 0.985076
5480.43018 0.985203
5481.02979 0.985272
5481.64014 0.985341
5482.24023 0.985411
5482.85010 0.985482
5483.45996 0.985551
5484.06006 0.985619
5484.66992 0.985687
5485.27979 0.985756
5485.87988 0.985824
5486.47998 0.985893
5487.08984 0.985962
5487.70020 0.986031
5488.29980 0.986099
5488.91016 0.986167
5489.50977 0.986234
5490.12012 0.986461
5490.72998 0.9873
5491.33008 0.988148
5491.93994 0.988997
5492.54980 0.989837
5493.16016 0.990687
5493.77002 0.991536
5494.37012 0.992377
5494.97998 0.993227
5495.58984 0.994076
5496.18994 0.994918
5496.79004 0.99576
5497.39990 0.99661
5498.00977 0.997462
5498.62012 0.998304
5499.22998 0.999156
5499.83008 1.0
5500.43994 0.999729
5501.04004 0.999034
5501.64990 0.998329
5502.27002 0.997625
5502.87012 0.996928
5503.47998 0.996223
5504.08984 0.995517
5504.68994 0.994819
5505.29980 0.994113
5505.91016 0.993405
5506.52002 0.992705
5507.12988 0.992
5507.72998 0.991295
5508.35010 0.990585
5508.95020 0.989882
5509.56006 0.989172
5510.16992 0.988655
5510.77979 0.988629
5511.37988 0.988601
5511.99023 0.988573
5512.60010 0.988545
5513.20996 0.988517
5513.81982 0.988489
5514.43018 0.988462
5515.04004 0.988434
5515.64990 0.988406
5516.25977 0.988377
5516.87012 0.988349
5517.47998 0.988322
5518.08984 0.988295
5518.70020 0.988265
5519.29980 0.988237
5519.91016 0.988208
5520.52979 0.98797
5521.12988 0.987701
5521.74023 0.987431
5522.35010 0.987157
5522.95996 0.986884
5523.56982 0.986614
5524.18018 0.98634
5524.79980 0.986067
5525.39990 0.985796
5526.02002 0.985521
5526.62012 0.985248
5527.22998 0.984975
5527.85010 0.9847
5528.45996 0.984425
5529.06982 0.984153
5529.68018 0.98388
5530.29004 0.983705
5530.89990 0.983642
5531.50977 0.983578
5532.12012 0.983516
5532.72998 0.983454
5533.33984 0.98339
5533.95020 0.983326
5534.56006 0.983262
5535.18018 0.983197
5535.79004 0.983134
5536.39990 0.983071
5537.00977 0.983006
5537.62012 0.982943
5538.24023 0.982878
5538.85010 0.982812
5539.45996 0.982747
5540.06982 0.98263
5540.68018 0.982094
5541.29980 0.981555
5541.89990 0.981022
5542.52002 0.980487
5543.12988 0.979947
5543.74023 0.97941
5544.35010 0.978875
5544.97021 0.978336
5545.58008 0.977797
5546.18994 0.977258
5546.81006 0.976718
5547.41992 0.976177
5548.02979 0.975641
5548.64014 0.975101
5549.25977 0.974556
5549.87012 0.974021
5550.47998 0.97412
5551.10010 0.974391
5551.70996 0.974662
5552.31982 0.974932
5552.93994 0.975205
5553.54980 0.975476
5554.16016 0.975747
5554.77002 0.976017
5555.39014 0.976291
5556.00000 0.976566
5556.60986 0.976836
5557.22998 0.977109
5557.85010 0.977382
5558.45020 0.977652
5559.06982 0.977924
5559.68994 0.978196
5560.29980 0.977904
5560.91016 0.977014
5561.52979 0.976131
5562.14014 0.975239
5562.75000 0.974355
5563.37012 0.973462
5563.99023 0.972569
5564.60010 0.971684
5565.20996 0.970793
5565.83008 0.969902
5566.43994 0.969008
5567.06006 0.968122
5567.66992 0.967224
5568.29004 0.966327
5568.89990 0.96544
5569.52002 0.964543
5570.12988 0.963894
5570.75000 0.964124
5571.37012 0.964356
5571.97998 0.964586
5572.60010 0.964818
5573.20996 0.965048
5573.81982 0.965279
5574.43994 0.96551
5575.06006 0.96574
5575.66992 0.965972
5576.29004 0.966204
5576.89990 0.966434
5577.52002 0.966664
5578.14014 0.966896
5578.75000 0.967125
5579.37012 0.967356
5579.97998 0.967587
5580.60010 0.967007
5581.22021 0.966412
5581.83008 0.965813
5582.45020 0.965215
5583.06982 0.964613
5583.68994 0.964012
5584.29980 0.963415
5584.91992 0.962812
5585.52979 0.962214
5586.14990 0.961612
5586.77002 0.96101
5587.39014 0.960409
5588.00000 0.95981
5588.62012 0.959205
5589.24023 0.9586
5589.85010 0.958002
5590.47021 0.957656
5591.08984 0.95739
5591.70996 0.957128
5592.31982 0.956865
5592.93994 0.956601
5593.56006 0.956338
5594.18018 0.956072
5594.79004 0.95581
5595.41016 0.955544
5596.02979 0.955278
5596.64990 0.955014
5597.27002 0.954749
5597.89014 0.954484
5598.50000 0.954218
5599.12012 0.953952
5599.74023 0.953685
5600.35986 0.953115
5600.97998 0.95232
5601.60010 0.95152
5602.20996 0.950724
5602.83984 0.949923
5603.45020 0.949125
5604.06982 0.948328
5604.68994 0.947526
5605.31006 0.946731
5605.93018 0.945928
5606.54980 0.945128
5607.16992 0.944328
5607.79004 0.943523
5608.39990 0.942726
5609.02002 0.941926
5609.64990 0.941118
5610.27002 0.940612
5610.87988 0.940503
5611.50000 0.940393
5612.12012 0.940282
5612.74023 0.940172
5613.35986 0.94006
5613.99023 0.939948
5614.60010 0.939837
5615.22021 0.939727
5615.83984 0.939615
5616.47021 0.939502
5617.08984 0.93939
5617.70020 0.939279
5618.33008 0.939167
5618.93994 0.939054
5619.56982 0.938941
5620.18994 0.938741
5620.81006 0.93834
5621.43018 0.93794
5622.04980 0.937538
5622.66992 0.937135
5623.29004 0.936734
5623.91016 0.936333
5624.54004 0.935927
5625.14990 0.935526
5625.77002 0.935125
5626.39990 0.93472
5627.02002 0.934318
5627.64014 0.933913
5628.25977 0.933512
5628.89014 0.933108
5629.50977 0.932705
5630.12988 0.932508
5630.75000 0.933105
5631.37012 0.933704
5631.99023 0.934304
5632.60986 0.934902
5633.24023 0.935503
5633.85986 0.9361
5634.47998 0.936704
5635.10010 0.937301
5635.72998 0.937905
5636.35010 0.938508
5636.97021 0.939105
5637.60010 0.939709
5638.22021 0.940313
5638.83984 0.940914
5639.45996 0.941515
5640.08984 0.941909
5640.70996 0.941019
5641.33008 0.94013
5641.95020 0.93924
5642.58008 0.938351
5643.20020 0.937461
5643.81982 0.936565
5644.43994 0.935677
5645.06982 0.934781
5645.68994 0.933893
5646.31982 0.932995
5646.93994 0.932097
5647.56982 0.931202
5648.18994 0.930308
5648.81006 0.929414
5649.43994 0.928515
5650.06006 0.927633
5650.68994 0.926869
5651.31006 0.926105
5651.93994 0.925336
5652.56006 0.924575
5653.18018 0.923806
5653.81006 0.923045
5654.43018 0.922275
5655.06006 0.921509
5655.68018 0.920742
5656.29980 0.91998
5656.93018 0.91921
5657.56006 0.918438
5658.18018 0.917669
5658.79980 0.916903
5659.43018 0.916135
5660.04980 0.915438
5660.68018 0.915521
5661.31006 0.915604
5661.93018 0.915686
5662.56006 0.91577
5663.18018 0.915853
5663.81006 0.915935
5664.43018 0.916019
5665.06006 0.916103
5665.68018 0.916186
5666.31006 0.916268
5666.93018 0.916352
5667.56006 0.916435
5668.18994 0.916519
5668.81006 0.916602
5669.43994 0.916685
5670.06006 0.916754
5670.68994 0.916708
5671.31982 0.916662
5671.93994 0.916618
5672.56982 0.916574
5673.20020 0.916529
5673.83008 0.916483
5674.45020 0.916438
5675.08008 0.916392
5675.70020 0.916346
5676.33008 0.916301
5676.95996 0.916256
5677.58984 0.91621
5678.20996 0.916165
5678.83984 0.91612
5679.45996 0.916074
5680.08984 0.91587
5680.72021 0.91476
5681.35010 0.913659
5681.97998 0.912548
5682.60010 0.91144
5683.22998 0.910333
5683.85986 0.909219
5684.49023 0.90811
5685.10986 0.906999
5685.75000 0.905883
5686.37012 0.904779
5687.00000 0.903669
5687.62012 0.902556
5688.25977 0.901437
5688.87988 0.900323
5689.50977 0.899209
5690.14014 0.898274
5690.77002 0.897962
5691.39990 0.89765
5692.02979 0.897336
5692.64990 0.897025
5693.27979 0.896714
5693.91016 0.896401
5694.54004 0.896089
5695.16992 0.895776
5695.79980 0.895464
5696.43018 0.89515
5697.06006 0.894837
5697.68994 0.894526
5698.31006 0.894214
5698.95020 0.893898
5699.56982 0.893586
5700.20020 0.893338
5700.83008 0.893226
5701.45996 0.893114
5702.08984 0.893003
5702.72021 0.892892
5703.35010 0.892779
5703.97998 0.892667
5704.60986 0.892555
5705.24023 0.892442
5705.87012 0.892329
5706.50000 0.892218
5707.14014 0.892106
5707.77002 0.891992
5708.39990 0.891879
5709.02979 0.891766
5709.66016 0.891654
5710.29004 0.891384
5710.91992 0.890922
5711.54980 0.890456
5712.18018 0.889996
5712.81006 0.889534
5713.43994 0.88907
5714.06982 0.888604
5714.70020 0.888139
5715.33008 0.887679
5715.97021 0.887214
5716.60010 0.88675
5717.22998 0.886286
5717.85986 0.88582
5718.49023 0.885355
5719.12012 0.884892
5719.75977 0.884425
5720.39014 0.883335
5721.02002 0.881842
5721.64990 0.880352
5722.27979 0.878853
5722.91016 0.87736
5723.54004 0.875874
5724.16992 0.87438
5724.81006 0.872878
5725.43994 0.871384
5726.06982 0.86989
5726.70996 0.868388
5727.33984 0.866893
5727.97021 0.865398
5728.60986 0.863895
5729.24023 0.862399
5729.87012 0.860902
5730.50977 0.860875
5731.14014 0.861219
5731.77002 0.861567
5732.39990 0.861912
5733.04004 0.862261
5733.66992 0.862608
5734.29980 0.862955
5734.93018 0.863301
5735.56982 0.86365
5736.20020 0.863999
5736.83008 0.864346
5737.47021 0.864697
5738.10010 0.865047
5738.74023 0.865395
5739.37012 0.865747
5740.00977 0.866083
5740.64014 0.865066
5741.27979 0.864044
5741.91016 0.863034
5742.54004 0.862012
5743.18018 0.860989
5743.81006 0.859976
5744.43994 0.858958
5745.08008 0.85794
5745.72021 0.856916
5746.35010 0.855903
5746.97998 0.854884
5747.60986 0.853867
5748.25000 0.852842
5748.89014 0.851822
5749.52002 0.850803
5750.16016 0.84993
5750.79004 0.849523
5751.43018 0.849117
5752.06006 0.848707
5752.70020 0.8483
5753.33984 0.847889
5753.97021 0.847478
5754.60010 0.847072
5755.24023 0.846663
5755.87988 0.846253
5756.50977 0.845842
5757.14990 0.845433
5757.77979 0.845024
5758.41992 0.844613
5759.04980 0.844201
5759.68994 0.843791
5760.33008 0.843193
5760.95996 0.842411
5761.60010 0.841634
5762.24023 0.840858
5762.87988 0.840077
5763.50977 0.839303
5764.14990 0.83852
5764.79004 0.837738
5765.41992 0.836964
5766.06006 0.836182
5766.68994 0.835408
5767.33008 0.834626
5767.97021 0.833847
5768.60010 0.833067
5769.24023 0.832292
5769.87988 0.831507
5770.50977 0.831069
5771.14990 0.830711
5771.79004 0.830351
5772.43018 0.829992
5773.06006 0.829634
5773.70020 0.829273
5774.33984 0.828914
5774.97998 0.828555
5775.62012 0.828193
5776.25000 0.827835
5776.89990 0.827473
5777.52979 0.827115
5778.16992 0.826754
5778.81006 0.826394
5779.43994 0.826034
5780.08984 0.82564
5780.72021 0.825054
5781.35986 0.824464
5782.00000 0.823874
5782.64014 0.823281
5783.27002 0.822694
5783.91016 0.822101
5784.56006 0.821508
5785.18994 0.820918
5785.83008 0.820327
5786.47021 0.819732
5787.10986 0.819143
5787.75000 0.818548
5788.39014 0.817956
5789.02979 0.817365
5789.66992 0.816773
5790.31006 0.816392
5790.95020 0.81624
5791.58984 0.816089
5792.22998 0.815938
5792.85986 0.815788
5793.50977 0.815636
5794.14014 0.815486
5794.77979 0.815334
5795.43018 0.815181
5796.06006 0.815029
5796.70020 0.814878
5797.35010 0.814727
5797.97998 0.814576
5798.62988 0.814424
5799.27002 0.814272
5799.91016 0.814121
5800.54980 0.813063
5801.18994 0.811866
5801.83008 0.810655
5802.47021 0.80945
5803.10986 0.808246
5803.75000 0.80704
5804.39014 0.805835
5805.02979 0.804629
5805.66992 0.803421
5806.31006 0.802215
5806.95996 0.801001
5807.60010 0.799795
5808.24023 0.798582
5808.87988 0.79738
5809.52002 0.796165
5810.16992 0.795191
5810.81006 0.794891
5811.45020 0.794588
5812.08984 0.794287
5812.72998 0.793985
5813.37988 0.793683
5814.02002 0.79338
5814.66016 0.793077
5815.29980 0.792777
5815.93994 0.792476
5816.58008 0.792173
5817.22998 0.791869
5817.87012 0.791568
5818.50977 0.791264
5819.16016 0.790959
5819.79980 0.790659
5820.43994 0.789721
5821.08008 0.788499
5821.72998 0.787275
5822.37012 0.786045
5823.02002 0.784821
5823.66016 0.783597
5824.29980 0.782372
5824.93994 0.781145
5825.58984 0.779912
5826.22998 0.77869
5826.87988 0.777457
5827.52002 0.776235
5828.16016 0.774998
5828.79980 0.773769
5829.45020 0.77254
5830.08984 0.771403
5830.72998 0.770863
5831.37988 0.770319
5832.02979 0.769776
5832.66992 0.769237
5833.31006 0.768692
5833.95996 0.768151
5834.60010 0.767608
5835.25000 0.767063
5835.89014 0.766524
5836.54004 0.765978
5837.18018 0.765437
5837.81982 0.764891
5838.47021 0.764349
5839.10986 0.763806
5839.75977 0.763262
5840.39990 0.762424
5841.04980 0.761408
5841.68994 0.760393
5842.33984 0.759372
5842.99023 0.758351
5843.62988 0.757339
5844.27979 0.756317
5844.91992 0.755299
5845.56982 0.754281
5846.22021 0.753256
5846.85986 0.752243
5847.50977 0.75122
5848.14990 0.750206
5848.79980 0.749181
5849.43994 0.74816
5850.08984 0.747203
5850.72998 0.746646
5851.37988 0.74609
5852.02979 0.745531
5852.66992 0.744978
5853.31982 0.744418
5853.97021 0.74386
5854.60986 0.743304
5855.25977 0.742744
5855.91016 0.742187
5856.54980 0.74163
5857.20020 0.741071
5857.85010 0.740513
5858.49023 0.739956
5859.14014 0.739401
5859.79004 0.73884
5860.43994 0.737874
5861.08008 0.736722
5861.72998 0.735558
5862.37988 0.734405
5863.02002 0.733241
5863.66992 0.73208
5864.31982 0.730918
5864.97021 0.729758
5865.60986 0.728596
5866.25977 0.727427
5866.91016 0.726263
5867.56006 0.725099
5868.20996 0.723928
5868.85986 0.722762
5869.50000 0.721596
5870.14990 0.720551
5870.79980 0.7199
5871.45020 0.719245
5872.10010 0.718596
5872.75000 0.717942
5873.39014 0.717293
5874.04004 0.716637
5874.68994 0.715984
5875.33984 0.715332
5875.99023 0.714679
5876.64014 0.714026
5877.29004 0.71337
5877.93994 0.712713
5878.58984 0.712062
5879.24023 0.711405
5879.89014 0.710752
5880.52979 0.709447
5881.18994 0.707997
5881.83008 0.706558
5882.47998 0.705105
5883.12988 0.703665
5883.77979 0.702211
5884.43018 0.700771
5885.08008 0.699316
5885.72998 0.697865
5886.37988 0.696415
5887.02979 0.694957
5887.68018 0.693514
5888.33008 0.692053
5888.99023 0.690593
5889.62988 0.689146
5890.29004 0.688026
5890.93018 0.687354
5891.58984 0.686674
5892.24023 0.685995
5892.89014 0.685321
5893.54004 0.684641
5894.18994 0.683963
5894.83984 0.683285
5895.49023 0.682607
5896.14014 0.681928
5896.79980 0.681246
5897.43994 0.68057
5898.10010 0.679887
5898.74023 0.679209
5899.39990 0.678526
5900.04980 0.677789
5900.70020 0.67638
5901.35010 0.674961
5902.00000 0.673555
5902.66016 0.672136
5903.31006 0.670717
5903.95996 0.669303
5904.60986 0.667889
5905.27002 0.666475
5905.91992 0.665059
5906.56982 0.663643
5907.22021 0.662228
5907.87988 0.660802
5908.52979 0.659392
5909.18018 0.657968
5909.83008 0.656549
5910.47998 0.65556
5911.14014 0.654721
5911.79004 0.653882
5912.43994 0.653038
5913.10010 0.652197
5913.75000 0.651356
5914.41016 0.650511
5915.06006 0.649672
5915.70996 0.64883
5916.35986 0.647988
5917.02002 0.647146
5917.66992 0.6463
5918.31982 0.645462
5918.97998 0.644615
5919.62988 0.643776
5920.29004 0.642806
5920.93994 0.641689
5921.58984 0.640559
5922.25000 0.639435
5922.89990 0.638311
5923.56006 0.637178
5924.20996 0.636052
5924.85986 0.634925
5925.52002 0.633791
5926.16992 0.632668
5926.83008 0.631534
5927.49023 0.630399
5928.14014 0.629274
5928.79004 0.628136
5929.45020 0.627005
5930.10010 0.625991
5930.75977 0.625607
5931.41016 0.625224
5932.06982 0.62484
5932.72021 0.624457
5933.37988 0.624071
5934.02979 0.623688
5934.68994 0.623303
5935.33984 0.622919
5936.00000 0.622534
5936.66016 0.622148
5937.31006 0.621765
5937.97021 0.621378
5938.62012 0.620993
5939.27979 0.620605
5939.93994 0.62022
5940.58984 0.619511
5941.25000 0.618767
5941.89990 0.618023
5942.56006 0.617279
5943.20996 0.616535
5943.87012 0.61579
5944.52979 0.615041
5945.18018 0.614299
5945.83984 0.613549
5946.50000 0.612802
5947.14990 0.612056
5947.81006 0.611305
5948.47021 0.610557
5949.12988 0.609809
5949.77979 0.609062
5950.43994 0.608091
5951.10010 0.607005
5951.75977 0.605924
5952.41016 0.604841
5953.06982 0.603753
5953.72998 0.602677
5954.37988 0.601593
5955.04004 0.60051
5955.70020 0.599418
5956.35986 0.598333
5957.02002 0.597247
5957.66992 0.596161
5958.33008 0.595073
5958.99023 0.593981
5959.64990 0.592892
5960.31006 0.5921
5960.95996 0.591649
5961.62012 0.591197
5962.27979 0.590743
5962.93994 0.590289
5963.60010 0.589839
5964.25977 0.589384
5964.91992 0.588931
5965.58008 0.588477
5966.22998 0.588026
5966.89014 0.58757
5967.54980 0.587116
5968.20996 0.586662
5968.87012 0.586205
5969.52979 0.585752
5970.18994 0.585385
5970.85010 0.585244
5971.50977 0.585102
5972.16992 0.58496
5972.81982 0.584818
5973.49023 0.584676
5974.14990 0.584534
5974.81006 0.584392
5975.47021 0.58425
5976.12988 0.584107
5976.79004 0.583965
5977.45020 0.583823
5978.10986 0.58368
5978.77002 0.583539
5979.43018 0.583397
5980.08984 0.583227
5980.75000 0.582892
5981.41016 0.582554
5982.06982 0.582219
5982.72998 0.58188
5983.39014 0.581541
5984.04980 0.581206
5984.70996 0.580866
5985.37012 0.580527
5986.02979 0.580189
5986.70020 0.579849
5987.35986 0.579511
5988.02002 0.579173
5988.68018 0.578831
5989.33984 0.578493
5990.00000 0.578155
5990.66016 0.578014
5991.33008 0.577872
5991.99023 0.577732
5992.64990 0.577591
5993.31006 0.577451
5993.97021 0.577308
5994.64014 0.577167
5995.29980 0.577026
5995.95996 0.576884
5996.62012 0.576742
5997.27979 0.576601
5997.95020 0.576459
5998.60986 0.576315
5999.27002 0.576174
5999.93994 0.576032
6000.60010 0.574915
6001.25977 0.573695
6001.91992 0.572482
6002.58984 0.571256
6003.25000 0.570035
6003.91016 0.568813
6004.56982 0.567591
6005.24023 0.566367
6005.89990 0.565138
6006.56006 0.563919
6007.22998 0.562688
6007.89014 0.561461
6008.54980 0.560234
6009.22021 0.559001
6009.87988 0.557774
6010.54980 0.556672
6011.20996 0.555593
6011.87988 0.554518
6012.54004 0.553443
6013.20996 0.552362
6013.87012 0.551292
6014.52979 0.550216
6015.18994 0.549139
6015.85986 0.548057
6016.52002 0.546984
6017.18994 0.5459
6017.85010 0.544826
6018.52002 0.543741
6019.18018 0.542661
6019.85010 0.541581
6020.50977 0.539408
6021.18018 0.536918
6021.83984 0.534427
6022.50977 0.531923
6023.16992 0.529429
6023.83984 0.526932
6024.50977 0.524423
6025.16992 0.521925
6025.83008 0.519438
6026.50000 0.516937
6027.16992 0.514421
6027.83008 0.51193
6028.50000 0.509412
6029.16016 0.506904
6029.83008 0.504396
6030.49023 0.501914
6031.16016 0.49941
6031.83008 0.496906
6032.50000 0.494399
6033.16016 0.491917
6033.81982 0.489419
6034.50000 0.486895
6035.16016 0.484407
6035.83008 0.481891
6036.49023 0.4794
6037.16016 0.476882
6037.83008 0.474374
6038.49023 0.471865
6039.16016 0.469367
6039.83008 0.466842
6040.49023 0.463483
6041.16016 0.459821
6041.83008 0.456143
6042.49023 0.452501
6043.16016 0.448817
6043.83008 0.445135
6044.50000 0.441467
6045.16016 0.437817
6045.83008 0.434144
6046.50000 0.430455
6047.16992 0.426782
6047.83984 0.423105
6048.50977 0.419409
6049.16992 0.415733
6049.83984 0.412049
6050.50977 0.407798
6051.18018 0.403419
6051.85010 0.399014
6052.50977 0.394607
6053.18018 0.390178
6053.85010 0.385766
6054.52002 0.381354
6055.18994 0.376917
6055.85986 0.372497
6056.52979 0.368075
6057.18994 0.363674
6057.85986 0.359229
6058.52979 0.354802
6059.20020 0.350369
6059.87012 0.345915
6060.54004 0.341412
6061.20996 0.336887
6061.87988 0.332336
6062.54980 0.327808
6063.22021 0.3233
6063.89014 0.318766
6064.56006 0.314208
6065.22998 0.309667
6065.89990 0.305124
6066.56982 0.30056
6067.24023 0.296013
6067.91016 0.291462
6068.58008 0.286888
6069.25000 0.282358
6069.91992 0.2778
6070.58984 0.273717
6071.25977 0.269679
6071.93018 0.26566
6072.60010 0.261639
6073.27002 0.257597
6073.93994 0.25357
6074.60986 0.249545
6075.27979 0.245536
6075.95996 0.241485
6076.62988 0.237452
6077.29980 0.233415
6077.97021 0.229359
6078.64014 0.225319
6079.31006 0.221281
6079.99023 0.217217
6080.66016 0.213639
6081.33008 0.210083
6082.00000 0.206511
6082.66992 0.202918
6083.33984 0.199339
6084.00977 0.195759
6084.68994 0.192159
6085.35986 0.188575
6086.02979 0.18499
6086.70996 0.181384
6087.37988 0.177811
6088.04980 0.174219
6088.72021 0.170624
6089.39014 0.167009
6090.06006 0.163498
6090.74023 0.160789
6091.41016 0.158063
6092.08984 0.155351
6092.75977 0.152637
6093.43018 0.149935
6094.10010 0.147205
6094.77002 0.144487
6095.45020 0.141766
6096.12012 0.139033
6096.79980 0.13631
6097.47021 0.133586
6098.14990 0.130846
6098.81006 0.128134
6099.49023 0.125407
6100.16016 0.122819
6100.83984 0.120677
6101.50977 0.118543
6102.18018 0.116409
6102.85986 0.114262
6103.52979 0.112126
6104.20996 0.109988
6104.87988 0.107839
6105.56006 0.10571
6106.22998 0.103569
6106.89990 0.101427
6107.58008 0.0992736
6108.25000 0.0971301
6108.93018 0.0949858
6109.60010 0.0928283
6110.27979 0.0909485
6110.95020 0.0894277
6111.62012 0.087906
6112.29980 0.0863758
6112.97998 0.0848525
6113.64990 0.0833274
6114.33008 0.0817948
6115.00000 0.0802681
6115.68018 0.0787406
6116.35986 0.0772045
6117.02979 0.075683
6117.70020 0.0741521
6118.37988 0.0726203
6119.06006 0.071081
6119.72998 0.0695476
6120.41016 0.0682343
6121.08984 0.0670594
6121.75977 0.0658951
6122.43994 0.0647192
6123.10986 0.063554
6123.79004 0.0623763
6124.45996 0.0612049
6125.14014 0.0600313
6125.81982 0.0588522
6126.50000 0.0576784
6127.16992 0.0565034
6127.85010 0.0553228
6128.52002 0.0541526
6129.20020 0.052976
6129.87988 0.0517982
6130.56006 0.0508733
6131.22998 0.0500096
6131.91016 0.049145
6132.58984 0.0482755
6133.25977 0.0474144
6133.93994 0.0465443
6134.62012 0.0456736
6135.29980 0.0448114
6135.97021 0.0439438
6136.64990 0.0430758
6137.33008 0.042203
6138.00977 0.0413342
6138.68994 0.0404651
6139.37012 0.0395912
6140.04004 0.0387379
6140.72021 0.0380748
6141.39990 0.0374175
6142.08008 0.0367533
6142.75977 0.036092
6143.43018 0.0354305
6144.10986 0.0347649
6144.79004 0.0341027
6145.47021 0.0334398
6146.14990 0.0327732
6146.83008 0.0321131
6147.50977 0.0314492
6148.18018 0.0307851
6148.87012 0.0301169
6149.54004 0.0294521
6150.22021 0.0288523
6150.89990 0.0283844
6151.58008 0.0279211
6152.25977 0.027453
6152.93994 0.0269843
6153.62012 0.0265205
6154.29980 0.0260538
6154.97998 0.0255869
6155.66016 0.0251176
6156.33984 0.0246504
6157.02002 0.0241831
6157.70020 0.0237129
6158.37988 0.0232475
6159.06006 0.022777
6159.74023 0.022311
6160.41992 0.0219186
6161.10010 0.0215767
6161.77979 0.0212344
6162.45996 0.0208904
6163.14014 0.0205478
6163.81982 0.020205
6164.50977 0.0198603
6165.18994 0.0195188
6165.85986 0.0191755
6166.54980 0.0188317
6167.22998 0.0184863
6167.91016 0.0181422
6168.58984 0.017798
6169.27002 0.0174518
6169.95020 0.017109
6170.64014 0.0168454
6171.31982 0.0165882
6172.00000 0.0163332
6172.68018 0.0160769
6173.35986 0.0158204
6174.04980 0.0155625
6174.72998 0.0153058
6175.41016 0.0150488
6176.08984 0.0147906
6176.77002 0.0145346
6177.45996 0.0142759
6178.12988 0.0140197
6178.81982 0.0137608
6179.50000 0.0135029
6180.18018 0.0132974
6180.87012 0.0132347
6181.54980 0.0131726
6182.22998 0.0131099
6182.91016 0.0130474
6183.60010 0.0129849
6184.27979 0.0129223
6184.95996 0.0128597
6185.64990 0.0127968
6186.33008 0.0127341
6187.00977 0.0126715
6187.70020 0.0126084
6188.37988 0.0125459
6189.06006 0.0124828
6189.75000 0.01242
6190.43018 0.0123572
6191.10986 0.0122945
6191.79980 0.0122318
6192.47998 0.0121687
6193.16016 0.0121063
6193.85010 0.0120431
6194.52979 0.0119802
6195.22021 0.0119173
6195.89990 0.011854
6196.58984 0.0117914
6197.27002 0.0117281
6197.95996 0.011665
6198.64014 0.0116018
6199.33008 0.0115384
6200.00977 0.0114748
6200.70020 0.0113557
6201.37988 0.0112372
6202.06006 0.0111185
6202.75000 0.0109999
6203.43018 0.0108811
6204.12012 0.0107617
6204.79980 0.0106435
6205.49023 0.010524
6206.18018 0.0104044
6206.85986 0.0102861
6207.54980 0.0101664
6208.22998 0.0100473
6208.91992 0.00992817
6209.60010 0.00980899
6210.29004 0.00968972
6210.97998 0.00956992
6211.66016 0.00945116
6212.35010 0.00933118
6213.04004 0.00921118
6213.72021 0.0090923
6214.41016 0.0089722
6215.08984 0.00885327
6215.77979 0.00873301
6216.45996 0.0086139
6217.14990 0.00849357
6217.83984 0.00837321
6218.52002 0.008254
6219.20996 0.00813354
6219.89990 0.00801357
6220.58984 0.00789403
6221.27002 0.00777461
6221.95996 0.00765504
6222.64990 0.00753476
6223.33008 0.00741567
6224.02002 0.00729534
6224.70996 0.00717488
6225.39990 0.00705555
6226.08984 0.00693498
6226.77002 0.00681494
6227.45996 0.00669485
6228.14990 0.0065753
6228.83984 0.00645441
6229.52979 0.00633347
6230.20996 0.00621354
6230.89990 0.00609207
6231.58984 0.00597056
6232.27979 0.00585022
6232.97021 0.00572914
6233.64990 0.00560812
6234.33984 0.00548637
6235.02979 0.00536579
6235.72021 0.00524396
6236.41016 0.00512209
6237.10010 0.00500131
6237.79004 0.00487936
6238.47998 0.0047579
6239.16016 0.0046364
6239.85010 0.00451546
6240.54004 0.00445476
6241.22998 0.0044111
6241.91992 0.00436789
6242.60986 0.00432419
6243.29980 0.00428047
6243.99023 0.00423716
6244.68018 0.00419341
6245.37012 0.00415008
6246.06006 0.00410629
6246.75000 0.00406289
6247.43994 0.00401904
6248.12988 0.00397517
6248.81982 0.00393172
6249.50977 0.00388782
6250.20020 0.0038441
6250.89014 0.00380028
6251.58008 0.00375666
6252.27002 0.00371263
6252.95996 0.00366853
6253.64990 0.00362486
6254.33984 0.00358075
6255.04004 0.00353663
6255.72021 0.00349289
6256.41992 0.0034487
6257.10986 0.00340471
6257.79980 0.00336071
6258.47998 0.00331691
6259.18018 0.00327263
6259.87012 0.00322836
6260.56006 0.00318453
6261.25977 0.00314027
6261.95020 0.0030962
6262.64014 0.00305211
6263.33008 0.00300779
6889.66309 0.0
