# %ECSV 0.9
# ---
# datatype:
# - {name: wavelength, unit: Angstrom, datatype: float32}
# - {name: response, datatype: float32}
# meta: !!omap
# - {band_name: F892N_81}
# - {group_name: ACS_WFC}
wavelength response
7897.50000 0.0
8775.00000 0.00445364
8776.12988 0.00478355
8777.26953 0.00511485
8778.41016 0.00544541
8779.54004 0.00577438
8780.67969 0.00617325
8781.80957 0.00661867
8782.95020 0.0070616
8784.08008 0.00750581
8785.21973 0.00798445
8786.34961 0.00861591
8787.49023 0.00924872
8788.62012 0.0098785
8789.76953 0.0105129
8790.90039 0.0113222
8792.03027 0.0121767
8793.16992 0.0130338
8794.30957 0.0138869
8795.44043 0.0149492
8796.58008 0.0163438
8797.71973 0.0177307
8798.84961 0.019116
8800.00000 0.0205126
8801.12988 0.0223363
8802.26953 0.0241678
8803.41016 0.0259891
8804.54980 0.0278079
8805.69043 0.0304738
8806.82031 0.0336837
8807.95996 0.0369002
8809.09961 0.0401152
8810.24023 0.0435106
8811.37988 0.047671
8812.51953 0.0518111
8813.66016 0.0559596
8814.79980 0.0600845
8815.94043 0.0667292
8817.08008 0.0738658
8818.21973 0.0809984
8819.36035 0.0881514
8820.50000 0.0966505
8821.63965 0.106889
8822.78027 0.11706
8823.91992 0.127226
8825.05957 0.138671
8826.20020 0.171707
8827.33984 0.204697
8828.48047 0.237811
8829.62988 0.27085
8830.76953 0.300358
8831.91016 0.328052
8833.04980 0.35571
8834.19043 0.38345
8835.33008 0.412109
8836.48047 0.443312
8837.62012 0.474633
8838.75977 0.505884
8839.91016 0.537123
8841.04980 0.584603
8842.19043 0.633412
8843.33984 0.682359
8844.48047 0.731025
8845.62012 0.767334
8846.75977 0.792969
8847.91016 0.818699
8849.05957 0.844392
8850.20020 0.869151
8851.34961 0.890258
8852.49023 0.911259
8853.63965 0.932299
8854.78027 0.953236
8855.91992 0.948527
8857.07031 0.937584
8858.21973 0.926655
8859.36035 0.915741
8860.50977 0.909735
8861.65039 0.909855
8862.79980 0.909973
8863.94043 0.910088
8865.08008 0.910055
8866.23047 0.908147
8867.37988 0.906239
8868.53027 0.904318
8869.66992 0.902413
8870.82031 0.893219
8871.96973 0.881091
8873.11035 0.869031
8874.25977 0.856987
8875.41016 0.84866
8876.55957 0.847174
8877.70996 0.845689
8878.84961 0.844213
8880.00000 0.842739
8881.15039 0.856339
8882.29980 0.869872
8883.45020 0.883453
8884.58984 0.896941
8885.74023 0.899581
8886.88965 0.896253
8888.04004 0.89292
8889.19043 0.889602
8890.33984 0.892804
8891.49023 0.911597
8892.63965 0.9303
8893.79004 0.948975
8894.94043 0.967702
8896.08984 0.965169
8897.24023 0.961408
8898.38965 0.957679
8899.54004 0.953958
8900.69043 0.954204
8901.83984 0.957092
8902.99023 0.959966
8904.13965 0.96285
8905.29004 0.964829
8906.44043 0.964207
8907.59961 0.963576
8908.75000 0.96295
8909.90039 0.96232
8911.04980 0.971103
8912.20020 0.980736
8913.36035 0.990394
8914.50977 1.0
8915.66016 0.994861
8916.80957 0.978804
8917.96973 0.962702
8919.12012 0.946623
8920.26953 0.937085
8921.42969 0.94828
8922.58008 0.959404
8923.74023 0.970568
8924.88965 0.981664
8926.04004 0.97321
8927.20020 0.962554
8928.34961 0.952011
8929.50977 0.941431
8930.66016 0.936339
8931.80957 0.935269
8932.96973 0.934197
8934.12012 0.933133
8935.28027 0.933165
8936.42969 0.936695
8937.58984 0.940223
8938.75000 0.943745
8939.90039 0.947244
8941.05957 0.940548
8942.21973 0.932901
8943.37012 0.92529
8944.51953 0.917686
8945.67969 0.915247
8946.83984 0.916439
8948.00000 0.917627
8949.15039 0.918813
8950.30957 0.920198
8951.46973 0.922157
8952.62012 0.924105
8953.78027 0.926059
8954.94043 0.927998
8956.09961 0.9205
8957.25977 0.912478
8958.41992 0.904496
8959.58008 0.896496
8960.73047 0.894297
8961.88965 0.895451
8963.04980 0.896595
8964.20020 0.897737
8965.37012 0.900049
8966.53027 0.90489
8967.69043 0.909721
8968.84961 0.914521
8970.00000 0.919303
8971.16992 0.920964
8972.32031 0.922614
8973.48047 0.924259
8974.65039 0.925908
8975.79980 0.92471
8976.96973 0.922231
8978.12988 0.919776
8979.29004 0.917325
8980.45020 0.90465
8981.61035 0.875959
8982.76953 0.847288
8983.92969 0.818543
8985.08984 0.788865
8986.25000 0.745701
8987.41992 0.70264
8988.58008 0.659827
8989.74023 0.616861
8990.90039 0.572753
8992.07031 0.528075
8993.23047 0.483641
8994.38965 0.439084
8995.54980 0.398
8996.71973 0.360423
8997.88965 0.322868
8999.04980 0.285521
9000.20996 0.250268
9001.37012 0.225072
9002.53027 0.199922
9003.70020 0.17471
9004.86035 0.14963
9006.01953 0.135167
9007.20020 0.122042
9008.36035 0.109049
9009.51953 0.0960256
9010.69043 0.0853866
9011.84961 0.0763545
9013.01953 0.0672903
9014.17969 0.0582768
9015.33984 0.0507323
9016.51953 0.0466328
9017.67969 0.0425731
9018.84961 0.0384989
9020.00977 0.0344615
9021.17969 0.0314367
9022.33984 0.0284043
9023.50977 0.0253766
9024.67969 0.0223662
9025.83984 0.0204683
9027.00977 0.0189897
9028.17969 0.0175146
9029.34961 0.0160468
9030.51953 0.0147334
9031.67969 0.0136275
9032.84961 0.0125178
9034.01953 0.0114155
9035.17969 0.0103892
9036.36035 0.00976062
9037.51953 0.00913829
9038.69043 0.00851434
9039.86035 0.00789398
9041.03027 0.00741043
9042.20020 0.0069446
9043.36035 0.00648104
9044.53027 0.00601817
9045.70020 0.00572898
9046.87988 0.00555636
9048.04980 0.00538401
9049.21973 0.00521261
9050.37988 0.00504129
9051.55957 0.00486942
9052.71973 0.00469854
9957.99219 0.0
