# %ECSV 0.9
# ---
# datatype:
# - {name: wavelength, unit: Angstrom, datatype: float32}
# - {name: response, datatype: float32}
# meta: !!omap
# - {band_name: F555W_81}
# - {group_name: ACS_WFC}
wavelength response
4089.39307 0.0
4543.77002 0.00219816
4544.27002 0.00222633
4544.77979 0.00225465
4545.27979 0.00228297
4545.77979 0.00231102
4546.27979 0.00233924
4546.79004 0.00236758
4547.29004 0.00239581
4547.79004 0.00242391
4548.29004 0.00245226
4548.79004 0.0024805
4549.29980 0.00250876
4549.79980 0.00253717
4550.29980 0.0025652
4550.81006 0.00259345
4551.31006 0.00262159
4551.81006 0.0026497
4552.31006 0.00267784
4552.81006 0.00270599
4553.31982 0.00273427
4553.81982 0.00276242
4554.31982 0.00279056
4554.83008 0.00281871
4555.33008 0.00284702
4555.83008 0.00287517
4556.33008 0.00290322
4556.83984 0.00293154
4557.33984 0.00295972
4557.85010 0.00298788
4558.35010 0.00301623
4558.85010 0.00304428
4559.35010 0.00307246
4559.85986 0.00310081
4560.37012 0.00321082
4560.87012 0.0033515
4561.37012 0.00349138
4561.87988 0.0036328
4562.37988 0.00377357
4562.87988 0.0039145
4563.39014 0.00405533
4563.89014 0.00419687
4564.39990 0.0043379
4564.89990 0.00447881
4565.39990 0.0046199
4565.91016 0.00476101
4566.41016 0.00490202
4566.91992 0.00504402
4567.41992 0.00518523
4567.91992 0.00532578
4568.43018 0.00546773
4568.93994 0.00560985
4569.43994 0.00575118
4569.93994 0.005892
4570.45020 0.00603392
4570.95020 0.00617513
4571.45996 0.00631636
4571.95996 0.00645828
4572.47021 0.00659954
4572.97021 0.00674094
4573.47998 0.00688224
4573.97998 0.00702437
4574.49023 0.00716582
4574.99023 0.00730646
4575.50000 0.00744877
4576.00977 0.00759027
4576.50977 0.00773178
4577.02002 0.00787331
4577.52002 0.00801485
4578.02979 0.00815724
4578.52979 0.00829895
4579.04004 0.00844136
4579.54004 0.00858227
4580.04980 0.00872509
4580.56006 0.00887893
4581.06006 0.00903115
4581.56982 0.00918486
4582.06982 0.00933784
4582.58008 0.00949174
4583.08984 0.00964491
4583.58984 0.0097972
4584.10010 0.00995113
4584.60010 0.0101043
4585.10986 0.0102577
4585.62012 0.0104117
4586.12012 0.0105642
4586.62988 0.0107176
4587.12988 0.0108708
4587.64014 0.011025
4588.14990 0.0111792
4588.66016 0.0113319
4589.16016 0.0114861
4589.66992 0.0116396
4590.18018 0.0118075
4590.68994 0.0120035
4591.18994 0.0121984
4591.70020 0.0123935
4592.20996 0.0125887
4592.70996 0.0127839
4593.22021 0.01298
4593.72998 0.0131744
4594.24023 0.0133706
4594.74023 0.0135651
4595.25000 0.0137616
4595.75977 0.0139561
4596.27002 0.0141527
4596.77002 0.0143483
4597.27979 0.014544
4597.79004 0.0147408
4598.29980 0.0149368
4598.79980 0.0151327
4599.31006 0.0153296
4599.81982 0.0155267
4600.33008 0.0157694
4600.83984 0.0160392
4601.35010 0.0163104
4601.85010 0.0165803
4602.35986 0.016849
4602.87012 0.0171202
4603.37988 0.0173903
4603.89014 0.0176606
4604.39014 0.0179294
4604.89990 0.0182011
4605.41016 0.0184713
4605.91992 0.0187418
4606.43018 0.0190136
4606.93994 0.0192855
4607.45020 0.0195548
4607.95020 0.0198257
4608.47021 0.020099
4608.97021 0.0203687
4609.47998 0.0206395
4609.99023 0.0209119
4610.50000 0.0212511
4611.00977 0.0215896
4611.52002 0.0219314
4612.02979 0.0222716
4612.54004 0.0226121
4613.04004 0.0229507
4613.56006 0.0232929
4614.06006 0.0236332
4614.56982 0.0239739
4615.08984 0.0243162
4615.60010 0.0246585
4616.10010 0.0249976
4616.60986 0.0253387
4617.12988 0.0256811
4617.64014 0.0260222
4618.14990 0.0263647
4618.66016 0.0267059
4619.16992 0.0270471
4619.68018 0.0273883
4620.18994 0.0277695
4620.70020 0.02822
4621.20996 0.0286707
4621.72021 0.0291218
4622.22998 0.0295726
4622.74023 0.0300261
4623.25000 0.030475
4623.75977 0.0309292
4624.27002 0.0313804
4624.77979 0.0318325
4625.29004 0.0322844
4625.79980 0.0327386
4626.31006 0.033191
4626.83008 0.0336453
4627.33984 0.0341001
4627.85010 0.0345507
4628.35986 0.0350036
4628.87012 0.0354588
4629.37988 0.0359119
4629.89014 0.0363629
4630.39990 0.0368991
4630.91016 0.0374611
4631.43018 0.0380205
4631.93994 0.0385768
4632.45020 0.0391389
4632.95996 0.0396984
4633.47021 0.0402581
4633.97998 0.0408211
4634.50000 0.0413808
4635.00977 0.0419406
4635.52002 0.042501
4636.04004 0.0430667
4636.54004 0.0436241
4637.06006 0.0441847
4637.56982 0.044748
4638.08008 0.0453087
4638.58984 0.0458667
4639.10010 0.046428
4639.62012 0.0469916
4640.12988 0.0475915
4640.64014 0.0483004
4641.14990 0.0490168
4641.66992 0.04973
4642.18018 0.0504432
4642.68994 0.0511607
4643.20996 0.0518776
4643.72021 0.0525878
4644.22998 0.0533022
4644.74023 0.0540195
4645.25977 0.0547342
4645.77002 0.0554523
4646.29004 0.056167
4646.79980 0.056882
4647.31006 0.057597
4647.81982 0.0583128
4648.33984 0.0590281
4648.85010 0.0597441
4649.35986 0.0604596
4649.87988 0.0611793
4650.39014 0.0620219
4650.89990 0.0628997
4651.41992 0.0637861
4651.93018 0.0646684
4652.43994 0.0655517
4652.95996 0.0664343
4653.47021 0.067322
4653.99023 0.0682057
4654.50000 0.0690887
4655.02002 0.069982
4655.52979 0.070862
4656.04980 0.0717463
4656.56006 0.0726307
4657.06982 0.0735204
4657.58984 0.0744009
4658.10010 0.0752858
4658.62012 0.076176
4659.12988 0.077062
4659.64014 0.077944
4660.16016 0.0788788
4660.66992 0.0799083
4661.18994 0.080939
4661.70020 0.0819737
4662.22021 0.0830047
4662.72998 0.084036
4663.25000 0.0850665
4663.77002 0.086104
4664.27979 0.0871358
4664.79980 0.0881679
4665.31006 0.0892002
4665.83008 0.0902386
4666.33984 0.0912663
4666.85010 0.0922991
4667.37012 0.093338
4667.89014 0.0943722
4668.39990 0.0954066
4668.91992 0.0964412
4669.43018 0.097476
4669.95020 0.0985121
4670.47021 0.0996537
4670.97998 0.100808
4671.50000 0.10195
4672.00977 0.1031
4672.52979 0.104255
4673.04980 0.105404
4673.56006 0.106554
4674.08008 0.107705
4674.60010 0.10886
4675.10986 0.110012
4675.62988 0.111163
4676.14014 0.112314
4676.66016 0.113466
4677.18018 0.114618
4677.68994 0.115776
4678.20996 0.116923
4678.72021 0.118076
4679.24023 0.119235
4679.75977 0.120388
4680.27002 0.121645
4680.79004 0.12299
4681.31006 0.124344
4681.83008 0.12569
4682.33984 0.127037
4682.85986 0.128385
4683.37988 0.129738
4683.89990 0.131087
4684.41016 0.132435
4684.93018 0.13379
4685.45020 0.135133
4685.97021 0.136483
4686.47998 0.137839
4687.00000 0.139189
4687.52002 0.140534
4688.02979 0.141886
4688.54980 0.143243
4689.06982 0.144595
4689.58984 0.145954
4690.10986 0.147417
4690.62988 0.149297
4691.14014 0.151177
4691.66016 0.153067
4692.18018 0.15495
4692.70020 0.156831
4693.22021 0.158714
4693.74023 0.160607
4694.25000 0.16248
4694.77002 0.164365
4695.29004 0.166258
4695.81006 0.168143
4696.33008 0.170031
4696.83984 0.171907
4697.35986 0.173802
4697.87988 0.17569
4698.39990 0.177579
4698.93018 0.179486
4699.43994 0.181366
4699.95996 0.183255
4700.47998 0.184847
4701.00000 0.186407
4701.52002 0.187966
4702.04004 0.189527
4702.56006 0.191095
4703.08008 0.192655
4703.60010 0.194217
4704.10986 0.195779
4704.62988 0.197342
4705.14990 0.198906
4705.66992 0.20047
4706.18994 0.202033
4706.70996 0.203599
4707.22998 0.205164
4707.75000 0.206738
4708.27002 0.208304
4708.79004 0.209871
4709.31006 0.211445
4709.83008 0.213014
4710.35010 0.214603
4710.87012 0.216204
4711.39990 0.217811
4711.91992 0.219412
4712.43994 0.221014
4712.95996 0.222623
4713.47998 0.224217
4714.00000 0.22582
4714.52002 0.227422
4715.04004 0.229032
4715.56006 0.230627
4716.08008 0.23223
4716.60010 0.233841
4717.12012 0.235444
4717.64014 0.237039
4718.16016 0.238659
4718.68994 0.240264
4719.20996 0.241868
4719.72998 0.243474
4720.25000 0.24514
4720.77002 0.24686
4721.29004 0.248581
4721.81006 0.25031
4722.33008 0.252023
4722.85010 0.253746
4723.37988 0.255468
4723.89990 0.2572
4724.41992 0.258922
4724.93994 0.260639
4725.45996 0.262372
4725.97998 0.264097
4726.50977 0.265822
4727.02979 0.267548
4727.54980 0.269284
4728.06982 0.27101
4728.60010 0.272739
4729.12012 0.274476
4729.64014 0.276204
4730.16016 0.277886
4730.68994 0.279474
4731.20996 0.281054
4731.72998 0.282634
4732.25000 0.284207
4732.77979 0.285797
4733.29980 0.287378
4733.81982 0.28896
4734.33984 0.290543
4734.87012 0.292126
4735.39014 0.29371
4735.91016 0.295301
4736.43994 0.296887
4736.95996 0.298471
4737.47998 0.300057
4738.00977 0.30165
4738.52979 0.303237
4739.04980 0.304822
4739.58008 0.306418
4740.10010 0.308032
4740.62012 0.309755
4741.14990 0.311471
4741.66992 0.313204
4742.18994 0.31493
4742.72021 0.316653
4743.24023 0.318389
4743.77002 0.320106
4744.29004 0.321832
4744.81006 0.323567
4745.33984 0.325294
4745.85986 0.327012
4746.39014 0.328749
4746.91016 0.330486
4747.43994 0.332214
4747.95996 0.333943
4748.49023 0.33568
4749.00977 0.337409
4749.52979 0.339141
4750.06006 0.340889
4750.58008 0.342795
4751.10986 0.344699
4751.62988 0.346605
4752.16016 0.34852
4752.68018 0.350428
4753.20020 0.352326
4753.72998 0.354243
4754.25977 0.356154
4754.77979 0.358063
4755.31006 0.359974
4755.83008 0.361895
4756.35986 0.363807
4756.87988 0.36572
4757.41016 0.367642
4757.93994 0.369556
4758.45996 0.37147
4758.97998 0.373386
4759.50977 0.375312
4760.04004 0.377205
4760.56006 0.378803
4761.08984 0.380416
4761.60986 0.382022
4762.14014 0.383629
4762.66992 0.385244
4763.18994 0.386844
4763.72021 0.38845
4764.24023 0.390066
4764.77002 0.391675
4765.29980 0.393284
4765.81982 0.394894
4766.35010 0.396511
4766.87012 0.398113
4767.39990 0.399732
4767.93018 0.401343
4768.45996 0.402962
4768.97998 0.404575
4769.50977 0.406179
4770.04004 0.40782
4770.56006 0.409746
4771.08984 0.411672
4771.62012 0.413611
4772.14014 0.41553
4772.66992 0.417457
4773.20020 0.419397
4773.72021 0.421327
4774.25000 0.423249
4774.77979 0.42519
4775.31006 0.427133
4775.83008 0.429066
4776.35986 0.430999
4776.89014 0.432944
4777.41992 0.434878
4777.93994 0.436814
4778.47021 0.438751
4779.00000 0.440688
4779.52979 0.442626
4780.06006 0.444562
4780.58984 0.446491
4781.10986 0.448401
4781.64014 0.450331
4782.16992 0.45225
4782.68994 0.454172
4783.22021 0.456094
4783.75000 0.458015
4784.27979 0.459946
4784.81006 0.46187
4785.33984 0.463793
4785.87012 0.465727
4786.39014 0.467642
4786.91992 0.469576
4787.45020 0.471502
4787.97998 0.473437
4788.50977 0.475365
4789.04004 0.477281
4789.56982 0.479219
4790.10010 0.481148
4790.62988 0.483084
4791.16016 0.48503
4791.68018 0.486956
4792.20996 0.488894
4792.74023 0.490832
4793.27002 0.49278
4793.79980 0.494719
4794.33008 0.49666
4794.85986 0.498609
4795.39014 0.50054
4795.91992 0.50249
4796.45020 0.504433
4796.97998 0.506384
4797.50977 0.508327
4798.04004 0.510261
4798.56982 0.512215
4799.10010 0.51416
4799.62988 0.516106
4800.16016 0.517944
4800.68994 0.519495
4801.22021 0.521055
4801.75000 0.522616
4802.27979 0.524185
4802.81006 0.52574
4803.33984 0.52731
4803.87012 0.528882
4804.39990 0.530444
4804.93018 0.532008
4805.47021 0.533581
4806.00000 0.535146
4806.52979 0.536712
4807.06006 0.538271
4807.58984 0.539844
4808.12012 0.541412
4808.64990 0.542979
4809.18018 0.544557
4809.70996 0.546117
4810.24023 0.547812
4810.77002 0.549625
4811.31006 0.551458
4811.83008 0.553275
4812.37012 0.55511
4812.89990 0.556945
4813.43018 0.558771
4813.95996 0.560598
4814.50000 0.562437
4815.02002 0.564256
4815.56006 0.566095
4816.08984 0.567925
4816.62012 0.569757
4817.16016 0.571598
4817.68994 0.57342
4818.22021 0.575261
4818.75000 0.577095
4819.27979 0.578929
4819.81006 0.580755
4820.35010 0.58244
4820.87988 0.584035
4821.41016 0.585628
4821.93994 0.58723
4822.47998 0.588818
4823.00977 0.590421
4823.54004 0.592025
4824.06982 0.593614
4824.60986 0.59522
4825.14014 0.596817
4825.68018 0.598423
4826.20996 0.600023
4826.74023 0.601616
4827.27002 0.603224
4827.81006 0.604825
4828.33984 0.606427
4828.87012 0.608021
4829.41016 0.609632
4829.93994 0.611235
4830.47021 0.612803
4831.00977 0.614373
4831.54004 0.615927
4832.06982 0.617498
4832.60986 0.619071
4833.14014 0.620636
4833.68018 0.622199
4834.20996 0.623757
4834.75000 0.62534
4835.27979 0.626906
4835.81006 0.628467
4836.35010 0.630043
4836.87988 0.63162
4837.41016 0.63318
4837.95020 0.634749
4838.47998 0.636321
4839.02002 0.637901
4839.54980 0.639466
4840.08984 0.640974
4840.62012 0.642093
4841.14990 0.643221
4841.68994 0.64435
4842.22998 0.645476
4842.75977 0.646601
4843.29004 0.647721
4843.83008 0.648852
4844.37012 0.649983
4844.89990 0.651109
4845.43994 0.652235
4845.97021 0.653367
4846.50000 0.654489
4847.04004 0.655616
4847.58008 0.656749
4848.10986 0.657877
4848.64014 0.659
4849.18018 0.660135
4849.72021 0.661264
4850.25000 0.662559
4850.79004 0.664049
4851.31982 0.665524
4851.85986 0.667015
4852.39014 0.668492
4852.93018 0.669984
4853.47021 0.671475
4854.00977 0.67296
4854.54004 0.674451
4855.08008 0.675936
4855.60986 0.677414
4856.14990 0.678908
4856.68994 0.680395
4857.22021 0.681883
4857.75977 0.683363
4858.29980 0.684859
4858.83008 0.686347
4859.37012 0.687836
4859.91016 0.689331
4860.43994 0.690154
4860.97998 0.690842
4861.52002 0.691528
4862.04980 0.692214
4862.58984 0.692904
4863.12012 0.693587
4863.66992 0.69428
4864.20020 0.694967
4864.74023 0.695651
4865.27979 0.696341
4865.81982 0.697032
4866.35010 0.697717
4866.89014 0.698402
4867.43018 0.699094
4867.97021 0.699787
4868.50000 0.700472
4869.04004 0.701165
4869.56982 0.701852
4870.10986 0.702577
4870.64990 0.70342
4871.18994 0.704259
4871.72998 0.705099
4872.25977 0.705934
4872.79980 0.706779
4873.33984 0.707624
4873.87988 0.708465
4874.41992 0.709305
4874.95996 0.710151
4875.50000 0.710989
4876.02979 0.711831
4876.56982 0.712673
4877.10986 0.713518
4877.64990 0.714356
4878.18994 0.715203
4878.72998 0.716046
4879.27002 0.71689
4879.81006 0.717737
4880.33984 0.718553
4880.87988 0.719365
4881.41992 0.720168
4881.95996 0.72098
4882.50000 0.721793
4883.04004 0.722598
4883.58008 0.723411
4884.12012 0.724223
4884.66016 0.725028
4885.20020 0.725841
4885.74023 0.726651
4886.27979 0.727462
4886.81006 0.728269
4887.35986 0.729083
4887.89990 0.729898
4888.43994 0.730704
4888.97998 0.731519
4889.50977 0.732327
4890.06006 0.733121
4890.60010 0.733714
4891.14014 0.734309
4891.68018 0.734906
4892.22021 0.735498
4892.75977 0.736097
4893.29980 0.736696
4893.83984 0.737288
4894.37988 0.737887
4894.91992 0.738486
4895.45996 0.73908
4896.00000 0.739673
4896.54004 0.740272
4897.08008 0.740872
4897.62012 0.741467
4898.16016 0.742068
4898.70020 0.742663
4899.25000 0.743264
4899.77979 0.743859
4900.33008 0.744402
4900.87012 0.744901
4901.41016 0.745397
4901.95020 0.745898
4902.50000 0.746398
4903.02979 0.746893
4903.58008 0.747395
4904.12012 0.747897
4904.66016 0.748393
4905.20020 0.748893
4905.74023 0.749392
4906.29004 0.749895
4906.83008 0.750392
4907.37012 0.750893
4907.91016 0.75139
4908.45020 0.751893
4908.99023 0.752391
4909.54004 0.752894
4910.08008 0.75341
4910.62012 0.753997
4911.16016 0.75459
4911.70996 0.755183
4912.25000 0.755772
4912.79004 0.756366
4913.33984 0.75696
4913.87988 0.757549
4914.41992 0.758143
4914.97021 0.758735
4915.50977 0.759326
4916.04980 0.759915
4916.58984 0.760512
4917.14014 0.761109
4917.68018 0.761699
4918.22021 0.762288
4918.75977 0.762884
4919.31006 0.763481
4919.85010 0.764076
4920.39990 0.764537
4920.93994 0.76495
4921.47998 0.765359
4922.02979 0.765773
4922.56982 0.766186
4923.10986 0.766595
4923.66016 0.767009
4924.20020 0.767423
4924.74023 0.767834
4925.29004 0.768244
4925.83008 0.768658
4926.37988 0.769072
4926.91992 0.769482
4927.45996 0.769893
4928.00977 0.770308
4928.54980 0.770723
4929.10010 0.771136
4929.64014 0.771553
4930.18994 0.771995
4930.72998 0.772491
4931.27979 0.772992
4931.81982 0.773494
4932.35986 0.773991
4932.91016 0.774494
4933.45996 0.774995
4934.00000 0.775493
4934.54004 0.775993
4935.08984 0.776494
4935.64014 0.776996
4936.18018 0.777494
4936.72998 0.777997
4937.27002 0.778496
4937.81006 0.779
4938.35986 0.779499
4938.89990 0.780004
4939.45020 0.780508
4939.99023 0.781006
4940.54004 0.780789
4941.08984 0.780565
4941.62988 0.780344
4942.18018 0.78012
4942.72998 0.779895
4943.27002 0.779672
4943.81982 0.779447
4944.37012 0.779222
4944.91016 0.778999
4945.45020 0.778778
4946.00000 0.778554
4946.54980 0.778328
4947.10010 0.778103
4947.64014 0.777879
4948.18994 0.777652
4948.72998 0.777427
4949.27979 0.777203
4949.83008 0.776976
4950.37988 0.777871
4950.91992 0.779265
4951.47021 0.780673
4952.02002 0.782083
4952.56006 0.783476
4953.10986 0.784885
4953.66016 0.786295
4954.20020 0.787691
4954.75000 0.789087
4955.29980 0.790499
4955.85010 0.791909
4956.39014 0.793308
4956.93994 0.794705
4957.49023 0.796117
4958.04004 0.797529
4958.58008 0.798928
4959.12988 0.800342
4959.68018 0.801755
4960.22998 0.80275
4960.77002 0.803166
4961.31982 0.803583
4961.87012 0.803996
4962.41992 0.804414
4962.97021 0.804832
4963.52002 0.805246
4964.06006 0.805662
4964.60986 0.806078
4965.16016 0.806497
4965.70996 0.806911
4966.25977 0.807331
4966.79980 0.807745
4967.35010 0.808164
4967.89990 0.808579
4968.45020 0.808999
4969.00000 0.809417
4969.54980 0.809834
4970.10010 0.810405
4970.64990 0.811682
4971.18994 0.812946
4971.75000 0.814221
4972.29980 0.815498
4972.83984 0.816764
4973.39014 0.818041
4973.93994 0.819308
4974.49023 0.820588
4975.04004 0.821854
4975.58984 0.823134
4976.14014 0.824414
4976.68994 0.825684
4977.22998 0.826953
4977.79004 0.828236
4978.33984 0.829518
4978.89014 0.830789
4979.43994 0.832073
4979.99023 0.833358
4980.54004 0.833542
4981.08984 0.833707
4981.64014 0.833872
4982.18994 0.834035
4982.74023 0.834199
4983.29004 0.834363
4983.83984 0.834527
4984.39014 0.834691
4984.93994 0.834856
4985.49023 0.835021
4986.04004 0.835184
4986.58984 0.835347
4987.14014 0.835512
4987.68994 0.835678
4988.24023 0.835842
4988.79980 0.836007
4989.35010 0.836173
4989.89990 0.836336
4990.45020 0.836988
4991.00000 0.837753
4991.54980 0.838511
4992.10010 0.839278
4992.64990 0.840038
4993.20996 0.840805
4993.75977 0.841569
4994.31006 0.842332
4994.85986 0.843099
4995.41016 0.84386
4995.97021 0.84463
4996.50977 0.845391
4997.06982 0.84616
4997.62012 0.846922
4998.16992 0.847692
4998.72021 0.848457
4999.27002 0.849224
4999.83008 0.849996
5000.37988 0.85074
5000.93018 0.851467
5001.47998 0.852195
5002.02979 0.852924
5002.58984 0.853657
5003.14990 0.85439
5003.68994 0.855116
5004.25000 0.855849
5004.79980 0.856575
5005.35010 0.85731
5005.91016 0.858041
5006.45996 0.858772
5007.00977 0.859499
5007.56006 0.860236
5008.12012 0.860972
5008.66992 0.8617
5009.22021 0.862436
5009.77979 0.863172
5010.33008 0.863752
5010.87988 0.864232
5011.43994 0.864716
5011.99023 0.865198
5012.54980 0.865682
5013.10010 0.866162
5013.64990 0.866647
5014.20020 0.867128
5014.75977 0.867613
5015.31982 0.868099
5015.87012 0.868581
5016.41992 0.869064
5016.97021 0.869546
5017.52979 0.870032
5018.08008 0.870513
5018.64014 0.870998
5019.18994 0.871487
5019.74023 0.871968
5020.29980 0.872266
5020.85986 0.872405
5021.41016 0.872543
5021.97021 0.872682
5022.52002 0.872821
5023.06982 0.872961
5023.62988 0.8731
5024.18018 0.873238
5024.74023 0.873378
5025.29004 0.873516
5025.85010 0.873654
5026.39990 0.873793
5026.95996 0.873931
5027.50977 0.87407
5028.06982 0.87421
5028.62012 0.874348
5029.18018 0.874486
5029.74023 0.874625
5030.29004 0.875006
5030.85010 0.875598
5031.39990 0.876193
5031.95996 0.876788
5032.52002 0.877388
5033.06982 0.877988
5033.62988 0.878581
5034.18018 0.87918
5034.74023 0.879774
5035.29980 0.880374
5035.85010 0.88097
5036.41016 0.881566
5036.95996 0.882159
5037.52002 0.882761
5038.08008 0.883363
5038.62988 0.883957
5039.18994 0.884557
5039.75000 0.885158
5040.29980 0.885341
5040.85986 0.885177
5041.41016 0.885012
5041.97021 0.884845
5042.52979 0.884679
5043.08984 0.884515
5043.64990 0.884349
5044.20020 0.884184
5044.75977 0.884018
5045.31982 0.883851
5045.87012 0.883686
5046.43018 0.88352
5046.97998 0.883354
5047.54980 0.883186
5048.10010 0.883021
5048.66016 0.882853
5049.22021 0.882684
5049.77002 0.882518
5050.33008 0.882841
5050.89014 0.883492
5051.45020 0.884149
5052.00977 0.884806
5052.56006 0.885457
5053.12012 0.886116
5053.68018 0.886771
5054.24023 0.887426
5054.79980 0.888085
5055.35010 0.888737
5055.91016 0.889392
5056.47021 0.890049
5057.02979 0.890709
5057.58984 0.891362
5058.14014 0.892019
5058.70020 0.892679
5059.25977 0.893337
5059.81982 0.893999
5060.37988 0.893781
5060.93994 0.893153
5061.50000 0.892526
5062.06006 0.891899
5062.62012 0.891271
5063.18018 0.890646
5063.74023 0.890018
5064.29980 0.889387
5064.85010 0.888762
5065.41992 0.88813
5065.97021 0.887504
5066.52979 0.886872
5067.08984 0.886247
5067.64990 0.885613
5068.20996 0.884982
5068.77002 0.884351
5069.33008 0.88372
5069.89014 0.883089
5070.45020 0.883254
5071.00977 0.883612
5071.56982 0.88397
5072.12988 0.884329
5072.70020 0.884689
5073.25000 0.885046
5073.81006 0.885406
5074.37988 0.885764
5074.93994 0.886123
5075.49023 0.88648
5076.06006 0.88684
5076.62012 0.887199
5077.18018 0.887559
5077.74023 0.887921
5078.29980 0.888279
5078.85986 0.888638
5079.41992 0.888999
5079.97998 0.889358
5080.54004 0.888842
5081.10010 0.8883
5081.66016 0.887751
5082.22998 0.887202
5082.79004 0.886659
5083.35010 0.886109
5083.91016 0.885563
5084.47021 0.885017
5085.02979 0.884473
5085.60010 0.883922
5086.16016 0.883374
5086.72021 0.882825
5087.27979 0.882273
5087.83984 0.881727
5088.39990 0.881179
5088.97021 0.880628
5089.52979 0.880078
5090.08984 0.879597
5090.64990 0.879481
5091.22021 0.879364
5091.77979 0.879248
5092.33984 0.879132
5092.89990 0.879015
5093.47021 0.878898
5094.02979 0.878782
5094.58984 0.878664
5095.14990 0.878547
5095.72021 0.878429
5096.27979 0.878313
5096.83984 0.878196
5097.39990 0.878079
5097.97021 0.877961
5098.52979 0.877844
5099.08984 0.877726
5099.64990 0.877607
5100.22021 0.877484
5100.77979 0.877354
5101.35010 0.877225
5101.91016 0.877095
5102.47998 0.876964
5103.04004 0.876833
5103.60010 0.876703
5104.16016 0.876571
5104.72998 0.876439
5105.29004 0.876309
5105.85010 0.876179
5106.41992 0.876047
5106.97998 0.875915
5107.54980 0.875783
5108.10986 0.87565
5108.66992 0.875518
5109.24023 0.875385
5109.79980 0.875252
5110.37012 0.875231
5110.93018 0.875269
5111.50000 0.875306
5112.06006 0.875344
5112.62988 0.875381
5113.18994 0.875418
5113.75977 0.875456
5114.31982 0.875494
5114.89014 0.875531
5115.45020 0.875569
5116.02002 0.875606
5116.58008 0.875643
5117.14990 0.87568
5117.70996 0.875717
5118.27002 0.875754
5118.83984 0.87579
5119.39990 0.875827
5119.97021 0.875864
5120.54004 0.875937
5121.10010 0.876011
5121.66992 0.876085
5122.22998 0.876159
5122.79980 0.876233
5123.37012 0.876307
5123.93018 0.87638
5124.50000 0.876454
5125.06006 0.876527
5125.62988 0.876601
5126.20020 0.876674
5126.75977 0.876748
5127.33008 0.876822
5127.89990 0.876895
5128.45996 0.876968
5129.02002 0.877041
5129.58984 0.877115
5130.16016 0.87715
5130.72998 0.877086
5131.29980 0.87702
5131.85986 0.876956
5132.43018 0.876892
5133.00000 0.876827
5133.56982 0.876762
5134.12988 0.876697
5134.70020 0.876632
5135.27002 0.876567
5135.83008 0.876502
5136.39990 0.876436
5136.97021 0.876371
5137.52979 0.876306
5138.10010 0.876241
5138.66016 0.876176
5139.22998 0.87611
5139.79980 0.876045
5140.37012 0.87601
5140.93994 0.875991
5141.50977 0.875972
5142.06982 0.875954
5142.64014 0.875936
5143.20996 0.875918
5143.77979 0.875899
5144.35010 0.87588
5144.91992 0.875861
5145.47998 0.875843
5146.04980 0.875825
5146.62012 0.875806
5147.18994 0.875786
5147.75977 0.875766
5148.31982 0.875746
5148.89014 0.875727
5149.45996 0.875707
5150.02979 0.875697
5150.60010 0.875864
5151.16992 0.87603
5151.74023 0.876194
5152.31006 0.876361
5152.87988 0.876527
5153.43994 0.876692
5154.02002 0.876858
5154.58984 0.877024
5155.14990 0.87719
5155.72021 0.877355
5156.29004 0.87752
5156.85986 0.877686
5157.43018 0.877851
5158.00000 0.878016
5158.56982 0.878183
5159.14014 0.878347
5159.70996 0.878512
5160.27979 0.878827
5160.85010 0.879297
5161.41992 0.879766
5161.99023 0.880237
5162.56006 0.880706
5163.12988 0.881176
5163.70020 0.881646
5164.27002 0.882118
5164.83984 0.882587
5165.41016 0.883058
5165.97998 0.883531
5166.56006 0.884001
5167.12012 0.88447
5167.68994 0.884941
5168.27002 0.885415
5168.83984 0.885886
5169.39990 0.886355
5169.97998 0.886828
5170.54980 0.887441
5171.12012 0.888059
5171.68994 0.888682
5172.25977 0.8893
5172.83008 0.88992
5173.39990 0.890539
5173.97998 0.891162
5174.54980 0.891782
5175.12012 0.892402
5175.68994 0.893025
5176.25977 0.893646
5176.83008 0.894265
5177.39990 0.894886
5177.97998 0.89551
5178.54980 0.896131
5179.12012 0.896752
5179.68994 0.897374
5180.25977 0.897705
5180.83984 0.897696
5181.41016 0.897687
5181.97998 0.897678
5182.54980 0.897669
5183.12012 0.89766
5183.70020 0.89765
5184.27002 0.89764
5184.85010 0.89763
5185.41992 0.89762
5185.99023 0.89761
5186.56006 0.8976
5187.14014 0.89759
5187.70996 0.89758
5188.27979 0.89757
5188.85010 0.897559
5189.43018 0.897549
5190.00000 0.897539
5190.56982 0.898158
5191.14990 0.898781
5191.72021 0.899401
5192.29004 0.900021
5192.87012 0.90064
5193.43994 0.901264
5194.02002 0.901885
5194.58984 0.902506
5195.16016 0.903131
5195.74023 0.903754
5196.31006 0.904376
5196.87988 0.904997
5197.45996 0.905623
5198.02979 0.906242
5198.60010 0.906865
5199.18018 0.907492
5199.75977 0.908115
5200.33008 0.908439
5200.89990 0.908542
5201.47998 0.908643
5202.04980 0.908745
5202.62988 0.908846
5203.20020 0.908947
5203.77979 0.909049
5204.35010 0.90915
5204.93018 0.909251
5205.50000 0.909353
5206.08008 0.909454
5206.64990 0.909555
5207.22998 0.909656
5207.79980 0.909757
5208.37988 0.909858
5208.95020 0.90996
5209.52979 0.910062
5210.10010 0.910249
5210.68018 0.910834
5211.25000 0.911419
5211.83008 0.912004
5212.39990 0.912592
5212.97998 0.913178
5213.56006 0.913765
5214.12988 0.914351
5214.70996 0.914941
5215.27979 0.915529
5215.85986 0.916116
5216.43994 0.916704
5217.00977 0.917294
5217.58984 0.917882
5218.16992 0.91847
5218.74023 0.919059
5219.31982 0.919648
5219.89014 0.920238
5220.47021 0.920459
5221.04980 0.920594
5221.62012 0.920729
5222.20020 0.920864
5222.77979 0.921
5223.35010 0.921135
5223.93018 0.921271
5224.50977 0.921408
5225.08984 0.921544
5225.66016 0.92168
5226.24023 0.921816
5226.81982 0.921951
5227.39990 0.922087
5227.97021 0.922222
5228.54980 0.922359
5229.12988 0.922494
5229.70020 0.92263
5230.27979 0.922939
5230.85986 0.923428
5231.43018 0.923915
5232.02002 0.924407
5232.58984 0.924896
5233.16992 0.925385
5233.74023 0.925872
5234.33008 0.926367
5234.89990 0.926857
5235.47998 0.927348
5236.06006 0.927841
5236.64014 0.928332
5237.22021 0.928823
5237.79980 0.929313
5238.37988 0.929806
5238.95020 0.930295
5239.52979 0.930787
5240.10986 0.931144
5240.68994 0.930928
5241.27002 0.930713
5241.85010 0.930498
5242.43018 0.930282
5243.00000 0.930065
5243.58008 0.929849
5244.16016 0.929633
5244.74023 0.929415
5245.31982 0.929198
5245.89990 0.92898
5246.47998 0.928762
5247.06006 0.928544
5247.64014 0.928328
5248.22021 0.92811
5248.79980 0.927891
5249.37988 0.927673
5249.95996 0.927453
5250.54004 0.927493
5251.12012 0.927552
5251.70020 0.927612
5252.27979 0.92767
5252.85986 0.92773
5253.43994 0.927789
5254.02002 0.927849
5254.60010 0.927908
5255.18018 0.927967
5255.75977 0.928026
5256.33984 0.928084
5256.91992 0.928142
5257.50000 0.928202
5258.08984 0.928262
5258.66016 0.928321
5259.24023 0.92838
5259.83008 0.928438
5260.41016 0.928629
5260.99023 0.928878
5261.56982 0.929129
5262.14990 0.929378
5262.72998 0.929626
5263.31006 0.929875
5263.89014 0.930125
5264.47021 0.930375
5265.04980 0.930624
5265.64014 0.930877
5266.22021 0.931126
5266.79980 0.931374
5267.37988 0.931622
5267.97021 0.931872
5268.54980 0.932123
5269.12988 0.932373
5269.70996 0.932624
5270.29004 0.932698
5270.87012 0.932602
5271.45996 0.932503
5272.04004 0.932405
5272.62012 0.932308
5273.20020 0.932209
5273.77979 0.93211
5274.37012 0.932011
5274.95020 0.931912
5275.52979 0.931813
5276.12012 0.931714
5276.70020 0.931614
5277.27979 0.931515
5277.87012 0.931417
5278.43994 0.931318
5279.02979 0.931218
5279.62012 0.931117
5280.20020 0.93081
5280.77979 0.930109
5281.35986 0.929409
5281.95020 0.928707
5282.52979 0.928004
5283.10986 0.927302
5283.70020 0.926597
5284.27979 0.925897
5284.85986 0.925194
5285.45020 0.924487
5286.02979 0.923783
5286.60986 0.923079
5287.20020 0.92237
5287.77979 0.921666
5288.35986 0.920964
5288.95020 0.920255
5289.54004 0.919546
5290.12012 0.919058
5290.70996 0.919396
5291.29004 0.919735
5291.87012 0.92007
5292.45996 0.920408
5293.04004 0.920746
5293.62988 0.921084
5294.20996 0.92142
5294.79004 0.921758
5295.37988 0.922098
5295.97021 0.922436
5296.54980 0.922772
5297.14014 0.923113
5297.72021 0.923452
5298.31006 0.923789
5298.89014 0.924128
5299.47998 0.924468
5300.06006 0.924709
5300.64990 0.924156
5301.24023 0.923599
5301.81982 0.923048
5302.39990 0.922493
5302.99023 0.921936
5303.58008 0.921378
5304.16016 0.920826
5304.75000 0.920268
5305.33008 0.919712
5305.91992 0.919155
5306.50000 0.918599
5307.08984 0.918042
5307.68018 0.91748
5308.25977 0.916922
5308.85010 0.916363
5309.43994 0.915802
5310.02002 0.915272
5310.60986 0.915426
5311.20020 0.91558
5311.77979 0.915734
5312.37012 0.915888
5312.95020 0.91604
5313.54004 0.916194
5314.12988 0.916348
5314.72021 0.916501
5315.31006 0.916656
5315.89014 0.916807
5316.47998 0.91696
5317.06006 0.917114
5317.64990 0.917269
5318.24023 0.917421
5318.83008 0.917574
5319.41992 0.917729
5320.00000 0.917883
5320.58984 0.917381
5321.18018 0.916879
5321.77002 0.91638
5322.35010 0.915882
5322.93994 0.915386
5323.52979 0.914883
5324.12012 0.914383
5324.70020 0.913882
5325.29004 0.913379
5325.87988 0.912881
5326.47021 0.912381
5327.06006 0.911877
5327.64990 0.911376
5328.22998 0.910876
5328.81982 0.910371
5329.41016 0.909866
5330.00000 0.909365
5330.58984 0.909733
5331.18018 0.910103
5331.77002 0.910473
5332.35986 0.910842
5332.93994 0.911209
5333.52979 0.911579
5334.12012 0.91195
5334.70996 0.912317
5335.29980 0.912688
5335.89014 0.913054
5336.47998 0.913426
5337.06982 0.913796
5337.66016 0.914167
5338.24023 0.914535
5338.83984 0.914907
5339.43018 0.915279
5340.02002 0.91563
5340.60986 0.915367
5341.20020 0.915104
5341.77979 0.914845
5342.37988 0.914581
5342.97021 0.914319
5343.56006 0.914055
5344.14990 0.913791
5344.74023 0.913529
5345.33008 0.913265
5345.91992 0.913001
5346.50977 0.912737
5347.10010 0.912471
5347.68994 0.912206
5348.27979 0.911942
5348.87012 0.911678
5349.45996 0.911411
5350.04980 0.911176
5350.64014 0.911271
5351.24023 0.911367
5351.81982 0.911461
5352.41992 0.911556
5353.00977 0.91165
5353.60010 0.911745
5354.18994 0.911839
5354.77979 0.911933
5355.37012 0.912028
5355.97021 0.912122
5356.56006 0.912216
5357.14990 0.912311
5357.74023 0.912405
5358.33008 0.912499
5358.91992 0.912593
5359.52002 0.912687
5360.10010 0.912775
5360.70020 0.91284
5361.29004 0.912905
5361.87988 0.91297
5362.47998 0.913035
5363.06982 0.913101
5363.66016 0.913165
5364.25000 0.91323
5364.83984 0.913294
5365.43994 0.913358
5366.02979 0.913422
5366.62012 0.913487
5367.22021 0.913552
5367.81006 0.913617
5368.39990 0.913681
5368.99023 0.913746
5369.58984 0.913809
5370.18018 0.914079
5370.77002 0.914844
5371.37012 0.91561
5371.95996 0.916373
5372.54980 0.917135
5373.14990 0.917902
5373.74023 0.918661
5374.33984 0.919427
5374.93018 0.920191
5375.52002 0.920955
5376.12012 0.921722
5376.70996 0.922483
5377.29980 0.92325
5377.89990 0.924011
5378.49023 0.924779
5379.08984 0.925549
5379.68018 0.92631
5380.27002 0.926812
5380.85986 0.927
5381.45996 0.927191
5382.04980 0.92738
5382.64990 0.92757
5383.25000 0.92776
5383.83984 0.927948
5384.43994 0.928138
5385.02979 0.928327
5385.62988 0.928518
5386.22021 0.928707
5386.81006 0.928895
5387.41016 0.929087
5388.00000 0.929277
5388.60010 0.929466
5389.20020 0.929656
5389.79004 0.929844
5390.39014 0.930192
5390.97998 0.930622
5391.56982 0.931053
5392.16992 0.931482
5392.77002 0.931915
5393.35986 0.932349
5393.95996 0.932778
5394.54980 0.933212
5395.14990 0.933642
5395.74023 0.934076
5396.33984 0.934509
5396.93994 0.934938
5397.52979 0.935373
5398.12988 0.935807
5398.72998 0.936237
5399.31982 0.936671
5399.91992 0.937102
5400.52002 0.937402
5401.10986 0.937678
5401.70996 0.937957
5402.29980 0.938232
5402.89990 0.938511
5403.50000 0.938789
5404.10010 0.939066
5404.68994 0.939342
5405.27979 0.939618
5405.87988 0.939897
5406.47998 0.940176
5407.08008 0.940453
5407.68018 0.940729
5408.27979 0.941008
5408.87012 0.941285
5409.47021 0.941563
5410.06006 0.941844
5410.66016 0.942179
5411.25977 0.94251
5411.85986 0.942845
5412.45996 0.943179
5413.04980 0.943512
5413.64990 0.943847
5414.25000 0.944178
5414.85010 0.944515
5415.43994 0.944846
5416.04004 0.945181
5416.64014 0.945516
5417.24023 0.945848
5417.83984 0.946186
5418.43994 0.946518
5419.04004 0.946848
5419.64014 0.947184
5420.22998 0.947666
5420.83008 0.948374
5421.43018 0.949081
5422.02979 0.949796
5422.62988 0.95051
5423.22998 0.951217
5423.83008 0.951931
5424.41992 0.952637
5425.02002 0.95335
5425.62012 0.95406
5426.22021 0.954772
5426.81982 0.955489
5427.41992 0.956197
5428.02002 0.956913
5428.62012 0.957628
5429.22021 0.958336
5429.81982 0.959054
5430.41992 0.959599
5431.02002 0.960068
5431.62012 0.960537
5432.22021 0.961012
5432.81982 0.961486
5433.41992 0.961955
5434.02002 0.96243
5434.62012 0.9629
5435.22021 0.963375
5435.81982 0.963849
5436.41992 0.964323
5437.02002 0.964796
5437.62012 0.965266
5438.22021 0.965741
5438.81982 0.966217
5439.41992 0.966688
5440.02979 0.967157
5440.62988 0.967467
5441.22998 0.967773
5441.83008 0.96808
5442.43018 0.968388
5443.02979 0.968699
5443.62988 0.969003
5444.22998 0.969313
5444.83008 0.969619
5445.43018 0.969929
5446.04004 0.970238
5446.64014 0.970546
5447.24023 0.970855
5447.83984 0.971161
5448.43994 0.97147
5449.04980 0.97178
5449.64990 0.972087
5450.25000 0.972236
5450.85010 0.972153
5451.45020 0.97207
5452.06006 0.971985
5452.66016 0.971902
5453.25977 0.971819
5453.85986 0.971736
5454.45996 0.971651
5455.06982 0.971566
5455.66992 0.971482
5456.27002 0.971397
5456.87012 0.971314
5457.47998 0.971229
5458.08008 0.971144
5458.68018 0.971059
5459.29004 0.970974
5459.89014 0.970889
5460.49023 0.971343
5461.10010 0.971922
5461.70020 0.972496
5462.29980 0.973076
5462.91016 0.973656
5463.50977 0.974231
5464.10986 0.974805
5464.70996 0.975385
5465.31982 0.975965
5465.91992 0.97654
5466.52979 0.977122
5467.12988 0.977697
5467.72998 0.978278
5468.33984 0.978858
5468.93994 0.979434
5469.54980 0.980015
5470.14990 0.980518
5470.75000 0.980797
5471.35986 0.981076
5471.95996 0.981351
5472.56982 0.98163
5473.16992 0.98191
5473.77002 0.982185
5474.37988 0.982464
5474.97998 0.98274
5475.58984 0.983018
5476.18994 0.983293
5476.79980 0.983572
5477.39990 0.983847
5478.00977 0.984125
5478.62012 0.984404
5479.22021 0.984681
5479.81982 0.98496
5480.43018 0.985092
5481.02979 0.985164
5481.64014 0.985237
5482.24023 0.98531
5482.85010 0.985384
5483.45996 0.985456
5484.06006 0.985528
5484.66992 0.9856
5485.27979 0.985672
5485.87988 0.985744
5486.47998 0.985816
5487.08984 0.985889
5487.70020 0.985962
5488.29980 0.986033
5488.91016 0.986104
5489.50977 0.986175
5490.12012 0.986405
5490.72998 0.987248
5491.33008 0.988099
5491.93994 0.988952
5492.54980 0.989796
5493.16016 0.990649
5493.77002 0.991501
5494.37012 0.992345
5494.97998 0.993199
5495.58984 0.994052
5496.18994 0.994897
5496.79004 0.995742
5497.39990 0.996596
5498.00977 0.997451
5498.62012 0.998297
5499.22998 0.999152
5499.83008 1.0
5500.43994 0.999733
5501.04004 0.999041
5501.64990 0.99834
5502.27002 0.997639
5502.87012 0.996946
5503.47998 0.996244
5504.08984 0.995541
5504.68994 0.994847
5505.29980 0.994144
5505.91016 0.99344
5506.52002 0.992744
5507.12988 0.992042
5507.72998 0.99134
5508.35010 0.990634
5508.95020 0.989935
5509.56006 0.989228
5510.16992 0.988714
5510.77979 0.988691
5511.37988 0.988667
5511.99023 0.988642
5512.60010 0.988618
5513.20996 0.988594
5513.81982 0.988569
5514.43018 0.988545
5515.04004 0.988521
5515.64990 0.988496
5516.25977 0.988471
5516.87012 0.988446
5517.47998 0.988423
5518.08984 0.988399
5518.70020 0.988373
5519.29980 0.988348
5519.91016 0.988323
5520.52979 0.988088
5521.12988 0.987822
5521.74023 0.987555
5522.35010 0.987285
5522.95996 0.987016
5523.56982 0.986749
5524.18018 0.986479
5524.79980 0.986209
5525.39990 0.985941
5526.02002 0.985669
5526.62012 0.9854
5527.22998 0.985131
5527.85010 0.984859
5528.45996 0.984587
5529.06982 0.984318
5529.68018 0.984048
5530.29004 0.983876
5530.89990 0.983817
5531.50977 0.983757
5532.12012 0.983698
5532.72998 0.983639
5533.33984 0.983579
5533.95020 0.983519
5534.56006 0.983457
5535.18018 0.983396
5535.79004 0.983337
5536.39990 0.983276
5537.00977 0.983215
5537.62012 0.983155
5538.24023 0.983094
5538.85010 0.983031
5539.45996 0.98297
5540.06982 0.982855
5540.68018 0.982323
5541.29980 0.981788
5541.89990 0.981258
5542.52002 0.980725
5543.12988 0.980189
5543.74023 0.979656
5544.35010 0.979124
5544.97021 0.978587
5545.58008 0.978052
5546.18994 0.977516
5546.81006 0.976979
5547.41992 0.976441
5548.02979 0.975909
5548.64014 0.975372
5549.25977 0.97483
5549.87012 0.974298
5550.47998 0.9744
5551.10010 0.974675
5551.70996 0.97495
5552.31982 0.975223
5552.93994 0.975499
5553.54980 0.975773
5554.16016 0.976048
5554.77002 0.976322
5555.39014 0.976599
5556.00000 0.976877
5556.60986 0.977151
5557.22998 0.977427
5557.85010 0.977704
5558.45020 0.977977
5559.06982 0.978253
5559.68994 0.978528
5560.29980 0.978239
5560.91016 0.977352
5561.52979 0.976472
5562.14014 0.975583
5562.75000 0.974702
5563.37012 0.973812
5563.99023 0.972922
5564.60010 0.97204
5565.20996 0.971152
5565.83008 0.970264
5566.43994 0.969372
5567.06006 0.96849
5567.66992 0.967595
5568.29004 0.966701
5568.89990 0.965816
5569.52002 0.964922
5570.12988 0.964276
5570.75000 0.96451
5571.37012 0.964745
5571.97998 0.964979
5572.60010 0.965214
5573.20996 0.965448
5573.81982 0.965682
5574.43994 0.965916
5575.06006 0.966149
5575.66992 0.966385
5576.29004 0.96662
5576.89990 0.966854
5577.52002 0.967087
5578.14014 0.967322
5578.75000 0.967554
5579.37012 0.967788
5579.97998 0.968023
5580.60010 0.967446
5581.22021 0.966854
5581.83008 0.966258
5582.45020 0.965663
5583.06982 0.965064
5583.68994 0.964466
5584.29980 0.963872
5584.91992 0.963271
5585.52979 0.962677
5586.14990 0.962077
5586.77002 0.961479
5587.39014 0.96088
5588.00000 0.960284
5588.62012 0.959682
5589.24023 0.95908
5589.85010 0.958484
5590.47021 0.958142
5591.08984 0.957879
5591.70996 0.95762
5592.31982 0.95736
5592.93994 0.957099
5593.56006 0.956838
5594.18018 0.956577
5594.79004 0.956317
5595.41016 0.956054
5596.02979 0.955791
5596.64990 0.955531
5597.27002 0.955268
5597.89014 0.955007
5598.50000 0.954743
5599.12012 0.95448
5599.74023 0.954216
5600.35986 0.953649
5600.97998 0.952856
5601.60010 0.95206
5602.20996 0.951266
5602.83984 0.950468
5603.45020 0.949673
5604.06982 0.948879
5604.68994 0.948079
5605.31006 0.947287
5605.93018 0.946486
5606.54980 0.945689
5607.16992 0.944892
5607.79004 0.94409
5608.39990 0.943295
5609.02002 0.942497
5609.64990 0.941693
5610.27002 0.941189
5610.87988 0.941083
5611.50000 0.940976
5612.12012 0.940868
5612.74023 0.94076
5613.35986 0.940652
5613.99023 0.940542
5614.60010 0.940435
5615.22021 0.940328
5615.83984 0.940219
5616.47021 0.940109
5617.08984 0.939999
5617.70020 0.939892
5618.33008 0.939783
5618.93994 0.939673
5619.56982 0.939563
5620.18994 0.939366
5620.81006 0.938967
5621.43018 0.938571
5622.04980 0.938171
5622.66992 0.937771
5623.29004 0.937373
5623.91016 0.936974
5624.54004 0.936571
5625.14990 0.936173
5625.77002 0.935774
5626.39990 0.935373
5627.02002 0.934973
5627.64014 0.934571
5628.25977 0.934173
5628.89014 0.933771
5629.50977 0.933371
5630.12988 0.933177
5630.75000 0.933777
5631.37012 0.93438
5631.99023 0.934983
5632.60986 0.935584
5633.24023 0.93619
5633.85986 0.93679
5634.47998 0.937397
5635.10010 0.937998
5635.72998 0.938605
5636.35010 0.939211
5636.97021 0.939813
5637.60010 0.94042
5638.22021 0.941028
5638.83984 0.941631
5639.45996 0.942236
5640.08984 0.942634
5640.70996 0.941746
5641.33008 0.940859
5641.95020 0.939971
5642.58008 0.939085
5643.20020 0.938197
5643.81982 0.937303
5644.43994 0.936418
5645.06982 0.935524
5645.68994 0.934638
5646.31982 0.933743
5646.93994 0.932847
5647.56982 0.931955
5648.18994 0.931063
5648.81006 0.930171
5649.43994 0.929274
5650.06006 0.928394
5650.68994 0.927632
5651.31006 0.926871
5651.93994 0.926104
5652.56006 0.925345
5653.18018 0.924578
5653.81006 0.923819
5654.43018 0.923052
5655.06006 0.922288
5655.68018 0.921524
5656.29980 0.920764
5656.93018 0.919996
5657.56006 0.919226
5658.18018 0.918461
5658.79980 0.917696
5659.43018 0.91693
5660.04980 0.916236
5660.68018 0.916322
5661.31006 0.916407
5661.93018 0.916492
5662.56006 0.916579
5663.18018 0.916666
5663.81006 0.916751
5664.43018 0.916837
5665.06006 0.916924
5665.68018 0.91701
5666.31006 0.917096
5666.93018 0.917182
5667.56006 0.917268
5668.18994 0.917355
5668.81006 0.917441
5669.43994 0.917527
5670.06006 0.917599
5670.68994 0.917556
5671.31982 0.917513
5671.93994 0.917472
5672.56982 0.91743
5673.20020 0.917389
5673.83008 0.917346
5674.45020 0.917303
5675.08008 0.91726
5675.70020 0.917217
5676.33008 0.917175
5676.95996 0.917133
5677.58984 0.917089
5678.20996 0.917047
5678.83984 0.917004
5679.45996 0.916962
5680.08984 0.916761
5680.72021 0.915652
5681.35010 0.914553
5681.97998 0.913444
5682.60010 0.912338
5683.22998 0.911232
5683.85986 0.91012
5684.49023 0.909012
5685.10986 0.907904
5685.75000 0.906789
5686.37012 0.905687
5687.00000 0.904579
5687.62012 0.903467
5688.25977 0.90235
5688.87988 0.901237
5689.50977 0.900125
5690.14014 0.899192
5690.77002 0.898882
5691.39990 0.898573
5692.02979 0.898262
5692.64990 0.897953
5693.27979 0.897644
5693.91016 0.897334
5694.54004 0.897024
5695.16992 0.896714
5695.79980 0.896405
5696.43018 0.896093
5697.06006 0.895782
5697.68994 0.895473
5698.31006 0.895164
5698.95020 0.89485
5699.56982 0.89454
5700.20020 0.894295
5700.83008 0.894186
5701.45996 0.894077
5702.08984 0.893968
5702.72021 0.89386
5703.35010 0.89375
5703.97998 0.89364
5704.60986 0.89353
5705.24023 0.89342
5705.87012 0.89331
5706.50000 0.893201
5707.14014 0.893092
5707.77002 0.892981
5708.39990 0.89287
5709.02979 0.89276
5709.66016 0.892651
5710.29004 0.892382
5710.91992 0.891923
5711.54980 0.891459
5712.18018 0.891001
5712.81006 0.890541
5713.43994 0.89008
5714.06982 0.889616
5714.70020 0.889153
5715.33008 0.888695
5715.97021 0.888233
5716.60010 0.887771
5717.22998 0.887309
5717.85986 0.886845
5718.49023 0.886383
5719.12012 0.885921
5719.75977 0.885457
5720.39014 0.884368
5721.02002 0.882876
5721.64990 0.881387
5722.27979 0.879889
5722.91016 0.878397
5723.54004 0.876911
5724.16992 0.875418
5724.81006 0.873917
5725.43994 0.872424
5726.06982 0.870931
5726.70996 0.869429
5727.33984 0.867936
5727.97021 0.866442
5728.60986 0.864939
5729.24023 0.863444
5729.87012 0.861948
5730.50977 0.861923
5731.14014 0.862271
5731.77002 0.862621
5732.39990 0.862969
5733.04004 0.863322
5733.66992 0.863671
5734.29980 0.864021
5734.93018 0.86437
5735.56982 0.864723
5736.20020 0.865074
5736.83008 0.865424
5737.47021 0.865778
5738.10010 0.866131
5738.74023 0.866483
5739.37012 0.866837
5740.00977 0.867176
5740.64014 0.866161
5741.27979 0.86514
5741.91016 0.864132
5742.54004 0.863111
5743.18018 0.862089
5743.81006 0.861077
5744.43994 0.86006
5745.08008 0.859044
5745.72021 0.858021
5746.35010 0.857009
5746.97998 0.855991
5747.60986 0.854975
5748.25000 0.853952
5748.89014 0.852933
5749.52002 0.851915
5750.16016 0.851044
5750.79004 0.850639
5751.43018 0.850234
5752.06006 0.849827
5752.70020 0.849422
5753.33984 0.849012
5753.97021 0.848603
5754.60010 0.848199
5755.24023 0.847792
5755.87988 0.847385
5756.50977 0.846975
5757.14990 0.846568
5757.77979 0.846161
5758.41992 0.845752
5759.04980 0.845342
5759.68994 0.844934
5760.33008 0.844337
5760.95996 0.843557
5761.60010 0.842782
5762.24023 0.842007
5762.87988 0.841228
5763.50977 0.840454
5764.14990 0.839673
5764.79004 0.838892
5765.41992 0.83812
5766.06006 0.837339
5766.68994 0.836566
5767.33008 0.835786
5767.97021 0.835008
5768.60010 0.83423
5769.24023 0.833456
5769.87988 0.832672
5770.50977 0.832235
5771.14990 0.83188
5771.79004 0.831522
5772.43018 0.831165
5773.06006 0.830808
5773.70020 0.83045
5774.33984 0.830093
5774.97998 0.829735
5775.62012 0.829376
5776.25000 0.829019
5776.89990 0.828659
5777.52979 0.828303
5778.16992 0.827944
5778.81006 0.827585
5779.43994 0.827227
5780.08984 0.826835
5780.72021 0.826251
5781.35986 0.825662
5782.00000 0.825073
5782.64014 0.824482
5783.27002 0.823897
5783.91016 0.823306
5784.56006 0.822714
5785.18994 0.822125
5785.83008 0.821536
5786.47021 0.820943
5787.10986 0.820355
5787.75000 0.819761
5788.39014 0.819171
5789.02979 0.818581
5789.66992 0.81799
5790.31006 0.817611
5790.95020 0.817462
5791.58984 0.817313
5792.22998 0.817164
5792.85986 0.817016
5793.50977 0.816866
5794.14014 0.816718
5794.77979 0.816568
5795.43018 0.816417
5796.06006 0.816267
5796.70020 0.816119
5797.35010 0.815969
5797.97998 0.815821
5798.62988 0.815671
5799.27002 0.815521
5799.91016 0.815372
5800.54980 0.814315
5801.18994 0.813118
5801.83008 0.811907
5802.47021 0.810703
5803.10986 0.809499
5803.75000 0.808294
5804.39014 0.807089
5805.02979 0.805884
5805.66992 0.804676
5806.31006 0.80347
5806.95996 0.802257
5807.60010 0.801051
5808.24023 0.799838
5808.87988 0.798637
5809.52002 0.797422
5810.16992 0.796449
5810.81006 0.79615
5811.45020 0.795849
5812.08984 0.79555
5812.72998 0.79525
5813.37988 0.794949
5814.02002 0.794649
5814.66016 0.794347
5815.29980 0.794049
5815.93994 0.79375
5816.58008 0.793448
5817.22998 0.793146
5817.87012 0.792847
5818.50977 0.792544
5819.16016 0.792241
5819.79980 0.791943
5820.43994 0.791006
5821.08008 0.789784
5821.72998 0.78856
5822.37012 0.787331
5823.02002 0.786106
5823.66016 0.784883
5824.29980 0.783658
5824.93994 0.782431
5825.58984 0.781198
5826.22998 0.779977
5826.87988 0.778743
5827.52002 0.777521
5828.16016 0.776285
5828.79980 0.775056
5829.45020 0.773826
5830.08984 0.77269
5830.72998 0.772152
5831.37988 0.771609
5832.02979 0.771067
5832.66992 0.770529
5833.31006 0.769985
5833.95996 0.769445
5834.60010 0.768904
5835.25000 0.76836
5835.89014 0.767822
5836.54004 0.767277
5837.18018 0.766737
5837.81982 0.766192
5838.47021 0.765651
5839.10986 0.76511
5839.75977 0.764568
5840.39990 0.76373
5841.04980 0.762714
5841.68994 0.7617
5842.33984 0.760679
5842.99023 0.759658
5843.62988 0.758647
5844.27979 0.757625
5844.91992 0.756607
5845.56982 0.755589
5846.22021 0.754565
5846.85986 0.753552
5847.50977 0.752529
5848.14990 0.751515
5848.79980 0.750491
5849.43994 0.74947
5850.08984 0.748513
5850.72998 0.747957
5851.37988 0.747403
5852.02979 0.746845
5852.66992 0.746292
5853.31982 0.745734
5853.97021 0.745176
5854.60986 0.744622
5855.25977 0.744063
5855.91016 0.743507
5856.54980 0.742951
5857.20020 0.742392
5857.85010 0.741836
5858.49023 0.741279
5859.14014 0.740726
5859.79004 0.740166
5860.43994 0.7392
5861.08008 0.738047
5861.72998 0.736884
5862.37988 0.735731
5863.02002 0.734566
5863.66992 0.733406
5864.31982 0.732243
5864.97021 0.731083
5865.60986 0.729921
5866.25977 0.728751
5866.91016 0.727588
5867.56006 0.726423
5868.20996 0.725252
5868.85986 0.724086
5869.50000 0.72292
5870.14990 0.721875
5870.79980 0.721224
5871.45020 0.72057
5872.10010 0.719922
5872.75000 0.719268
5873.39014 0.71862
5874.04004 0.717965
5874.68994 0.717313
5875.33984 0.716661
5875.99023 0.71601
5876.64014 0.715357
5877.29004 0.714701
5877.93994 0.714045
5878.58984 0.713395
5879.24023 0.712739
5879.89014 0.712086
5880.52979 0.710781
5881.18994 0.709329
5881.83008 0.70789
5882.47998 0.706436
5883.12988 0.704995
5883.77979 0.70354
5884.43018 0.702099
5885.08008 0.700643
5885.72998 0.699192
5886.37988 0.697741
5887.02979 0.696281
5887.68018 0.694837
5888.33008 0.693376
5888.99023 0.691915
5889.62988 0.690467
5890.29004 0.689347
5890.93018 0.688675
5891.58984 0.687996
5892.24023 0.687317
5892.89014 0.686644
5893.54004 0.685964
5894.18994 0.685286
5894.83984 0.684609
5895.49023 0.683931
5896.14014 0.683252
5896.79980 0.682571
5897.43994 0.681896
5898.10010 0.681213
5898.74023 0.680535
5899.39990 0.679852
5900.04980 0.679116
5900.70020 0.677706
5901.35010 0.676287
5902.00000 0.67488
5902.66016 0.67346
5903.31006 0.67204
5903.95996 0.670624
5904.60986 0.669209
5905.27002 0.667794
5905.91992 0.666377
5906.56982 0.66496
5907.22021 0.663543
5907.87988 0.662117
5908.52979 0.660706
5909.18018 0.65928
5909.83008 0.65786
5910.47998 0.656871
5911.14014 0.656032
5911.79004 0.655193
5912.43994 0.654348
5913.10010 0.653508
5913.75000 0.652666
5914.41016 0.651822
5915.06006 0.650983
5915.70996 0.65014
5916.35986 0.649298
5917.02002 0.648457
5917.66992 0.64761
5918.31982 0.646772
5918.97998 0.645925
5919.62988 0.645086
5920.29004 0.644116
5920.93994 0.642998
5921.58984 0.641868
5922.25000 0.640743
5922.89990 0.639618
5923.56006 0.638485
5924.20996 0.637358
5924.85986 0.63623
5925.52002 0.635095
5926.16992 0.633972
5926.83008 0.632837
5927.49023 0.631701
5928.14014 0.630576
5928.79004 0.629437
5929.45020 0.628305
5930.10010 0.62729
5930.75977 0.626907
5931.41016 0.626525
5932.06982 0.626142
5932.72021 0.625759
5933.37988 0.625374
5934.02979 0.624992
5934.68994 0.624607
5935.33984 0.624224
5936.00000 0.62384
5936.66016 0.623454
5937.31006 0.623073
5937.97021 0.622687
5938.62012 0.622302
5939.27979 0.621915
5939.93994 0.62153
5940.58984 0.620822
5941.25000 0.620078
5941.89990 0.619334
5942.56006 0.61859
5943.20996 0.617845
5943.87012 0.617101
5944.52979 0.616351
5945.18018 0.615609
5945.83984 0.614859
5946.50000 0.614113
5947.14990 0.613366
5947.81006 0.612615
5948.47021 0.611867
5949.12988 0.611119
5949.77979 0.610372
5950.43994 0.6094
5951.10010 0.608313
5951.75977 0.607231
5952.41016 0.606148
5953.06982 0.605059
5953.72998 0.603982
5954.37988 0.602897
5955.04004 0.601813
5955.70020 0.600721
5956.35986 0.599634
5957.02002 0.598548
5957.66992 0.59746
5958.33008 0.596372
5958.99023 0.595279
5959.64990 0.594189
5960.31006 0.593397
5960.95996 0.592946
5961.62012 0.592495
5962.27979 0.592041
5962.93994 0.591587
5963.60010 0.591138
5964.25977 0.590683
5964.91992 0.590231
5965.58008 0.589777
5966.22998 0.589326
5966.89014 0.588871
5967.54980 0.588418
5968.20996 0.587964
5968.87012 0.587507
5969.52979 0.587055
5970.18994 0.586688
5970.85010 0.586548
5971.50977 0.586408
5972.16992 0.586267
5972.81982 0.586126
5973.49023 0.585985
5974.14990 0.585844
5974.81006 0.585703
5975.47021 0.585562
5976.12988 0.58542
5976.79004 0.585279
5977.45020 0.585138
5978.10986 0.584996
5978.77002 0.584856
5979.43018 0.584715
5980.08984 0.584547
5980.75000 0.584212
5981.41016 0.583874
5982.06982 0.58354
5982.72998 0.583202
5983.39014 0.582864
5984.04980 0.582528
5984.70996 0.582189
5985.37012 0.581852
5986.02979 0.581514
5986.70020 0.581174
5987.35986 0.580837
5988.02002 0.580499
5988.68018 0.580158
5989.33984 0.579821
5990.00000 0.579483
5990.66016 0.579343
5991.33008 0.579203
5991.99023 0.579063
5992.64990 0.578924
5993.31006 0.578785
5993.97021 0.578643
5994.64014 0.578503
5995.29980 0.578363
5995.95996 0.578222
5996.62012 0.578081
5997.27979 0.577941
5997.95020 0.5778
5998.60986 0.577657
5999.27002 0.577517
5999.93994 0.577376
6000.60010 0.576257
6001.25977 0.575036
6001.91992 0.573822
6002.58984 0.572594
6003.25000 0.571371
6003.91016 0.570148
6004.56982 0.568924
6005.24023 0.567698
6005.89990 0.566468
6006.56006 0.565247
6007.22998 0.564015
6007.89014 0.562787
6008.54980 0.561558
6009.22021 0.560324
6009.87988 0.559094
6010.54980 0.557992
6011.20996 0.556911
6011.87988 0.555835
6012.54004 0.554759
6013.20996 0.553677
6013.87012 0.552605
6014.52979 0.551528
6015.18994 0.55045
6015.85986 0.549366
6016.52002 0.548292
6017.18994 0.547207
6017.85010 0.546131
6018.52002 0.545045
6019.18018 0.543963
6019.85010 0.542882
6020.50977 0.540705
6021.18018 0.53821
6021.83984 0.535714
6022.50977 0.533206
6023.16992 0.530707
6023.83984 0.528205
6024.50977 0.525691
6025.16992 0.523188
6025.83008 0.520696
6026.50000 0.51819
6027.16992 0.51567
6027.83008 0.513174
6028.50000 0.510651
6029.16016 0.508137
6029.83008 0.505625
6030.49023 0.503138
6031.16016 0.500629
6031.83008 0.49812
6032.50000 0.495608
6033.16016 0.493121
6033.81982 0.490618
6034.50000 0.488089
6035.16016 0.485596
6035.83008 0.483075
6036.49023 0.480579
6037.16016 0.478056
6037.83008 0.475543
6038.49023 0.473028
6039.16016 0.470525
6039.83008 0.467995
6040.49023 0.464628
6041.16016 0.460959
6041.83008 0.457273
6042.49023 0.453623
6043.16016 0.449931
6043.83008 0.44624
6044.50000 0.442564
6045.16016 0.438906
6045.83008 0.435226
6046.50000 0.431527
6047.16992 0.427847
6047.83984 0.424161
6048.50977 0.420456
6049.16992 0.416772
6049.83984 0.413081
6050.50977 0.408819
6051.18018 0.404431
6051.85010 0.400015
6052.50977 0.395598
6053.18018 0.391159
6053.85010 0.386737
6054.52002 0.382315
6055.18994 0.377867
6055.85986 0.373436
6056.52979 0.369004
6057.18994 0.364593
6057.85986 0.360138
6058.52979 0.3557
6059.20020 0.351257
6059.87012 0.346793
6060.54004 0.342279
6061.20996 0.337743
6061.87988 0.333181
6062.54980 0.328642
6063.22021 0.324123
6063.89014 0.319579
6064.56006 0.315009
6065.22998 0.310458
6065.89990 0.305904
6066.56982 0.301328
6067.24023 0.296771
6067.91016 0.292208
6068.58008 0.287623
6069.25000 0.283083
6069.91992 0.278513
6070.58984 0.274421
6071.25977 0.270373
6071.93018 0.266344
6072.60010 0.262314
6073.27002 0.258261
6073.93994 0.254224
6074.60986 0.25019
6075.27979 0.246171
6075.95996 0.242109
6076.62988 0.238067
6077.29980 0.23402
6077.97021 0.229954
6078.64014 0.225904
6079.31006 0.221856
6079.99023 0.217782
6080.66016 0.214195
6081.33008 0.210631
6082.00000 0.207049
6082.66992 0.203447
6083.33984 0.19986
6084.00977 0.19627
6084.68994 0.192661
6085.35986 0.189069
6086.02979 0.185474
6086.70996 0.18186
6087.37988 0.178278
6088.04980 0.174676
6088.72021 0.171072
6089.39014 0.167448
6090.06006 0.163928
6090.74023 0.161212
6091.41016 0.158479
6092.08984 0.155761
6092.75977 0.15304
6093.43018 0.150331
6094.10010 0.147594
6094.77002 0.14487
6095.45020 0.142142
6096.12012 0.139401
6096.79980 0.136671
6097.47021 0.13394
6098.14990 0.131194
6098.81006 0.128475
6099.49023 0.12574
6100.16016 0.123146
6100.83984 0.120998
6101.50977 0.118859
6102.18018 0.116719
6102.85986 0.114568
6103.52979 0.112426
6104.20996 0.110282
6104.87988 0.108128
6105.56006 0.105993
6106.22998 0.103847
6106.89990 0.101699
6107.58008 0.0995402
6108.25000 0.0973911
6108.93018 0.0952413
6109.60010 0.0930782
6110.27979 0.0911935
6110.95020 0.0896688
6111.62012 0.0881432
6112.29980 0.086609
6112.97998 0.0850818
6113.64990 0.0835527
6114.33008 0.0820162
6115.00000 0.0804855
6115.68018 0.078954
6116.35986 0.0774139
6117.02979 0.0758884
6117.70020 0.0743536
6118.37988 0.0728178
6119.06006 0.0712744
6119.72998 0.069737
6120.41016 0.0684202
6121.08984 0.0672423
6121.75977 0.0660749
6122.43994 0.064896
6123.10986 0.0637276
6123.79004 0.0625469
6124.45996 0.0613724
6125.14014 0.0601958
6125.81982 0.0590134
6126.50000 0.0578366
6127.16992 0.0566584
6127.85010 0.0554747
6128.52002 0.0543015
6129.20020 0.0531218
6129.87988 0.0519408
6130.56006 0.0510135
6131.22998 0.0501475
6131.91016 0.0492805
6132.58984 0.0484087
6133.25977 0.0475454
6133.93994 0.0466729
6134.62012 0.0458
6135.29980 0.0449354
6135.97021 0.0440655
6136.64990 0.0431952
6137.33008 0.0423201
6138.00977 0.041449
6138.68994 0.0405775
6139.37012 0.0397012
6140.04004 0.0388457
6140.72021 0.0381808
6141.39990 0.0375217
6142.08008 0.0368557
6142.75977 0.0361927
6143.43018 0.0355294
6144.10986 0.034862
6144.79004 0.0341981
6145.47021 0.0335334
6146.14990 0.032865
6146.83008 0.032203
6147.50977 0.0315374
6148.18018 0.0308715
6148.87012 0.0302014
6149.54004 0.0295348
6150.22021 0.0289334
6150.89990 0.0284643
6151.58008 0.0279997
6152.25977 0.0275303
6152.93994 0.0270603
6153.62012 0.0265953
6154.29980 0.0261273
6154.97998 0.0256592
6155.66016 0.0251886
6156.33984 0.0247201
6157.02002 0.0242515
6157.70020 0.02378
6158.37988 0.0233134
6159.06006 0.0228416
6159.74023 0.0223743
6160.41992 0.0219809
6161.10010 0.021638
6161.77979 0.0212948
6162.45996 0.0209499
6163.14014 0.0206063
6163.81982 0.0202626
6164.50977 0.0199169
6165.18994 0.0195745
6165.85986 0.0192302
6166.54980 0.0188855
6167.22998 0.0185392
6167.91016 0.0181941
6168.58984 0.0178489
6169.27002 0.0175018
6169.95020 0.017158
6170.64014 0.0168937
6171.31982 0.0166358
6172.00000 0.0163801
6172.68018 0.0161231
6173.35986 0.0158659
6174.04980 0.0156073
6174.72998 0.0153499
6175.41016 0.0150922
6176.08984 0.0148332
6176.77002 0.0145765
6177.45996 0.0143172
6178.12988 0.0140602
6178.81982 0.0138006
6179.50000 0.013542
6180.18018 0.0133359
6180.87012 0.0132731
6181.54980 0.0132108
6182.22998 0.0131479
6182.91016 0.0130852
6183.60010 0.0130226
6184.27979 0.0129598
6184.95996 0.0128971
6185.64990 0.012834
6186.33008 0.0127712
6187.00977 0.0127084
6187.70020 0.0126451
6188.37988 0.0125825
6189.06006 0.0125192
6189.75000 0.0124562
6190.43018 0.0123933
6191.10986 0.0123305
6191.79980 0.0122676
6192.47998 0.0122044
6193.16016 0.0121417
6193.85010 0.0120784
6194.52979 0.0120153
6195.22021 0.0119523
6195.89990 0.0118888
6196.58984 0.011826
6197.27002 0.0117625
6197.95996 0.0116993
6198.64014 0.011636
6199.33008 0.0115724
6200.00977 0.0115087
6200.70020 0.0113892
6201.37988 0.0112703
6202.06006 0.0111513
6202.75000 0.0110324
6203.43018 0.0109133
6204.12012 0.0107935
6204.79980 0.010675
6205.49023 0.0105552
6206.18018 0.0104353
6206.85986 0.0103166
6207.54980 0.0101966
6208.22998 0.0100771
6208.91992 0.00995766
6209.60010 0.00983814
6210.29004 0.00971853
6210.97998 0.00959839
6211.66016 0.00947929
6212.35010 0.00935898
6213.04004 0.00923863
6213.72021 0.00911941
6214.41016 0.00899897
6215.08984 0.0088797
6215.77979 0.0087591
6216.45996 0.00863965
6217.14990 0.00851897
6217.83984 0.00839826
6218.52002 0.00827871
6219.20996 0.00815791
6219.89990 0.00803759
6220.58984 0.00791771
6221.27002 0.00779795
6221.95996 0.00767803
6222.64990 0.0075574
6223.33008 0.00743797
6224.02002 0.00731728
6224.70996 0.00719648
6225.39990 0.0070768
6226.08984 0.00695587
6226.77002 0.00683549
6227.45996 0.00671505
6228.14990 0.00659515
6228.83984 0.0064739
6229.52979 0.00635261
6230.20996 0.00623232
6230.89990 0.0061105
6231.58984 0.00598864
6232.27979 0.00586794
6232.97021 0.0057465
6233.64990 0.00562512
6234.33984 0.00550302
6235.02979 0.00538207
6235.72021 0.00525988
6236.41016 0.00513765
6237.10010 0.00501651
6237.79004 0.0048942
6238.47998 0.00477238
6239.16016 0.00465052
6239.85010 0.00452921
6240.54004 0.00446835
6241.22998 0.00442456
6241.91992 0.00438122
6242.60986 0.00433739
6243.29980 0.00429355
6243.99023 0.00425011
6244.68018 0.00420624
6245.37012 0.00416278
6246.06006 0.00411886
6246.75000 0.00407534
6247.43994 0.00403136
6248.12988 0.00398736
6248.81982 0.00394378
6249.50977 0.00389975
6250.20020 0.00385591
6250.89014 0.00381196
6251.58008 0.00376822
6252.27002 0.00372406
6252.95996 0.00367982
6253.64990 0.00363603
6254.33984 0.00359178
6255.04004 0.00354753
6255.72021 0.00350367
6256.41992 0.00345935
6257.10986 0.00341523
6257.79980 0.00337109
6258.47998 0.00332716
6259.18018 0.00328275
6259.87012 0.00323835
6260.56006 0.00319439
6261.25977 0.00315
6261.95020 0.0031058
6262.64014 0.00306158
6888.90430 0.0
