# %ECSV 0.9
# ---
# datatype:
# - {name: wavelength, unit: Angstrom, datatype: float32}
# - {name: response, datatype: float32}
# meta: !!omap
# - {band_name: F475W}
# - {group_name: ACS_HRC}
wavelength response
3457.15210 0.0
3841.28003 0.0030238
3841.69995 0.00310154
3842.12012 0.00317969
3842.54004 0.00325757
3842.96997 0.00333627
3843.38989 0.0034142
3843.81006 0.00349265
3844.22998 0.00357073
3844.64990 0.00364928
3845.07007 0.00372746
3845.48999 0.00380614
3845.91992 0.00388483
3846.33008 0.00396283
3846.76001 0.00404162
3847.17993 0.0041209
3847.60010 0.00419983
3848.02002 0.00427808
3848.43994 0.00435711
3848.87012 0.00443625
3849.29004 0.00451542
3849.70996 0.00459427
3850.12988 0.00469712
3850.55005 0.00485515
3850.97998 0.00501166
3851.39990 0.00516908
3851.82007 0.00532659
3852.23999 0.00548348
3852.65991 0.00564037
3853.09009 0.00579827
3853.51001 0.00595626
3853.92993 0.00611352
3854.35010 0.00627098
3854.78003 0.0064301
3855.19995 0.00658858
3855.62012 0.00674633
3856.04004 0.00690427
3856.46997 0.00706303
3856.88989 0.00722188
3857.31006 0.0073801
3857.72998 0.00753843
3858.15991 0.0076985
3858.58008 0.00785785
3859.00000 0.00801656
3859.42993 0.00817537
3859.85010 0.0083351
3860.27002 0.00855551
3860.68994 0.00880839
3861.12012 0.00906159
3861.54004 0.00931613
3861.95996 0.00957097
3862.38989 0.00982599
3862.81006 0.0100812
3863.23999 0.0103365
3863.65991 0.0105894
3864.08008 0.0108452
3864.51001 0.0111012
3864.92993 0.0113573
3865.35010 0.0116111
3865.78003 0.0118689
3866.19995 0.0121256
3866.62012 0.0123812
3867.05005 0.0126383
3867.46997 0.0128942
3867.88989 0.0131518
3868.32007 0.013408
3868.73999 0.0136659
3869.15991 0.0139226
3869.59009 0.0141809
3870.01001 0.0144418
3870.43994 0.0148414
3870.86011 0.0152371
3871.29004 0.0156349
3871.70996 0.0160314
3872.13989 0.0164299
3872.56006 0.0168269
3872.97998 0.0172261
3873.40991 0.0176254
3873.83008 0.0180254
3874.26001 0.0184254
3874.67993 0.0188217
3875.11011 0.0192221
3875.53003 0.0196231
3875.95996 0.0200243
3876.37988 0.0204218
3876.80005 0.0208235
3877.22998 0.0212257
3877.65991 0.0216281
3878.08008 0.0220308
3878.51001 0.0224336
3878.92993 0.0228349
3879.35010 0.0232362
3879.78003 0.0236401
3880.20996 0.0241203
3880.62988 0.024679
3881.05005 0.0252385
3881.47998 0.0258037
3881.90991 0.0263667
3882.33008 0.0269272
3882.76001 0.0274879
3883.17993 0.0280523
3883.61011 0.0286167
3884.03003 0.0291788
3884.45996 0.0297413
3884.88989 0.030307
3885.31006 0.030873
3885.73999 0.0314397
3886.15991 0.0320039
3886.59009 0.032571
3887.02002 0.0331388
3887.43994 0.0337043
3887.86011 0.0342701
3888.29004 0.0348389
3888.71997 0.0354085
3889.14990 0.0359783
3889.57007 0.0365484
3890.00000 0.0371189
3890.41992 0.0378326
3890.85010 0.0385541
3891.28003 0.0392761
3891.69995 0.0399987
3892.12988 0.0407147
3892.55005 0.041438
3892.97998 0.0421622
3893.40991 0.0428907
3893.84009 0.0436123
3894.26001 0.0443342
3894.68994 0.0450608
3895.12012 0.0457875
3895.54004 0.0465114
3895.96997 0.0472362
3896.39990 0.0479647
3896.82007 0.0486936
3897.25000 0.0494234
3897.67993 0.05015
3898.11011 0.0508807
3898.53003 0.0516083
3898.95996 0.0523405
3899.38989 0.0530727
3899.81006 0.053802
3900.23999 0.0545469
3900.66992 0.0553078
3901.10010 0.0560736
3901.52002 0.0568282
3901.94995 0.0575906
3902.37988 0.0583541
3902.81006 0.059118
3903.23999 0.0598789
3903.65991 0.0606398
3904.09009 0.0614056
3904.52002 0.0621757
3904.94995 0.0629384
3905.37988 0.0637056
3905.80005 0.0644698
3906.22998 0.0652384
3906.65991 0.0660036
3907.09009 0.0667733
3907.51001 0.0675394
3907.93994 0.0683066
3908.37012 0.0690776
3908.80005 0.0698535
3909.22998 0.070622
3909.65991 0.071391
3910.09009 0.0721742
3910.51001 0.0729951
3910.93994 0.0738169
3911.37012 0.0746308
3911.80005 0.0754537
3912.22998 0.0762818
3912.65991 0.0771016
3913.09009 0.0779223
3913.51001 0.0787477
3913.93994 0.0795736
3914.37012 0.0803964
3914.80005 0.0812234
3915.22998 0.0820471
3915.65991 0.0828757
3916.09009 0.0837004
3916.52002 0.084534
3916.94995 0.08536
3917.37988 0.0861909
3917.80005 0.0870182
3918.23999 0.0878503
3918.66992 0.088683
3919.09009 0.0895081
3919.52002 0.0903416
3919.94995 0.0911804
3920.38989 0.0919702
3920.81006 0.0927471
3921.23999 0.0935329
3921.66992 0.0943187
3922.10010 0.0951054
3922.53003 0.0958888
3922.95996 0.096673
3923.38989 0.0974612
3923.82007 0.0982498
3924.25000 0.0990394
3924.67993 0.0998255
3925.11011 0.100616
3925.54004 0.101403
3925.96997 0.102195
3926.39990 0.102987
3926.83008 0.103776
3927.26001 0.104566
3927.68994 0.105364
3928.12012 0.106159
3928.55005 0.10695
3928.97998 0.107742
3929.40991 0.108538
3929.85010 0.109335
3930.28003 0.110162
3930.70996 0.111007
3931.13989 0.111856
3931.57007 0.112707
3932.00000 0.113558
3932.42993 0.114406
3932.86011 0.115258
3933.29004 0.116111
3933.71997 0.116961
3934.15991 0.117815
3934.59009 0.118665
3935.02002 0.11952
3935.44995 0.120377
3935.87988 0.121233
3936.31006 0.122086
3936.73999 0.12294
3937.16992 0.123799
3937.61011 0.124658
3938.04004 0.125518
3938.46997 0.12637
3938.89990 0.12723
3939.33008 0.128092
3939.77002 0.128959
3940.18994 0.129768
3940.62988 0.130529
3941.06006 0.131291
3941.48999 0.13205
3941.91992 0.132813
3942.35010 0.133573
3942.79004 0.134338
3943.21997 0.135102
3943.64990 0.135868
3944.08008 0.13663
3944.52002 0.137397
3944.94995 0.138161
3945.37988 0.138929
3945.81006 0.139697
3946.23999 0.140462
3946.67993 0.141227
3947.11011 0.141997
3947.55005 0.142772
3947.97998 0.143539
3948.40991 0.144307
3948.84009 0.145079
3949.27002 0.145852
3949.70996 0.146622
3950.13989 0.147433
3950.57007 0.148337
3951.01001 0.149242
3951.43994 0.150147
3951.87012 0.151048
3952.30005 0.151955
3952.73999 0.152857
3953.16992 0.153765
3953.60010 0.154669
3954.04004 0.155578
3954.46997 0.156483
3954.89990 0.157394
3955.34009 0.15831
3955.77002 0.159222
3956.19995 0.160125
3956.63989 0.161038
3957.07007 0.161952
3957.51001 0.162867
3957.93994 0.163773
3958.37012 0.164688
3958.81006 0.16561
3959.23999 0.166522
3959.67993 0.16744
3960.11011 0.16834
3960.54004 0.169205
3960.97998 0.170066
3961.40991 0.170932
3961.84009 0.171795
3962.28003 0.172663
3962.70996 0.173527
3963.14990 0.174395
3963.58008 0.175265
3964.01001 0.17613
3964.44995 0.177001
3964.88989 0.177872
3965.32007 0.178739
3965.75000 0.179608
3966.18994 0.180481
3966.62012 0.181359
3967.06006 0.182234
3967.48999 0.1831
3967.92993 0.183976
3968.36011 0.184851
3968.80005 0.185728
3969.22998 0.186596
3969.66992 0.187474
3970.10010 0.188378
3970.54004 0.189363
3970.96997 0.190344
3971.40991 0.191336
3971.84009 0.192318
3972.28003 0.193301
3972.70996 0.194289
3973.14990 0.195279
3973.58008 0.196264
3974.02002 0.197251
3974.44995 0.198242
3974.88989 0.199239
3975.33008 0.200227
3975.76001 0.201216
3976.19995 0.202211
3976.63989 0.203206
3977.07007 0.204196
3977.50000 0.205187
3977.93994 0.206184
3978.37988 0.207182
3978.81006 0.208176
3979.25000 0.209176
3979.68994 0.210176
3980.12012 0.211139
3980.56006 0.212007
3980.98999 0.212875
3981.42993 0.213747
3981.87012 0.21462
3982.30005 0.21549
3982.73999 0.216369
3983.17993 0.217244
3983.61011 0.218112
3984.05005 0.218988
3984.48999 0.219865
3984.91992 0.220743
3985.36011 0.221613
3985.79004 0.222492
3986.22998 0.223372
3986.66992 0.224252
3987.11011 0.225133
3987.54004 0.22601
3987.97998 0.226893
3988.41992 0.227771
3988.85010 0.228654
3989.29004 0.229534
3989.72998 0.230419
3990.15991 0.231289
3990.60010 0.232149
3991.04004 0.233002
3991.47998 0.233859
3991.90991 0.234712
3992.35010 0.23557
3992.79004 0.236424
3993.22998 0.23728
3993.65991 0.23814
3994.10010 0.239001
3994.54004 0.239861
3994.97998 0.240718
3995.41992 0.241581
3995.86011 0.242445
3996.29004 0.243308
3996.72998 0.244164
3997.16992 0.245029
3997.61011 0.245894
3998.05005 0.24676
3998.47998 0.247627
3998.91992 0.248495
3999.36011 0.249358
3999.80005 0.250222
4000.23999 0.251017
4000.67993 0.251747
4001.11011 0.252474
4001.55005 0.253201
4001.98999 0.253933
4002.42993 0.254665
4002.87012 0.255397
4003.30005 0.256127
4003.73999 0.25686
4004.17993 0.257595
4004.62012 0.258325
4005.06006 0.259057
4005.50000 0.259792
4005.93994 0.260528
4006.37988 0.261265
4006.82007 0.261998
4007.26001 0.262736
4007.69995 0.263474
4008.12988 0.264209
4008.57007 0.264948
4009.01001 0.265683
4009.44995 0.266423
4009.88989 0.26716
4010.33008 0.267902
4010.77002 0.268645
4011.20996 0.269383
4011.64990 0.270126
4012.09009 0.27087
4012.53003 0.271615
4012.96997 0.272352
4013.40991 0.273097
4013.85010 0.273842
4014.29004 0.274592
4014.72998 0.275331
4015.16992 0.276078
4015.61011 0.276826
4016.05005 0.277571
4016.48999 0.278319
4016.92993 0.279064
4017.37012 0.279815
4017.81006 0.280561
4018.25000 0.281312
4018.68994 0.282063
4019.12988 0.282815
4019.57007 0.283564
4020.01001 0.284315
4020.44995 0.285018
4020.88989 0.285719
4021.33008 0.28642
4021.77002 0.287126
4022.21997 0.287835
4022.64990 0.288534
4023.10010 0.289241
4023.54004 0.289948
4023.97998 0.290656
4024.41992 0.291357
4024.86011 0.292066
4025.30005 0.292775
4025.73999 0.293485
4026.17993 0.294192
4026.62012 0.2949
4027.07007 0.295615
4027.51001 0.296323
4027.94995 0.297035
4028.38989 0.297748
4028.83008 0.298458
4029.27002 0.299168
4029.70996 0.299882
4030.15991 0.300689
4030.60010 0.301646
4031.04004 0.302603
4031.47998 0.303566
4031.91992 0.30453
4032.36011 0.30549
4032.80005 0.30645
4033.25000 0.307416
4033.68994 0.308382
4034.12988 0.309349
4034.57007 0.310312
4035.02002 0.31128
4035.45996 0.31225
4035.89990 0.313215
4036.34009 0.31418
4036.79004 0.315151
4037.22998 0.316123
4037.66992 0.31709
4038.12012 0.318068
4038.56006 0.319041
4039.00000 0.320006
4039.43994 0.320981
4039.88989 0.321957
4040.33008 0.322911
4040.77002 0.32385
4041.20996 0.324799
4041.65991 0.325749
4042.10010 0.326699
4042.54004 0.32764
4042.98999 0.328596
4043.42993 0.329548
4043.87012 0.330502
4044.31006 0.33145
4044.76001 0.332398
4045.19995 0.333352
4045.63989 0.334308
4046.09009 0.335259
4046.53003 0.336215
4046.96997 0.337172
4047.41992 0.338125
4047.86011 0.339084
4048.30005 0.340038
4048.75000 0.340997
4049.18994 0.341953
4049.63989 0.342914
4050.08008 0.343907
4050.52002 0.345073
4050.96997 0.346239
4051.40991 0.347406
4051.86011 0.348573
4052.30005 0.34973
4052.73999 0.350899
4053.18994 0.352069
4053.62988 0.35324
4054.08008 0.354412
4054.52002 0.355585
4054.96997 0.356754
4055.40991 0.357928
4055.85010 0.359097
4056.30005 0.360273
4056.73999 0.36145
4057.18994 0.362622
4057.62988 0.363795
4058.08008 0.364974
4058.52002 0.366155
4058.96997 0.36733
4059.40991 0.368511
4059.86011 0.369693
4060.30005 0.370636
4060.75000 0.371471
4061.18994 0.372303
4061.63989 0.37314
4062.08008 0.373972
4062.53003 0.37481
4062.96997 0.375649
4063.41992 0.376487
4063.86011 0.377322
4064.31006 0.378158
4064.75000 0.378998
4065.19995 0.37984
4065.63989 0.380677
4066.09009 0.381515
4066.53003 0.382358
4066.97998 0.383206
4067.42993 0.384046
4067.87012 0.38489
4068.32007 0.385735
4068.76001 0.386572
4069.20996 0.387418
4069.65991 0.388265
4070.10010 0.3891
4070.55005 0.38989
4070.98999 0.390677
4071.43994 0.39147
4071.88989 0.392263
4072.33008 0.393052
4072.78003 0.393846
4073.21997 0.394637
4073.66992 0.395432
4074.12012 0.396224
4074.56006 0.397019
4075.01001 0.397816
4075.45996 0.398609
4075.90991 0.399407
4076.35010 0.400201
4076.80005 0.401
4077.23999 0.401795
4077.68994 0.402594
4078.13989 0.403398
4078.59009 0.404199
4079.03003 0.404992
4079.47998 0.405794
4079.92993 0.406596
4080.37012 0.407024
4080.82007 0.407383
4081.27002 0.407742
4081.71997 0.408102
4082.15991 0.408458
4082.61011 0.408817
4083.06006 0.409179
4083.51001 0.409539
4083.94995 0.409898
4084.39990 0.410259
4084.85010 0.41062
4085.30005 0.41098
4085.73999 0.41134
4086.18994 0.411701
4086.63989 0.412063
4087.09009 0.412422
4087.53003 0.412784
4087.97998 0.413147
4088.42993 0.413508
4088.87988 0.413871
4089.32007 0.414232
4089.77002 0.414596
4090.21997 0.415001
4090.66992 0.415453
4091.12012 0.415906
4091.57007 0.416359
4092.02002 0.41681
4092.45996 0.417262
4092.90991 0.417716
4093.36011 0.41817
4093.81006 0.418622
4094.26001 0.419078
4094.70996 0.419533
4095.15991 0.419985
4095.61011 0.420439
4096.06006 0.420895
4096.50000 0.421351
4096.95020 0.421807
4097.39990 0.422259
4097.85010 0.422715
4098.29980 0.423172
4098.75000 0.423629
4099.20020 0.424085
4099.64990 0.424543
4100.10010 0.424997
4100.54980 0.425433
4100.99023 0.425869
4101.43994 0.426306
4101.89014 0.426744
4102.33984 0.427181
4102.79004 0.427619
4103.24023 0.428059
4103.68994 0.428495
4104.14014 0.428933
4104.58984 0.429371
4105.04004 0.429812
4105.49023 0.43025
4105.93994 0.430691
4106.39014 0.431129
4106.83984 0.431571
4107.29004 0.43201
4107.74023 0.432453
4108.18994 0.432895
4108.64014 0.433337
4109.08984 0.433776
4109.54004 0.434218
4109.99023 0.434661
4110.43994 0.43524
4110.89990 0.435822
4111.35010 0.436401
4111.79980 0.436984
4112.24023 0.437563
4112.70020 0.438146
4113.14990 0.438726
4113.60010 0.43931
4114.04980 0.43989
4114.50000 0.440475
4114.95020 0.441059
4115.39990 0.441642
4115.85010 0.442227
4116.29980 0.442813
4116.75000 0.443397
4117.20020 0.44398
4117.66016 0.444568
4118.10986 0.445154
4118.56006 0.445745
4119.00977 0.446327
4119.45996 0.446915
4119.91016 0.447503
4120.37012 0.448095
4120.81006 0.448682
4121.27002 0.449276
4121.72021 0.44987
4122.16992 0.450464
4122.62012 0.451052
4123.06982 0.451647
4123.52979 0.452243
4123.97998 0.452838
4124.43018 0.453435
4124.87988 0.454032
4125.33984 0.454626
4125.79004 0.45522
4126.24023 0.455817
4126.68994 0.456414
4127.14990 0.457012
4127.60010 0.457609
4128.04980 0.458209
4128.50000 0.458808
4128.95020 0.459405
4129.39990 0.460002
4129.85986 0.460604
4130.31006 0.461315
4130.75977 0.462073
4131.22021 0.462836
4131.66992 0.463596
4132.12012 0.464364
4132.56982 0.465125
4133.02979 0.465886
4133.47998 0.466651
4133.93018 0.467418
4134.39014 0.468181
4134.83984 0.468948
4135.29980 0.46972
4135.74023 0.47048
4136.20020 0.471248
4136.64990 0.472016
4137.10986 0.472786
4137.56006 0.473549
4138.00977 0.474321
4138.47021 0.475091
4138.91992 0.475861
4139.37012 0.476627
4139.81982 0.477401
4140.27979 0.477906
4140.72998 0.47824
4141.18994 0.478575
4141.64014 0.478908
4142.10010 0.479244
4142.54980 0.479579
4143.00000 0.479916
4143.45996 0.480252
4143.91016 0.480588
4144.37012 0.480922
4144.81982 0.481259
4145.27002 0.481593
4145.72998 0.481931
4146.18018 0.482267
4146.64014 0.482605
4147.08984 0.482943
4147.54004 0.483277
4148.00000 0.483614
4148.45996 0.483955
4148.91016 0.484294
4149.35986 0.484629
4149.81982 0.484968
4150.27002 0.485326
4150.72998 0.485696
4151.18018 0.486065
4151.64014 0.486435
4152.10010 0.486806
4152.54980 0.487175
4153.00977 0.487546
4153.45996 0.487918
4153.91016 0.488289
4154.37012 0.488658
4154.81982 0.489031
4155.27979 0.489404
4155.72998 0.489775
4156.18994 0.490146
4156.64990 0.49052
4157.10010 0.490894
4157.56006 0.491266
4158.00977 0.491638
4158.47021 0.492011
4158.93018 0.492385
4159.37988 0.492758
4159.83984 0.493133
4160.29004 0.493245
4160.75000 0.49321
4161.20020 0.493175
4161.66016 0.49314
4162.12012 0.493104
4162.56982 0.493069
4163.02979 0.493033
4163.47998 0.492998
4163.93994 0.492963
4164.39990 0.492927
4164.85010 0.49289
4165.31006 0.492855
4165.77002 0.492819
4166.22021 0.492783
4166.68018 0.492747
4167.14014 0.49271
4167.58984 0.492673
4168.04980 0.492637
4168.50977 0.4926
4168.97021 0.492564
4169.41992 0.492527
4169.87988 0.49249
4170.33008 0.492588
4170.79004 0.492734
4171.25000 0.49288
4171.70996 0.493027
4172.16016 0.493173
4172.62012 0.49332
4173.08008 0.493467
4173.54004 0.493614
4173.99023 0.49376
4174.45020 0.493908
4174.91016 0.494055
4175.35986 0.494202
4175.81982 0.49435
4176.27979 0.494496
4176.74023 0.494643
4177.20020 0.49479
4177.64990 0.494938
4178.10986 0.495085
4178.56982 0.495231
4179.02979 0.495378
4179.49023 0.495526
4179.93994 0.495673
4180.39990 0.495654
4180.85986 0.49561
4181.31982 0.495566
4181.77979 0.495522
4182.22998 0.495478
4182.68994 0.495433
4183.14990 0.495389
4183.60986 0.495346
4184.06982 0.495302
4184.52979 0.495257
4184.97998 0.495212
4185.43994 0.495167
4185.89990 0.495123
4186.35986 0.495078
4186.81982 0.495033
4187.27979 0.494987
4187.74023 0.494942
4188.20020 0.494896
4188.64990 0.494851
4189.10986 0.494805
4189.56982 0.494759
4190.02979 0.494754
4190.49023 0.495262
4190.95020 0.495772
4191.41016 0.496284
4191.87012 0.496793
4192.33008 0.497306
4192.79004 0.497819
4193.25000 0.498329
4193.70996 0.498841
4194.16992 0.499354
4194.62988 0.499868
4195.08984 0.500377
4195.54980 0.500891
4196.00977 0.501405
4196.47021 0.50192
4196.91992 0.502429
4197.37988 0.502943
4197.85010 0.503461
4198.31006 0.503977
4198.77002 0.50449
4199.22998 0.505004
4199.68994 0.505521
4200.14990 0.505985
4200.60986 0.506337
4201.06982 0.506691
4201.52979 0.507044
4201.99023 0.507395
4202.45020 0.507749
4202.91016 0.508101
4203.37012 0.508455
4203.83008 0.508807
4204.29004 0.509161
4204.75000 0.509514
4205.20996 0.509866
4205.66992 0.510219
4206.12988 0.510575
4206.60010 0.510932
4207.06006 0.511284
4207.52002 0.511639
4207.97998 0.511995
4208.43994 0.51235
4208.89990 0.512704
4209.35986 0.51306
4209.81982 0.513417
4210.29004 0.514041
4210.75000 0.514827
4211.20996 0.515615
4211.66992 0.5164
4212.12988 0.51719
4212.58984 0.517977
4213.06006 0.518769
4213.52002 0.519556
4213.97998 0.520345
4214.43994 0.521138
4214.89990 0.521935
4215.35986 0.522725
4215.81982 0.523515
4216.29004 0.52431
4216.75000 0.525105
4217.20996 0.5259
4217.66992 0.526691
4218.14014 0.527488
4218.60010 0.528285
4219.06006 0.529079
4219.52002 0.529874
4219.97998 0.530674
4220.45020 0.531112
4220.91016 0.531536
4221.37012 0.531964
4221.83008 0.53239
4222.29980 0.532818
4222.75977 0.533244
4223.22998 0.533675
4223.68994 0.534103
4224.14990 0.534529
4224.60986 0.534957
4225.06982 0.535388
4225.54004 0.535817
4226.00000 0.536244
4226.47021 0.536674
4226.93018 0.537104
4227.39014 0.537535
4227.85010 0.537963
4228.31982 0.538393
4228.77979 0.538825
4229.25000 0.539257
4229.70996 0.539685
4230.16992 0.540253
4230.62988 0.541053
4231.10010 0.541856
4231.56006 0.54266
4232.02979 0.54346
4232.49023 0.544265
4232.95020 0.545067
4233.41992 0.545874
4233.87988 0.546677
4234.35010 0.547483
4234.81006 0.54829
4235.27002 0.549097
4235.74023 0.549905
4236.20020 0.550705
4236.66992 0.551515
4237.12988 0.552325
4237.60010 0.553135
4238.06006 0.553939
4238.52002 0.55475
4238.99023 0.555561
4239.45020 0.556373
4239.91992 0.557186
4240.37988 0.557719
4240.85010 0.558191
4241.31006 0.558665
4241.77979 0.559137
4242.24023 0.559611
4242.70996 0.560085
4243.16992 0.560557
4243.64014 0.561033
4244.10010 0.561509
4244.56982 0.561982
4245.02979 0.562454
4245.50000 0.562931
4245.95996 0.563408
4246.43018 0.563882
4246.89014 0.564359
4247.35986 0.564833
4247.81982 0.56531
4248.29004 0.565788
4248.75000 0.566264
4249.22021 0.566742
4249.68994 0.567221
4250.14990 0.567765
4250.62012 0.568453
4251.08008 0.569143
4251.54980 0.569837
4252.02002 0.570525
4252.47998 0.571218
4252.95020 0.571909
4253.41016 0.572599
4253.87988 0.573287
4254.35010 0.573981
4254.81006 0.574674
4255.27979 0.575369
4255.74023 0.576057
4256.20996 0.576753
4256.68018 0.577451
4257.14990 0.578144
4257.60986 0.578836
4258.08008 0.579534
4258.54980 0.58023
4259.00977 0.580924
4259.47998 0.581622
4259.95020 0.58232
4260.41016 0.582616
4260.87988 0.58286
4261.33984 0.583104
4261.81006 0.58335
4262.27979 0.583595
4262.75000 0.583841
4263.20996 0.584086
4263.68018 0.584331
4264.14990 0.584574
4264.60986 0.58482
4265.08008 0.585067
4265.54980 0.585313
4266.02002 0.585557
4266.47998 0.585802
4266.95020 0.586048
4267.41992 0.586294
4267.89014 0.586538
4268.35986 0.586785
4268.81982 0.587032
4269.29004 0.587277
4269.75977 0.587524
4270.22998 0.587936
4270.70020 0.588527
4271.16016 0.589116
4271.62988 0.589708
4272.10010 0.590301
4272.56982 0.59089
4273.02979 0.59148
4273.50000 0.592073
4273.97021 0.592667
4274.43994 0.593258
4274.91016 0.593852
4275.37988 0.594447
4275.85010 0.595039
4276.31006 0.595634
4276.77979 0.596229
4277.25000 0.596825
4277.72021 0.597421
4278.18994 0.598011
4278.66016 0.598607
4279.12988 0.599204
4279.60010 0.599803
4280.06006 0.600353
4280.52979 0.600643
4281.00000 0.600933
4281.47021 0.601223
4281.93994 0.601516
4282.41016 0.601808
4282.87988 0.602098
4283.35010 0.602386
4283.81982 0.602677
4284.29004 0.602969
4284.75977 0.60326
4285.22998 0.603551
4285.70020 0.603842
4286.16992 0.604132
4286.64014 0.604425
4287.10986 0.604718
4287.58008 0.605008
4288.04980 0.6053
4288.52002 0.605591
4288.99023 0.605884
4289.45996 0.606176
4289.93018 0.606469
4290.39990 0.606936
4290.87012 0.607439
4291.33984 0.607942
4291.81006 0.608445
4292.27979 0.608946
4292.75000 0.609447
4293.22021 0.609951
4293.68994 0.610455
4294.16016 0.61096
4294.62988 0.611465
4295.10010 0.611971
4295.56982 0.612471
4296.04004 0.612976
4296.50977 0.613482
4296.99023 0.613989
4297.45020 0.614491
4297.93018 0.614998
4298.39990 0.615503
4298.87012 0.61601
4299.33984 0.616517
4299.81006 0.617022
4300.27979 0.617316
4300.75000 0.617464
4301.22998 0.617614
4301.70020 0.617765
4302.16992 0.617916
4302.64014 0.618064
4303.10986 0.618214
4303.58008 0.618364
4304.04980 0.618514
4304.52002 0.618663
4305.00000 0.618813
4305.47021 0.618961
4305.93994 0.619111
4306.41016 0.61926
4306.87988 0.61941
4307.35986 0.61956
4307.83008 0.619709
4308.29980 0.619859
4308.77002 0.62001
4309.25000 0.62016
4309.72021 0.620309
4310.18994 0.620572
4310.66016 0.621009
4311.14014 0.621442
4311.60986 0.621877
4312.08008 0.622312
4312.54980 0.622745
4313.02002 0.623178
4313.50000 0.623614
4313.97021 0.624051
4314.43994 0.624487
4314.91016 0.62492
4315.39014 0.625356
4315.85986 0.625793
4316.33984 0.62623
4316.81006 0.626665
4317.27979 0.627103
4317.75000 0.627541
4318.22998 0.627977
4318.70020 0.628416
4319.18018 0.628854
4319.64990 0.629293
4320.12012 0.629667
4320.58984 0.629853
4321.06982 0.630041
4321.54004 0.630229
4322.00977 0.630417
4322.49023 0.630604
4322.95996 0.630791
4323.43994 0.630979
4323.91016 0.631166
4324.37988 0.631354
4324.85986 0.631544
4325.33008 0.63173
4325.81006 0.631918
4326.27979 0.632107
4326.75977 0.632296
4327.22998 0.632483
4327.70020 0.632672
4328.18018 0.632861
4328.64990 0.633049
4329.12988 0.633238
4329.60010 0.633425
4330.06982 0.633641
4330.54980 0.634002
4331.02002 0.634365
4331.50000 0.634729
4331.97021 0.635091
4332.43994 0.635454
4332.91992 0.635819
4333.39990 0.636183
4333.87012 0.636548
4334.35010 0.636911
4334.81982 0.637277
4335.29980 0.63764
4335.77002 0.638005
4336.24023 0.638369
4336.72021 0.638737
4337.20020 0.639102
4337.66992 0.639465
4338.14990 0.639831
4338.62012 0.640197
4339.10010 0.640563
4339.56982 0.640926
4340.04980 0.641274
4340.52002 0.64146
4341.00000 0.641645
4341.47998 0.641831
4341.95020 0.642019
4342.43018 0.642204
4342.89990 0.64239
4343.37988 0.642576
4343.85986 0.642762
4344.33008 0.642948
4344.81006 0.643134
4345.29004 0.643321
4345.75977 0.643508
4346.24023 0.643694
4346.70996 0.64388
4347.18994 0.644066
4347.66992 0.644253
4348.14014 0.644439
4348.62012 0.644624
4349.10010 0.644811
4349.56982 0.644998
4350.04980 0.645209
4350.52002 0.645619
4351.00000 0.646031
4351.47998 0.646445
4351.95996 0.646857
4352.43018 0.647267
4352.91016 0.647681
4353.39014 0.648094
4353.87012 0.648508
4354.33984 0.648923
4354.81982 0.649337
4355.29980 0.649747
4355.77002 0.650162
4356.25000 0.650577
4356.72998 0.650993
4357.20020 0.651405
4357.68018 0.651821
4358.16016 0.652235
4358.64014 0.65265
4359.12012 0.653066
4359.58984 0.653481
4360.06982 0.653881
4360.54980 0.654189
4361.02979 0.654494
4361.50000 0.654802
4361.97998 0.655111
4362.45996 0.655419
4362.93994 0.655727
4363.41992 0.656034
4363.89990 0.656343
4364.37012 0.656651
4364.85010 0.65696
4365.33008 0.65727
4365.81006 0.657577
4366.29004 0.657885
4366.77002 0.658195
4367.24023 0.658505
4367.72021 0.658815
4368.20020 0.659125
4368.68018 0.659435
4369.16016 0.659745
4369.64014 0.660053
4370.12012 0.66036
4370.60010 0.660666
4371.08008 0.660974
4371.56006 0.661277
4372.02979 0.661581
4372.50977 0.661886
4372.99023 0.662193
4373.47021 0.662497
4373.95020 0.662802
4374.43018 0.663107
4374.91016 0.663413
4375.39014 0.663719
4375.87012 0.664026
4376.35010 0.664332
4376.83008 0.664637
4377.31006 0.664943
4377.79004 0.665251
4378.27002 0.665558
4378.74023 0.665862
4379.22998 0.66617
4379.70996 0.666479
4380.18994 0.66677
4380.66016 0.667034
4381.14990 0.6673
4381.62988 0.667566
4382.10986 0.667832
4382.58984 0.668098
4383.06982 0.668364
4383.54980 0.668629
4384.02979 0.668894
4384.50977 0.669161
4384.99023 0.669428
4385.47021 0.669694
4385.95020 0.66996
4386.43018 0.670227
4386.91016 0.670495
4387.39014 0.670761
4387.87012 0.671029
4388.35010 0.671297
4388.83984 0.671564
4389.31006 0.671829
4389.79980 0.672097
4390.27979 0.672259
4390.75977 0.672344
4391.24023 0.672429
4391.72021 0.672513
4392.20020 0.672599
4392.68994 0.672684
4393.16016 0.672769
4393.64990 0.672853
4394.12988 0.672938
4394.60986 0.673022
4395.08984 0.673108
4395.56982 0.673192
4396.06006 0.673276
4396.52979 0.67336
4397.02002 0.673446
4397.50000 0.673531
4397.97998 0.673615
4398.45996 0.673698
4398.95020 0.673782
4399.43018 0.673866
4399.91016 0.67395
4400.39014 0.673959
4400.87012 0.673951
4401.35986 0.673941
4401.83984 0.673931
4402.31982 0.673922
4402.81006 0.673913
4403.29004 0.673904
4403.77002 0.673894
4404.25000 0.673884
4404.72998 0.673874
4405.22021 0.673863
4405.70020 0.673853
4406.18994 0.673843
4406.66992 0.673832
4407.14990 0.673821
4407.62988 0.67381
4408.12012 0.673798
4408.60010 0.673789
4409.08008 0.673779
4409.56006 0.673767
4410.04980 0.673779
4410.52979 0.674002
4411.00977 0.674223
4411.50000 0.674446
4411.97998 0.674669
4412.45996 0.674892
4412.95020 0.675116
4413.43018 0.675338
4413.91992 0.67556
4414.39990 0.675784
4414.89014 0.676008
4415.37012 0.676231
4415.85010 0.676454
4416.33008 0.676676
4416.81982 0.676899
4417.31006 0.677123
4417.79004 0.677345
4418.27002 0.677567
4418.75977 0.677791
4419.24023 0.678015
4419.72998 0.678239
4420.20996 0.678396
4420.68994 0.678462
4421.18018 0.67853
4421.66016 0.678597
4422.14990 0.678664
4422.62988 0.678732
4423.12012 0.678799
4423.60010 0.678866
4424.08984 0.678933
4424.56982 0.678999
4425.04980 0.679066
4425.54004 0.679133
4426.02002 0.6792
4426.50977 0.679267
4426.99023 0.679333
4427.47998 0.6794
4427.97021 0.679466
4428.45020 0.679532
4428.93994 0.679599
4429.41992 0.679666
4429.91016 0.679732
4430.39990 0.680036
4430.87988 0.680393
4431.35986 0.680755
4431.85010 0.681118
4432.33984 0.681477
4432.81982 0.681837
4433.31006 0.682196
4433.79004 0.682557
4434.27979 0.682917
4434.77002 0.683277
4435.25000 0.683637
4435.74023 0.683998
4436.22021 0.684358
4436.70996 0.68472
4437.18994 0.685083
4437.68018 0.685444
4438.16992 0.685806
4438.64990 0.686168
4439.14014 0.686528
4439.62012 0.68689
4440.10986 0.68723
4440.60010 0.687491
4441.08984 0.687753
4441.56982 0.688012
4442.06006 0.688274
4442.54980 0.688534
4443.04004 0.688795
4443.52002 0.689054
4444.00977 0.689316
4444.49023 0.689577
4444.97998 0.689839
4445.47021 0.690099
4445.95020 0.690359
4446.43994 0.690623
4446.93018 0.690883
4447.41992 0.691145
4447.91016 0.691408
4448.39014 0.691669
4448.87988 0.69193
4449.37012 0.692193
4449.85986 0.692457
4450.35010 0.692865
4450.83008 0.693335
4451.31982 0.693806
4451.81006 0.694277
4452.29004 0.694747
4452.77979 0.695218
4453.27002 0.69569
4453.75977 0.696161
4454.25000 0.696631
4454.72998 0.697105
4455.22021 0.697579
4455.70996 0.698053
4456.20020 0.698525
4456.68994 0.698996
4457.18018 0.69947
4457.66016 0.699942
4458.14990 0.700416
4458.64014 0.700893
4459.12988 0.70137
4459.62012 0.701842
4460.10986 0.702302
4460.60010 0.702701
4461.08984 0.703101
4461.56982 0.703498
4462.06006 0.703899
4462.54980 0.704301
4463.04004 0.704702
4463.52979 0.7051
4464.02002 0.705503
4464.50977 0.705904
4465.00000 0.706304
4465.49023 0.706707
4465.97998 0.70711
4466.47021 0.707511
4466.95020 0.707912
4467.43994 0.708315
4467.93994 0.708718
4468.43018 0.709122
4468.91016 0.709523
4469.39990 0.709927
4469.89014 0.71033
4470.37988 0.710795
4470.87012 0.711276
4471.35986 0.71176
4471.85010 0.712244
4472.33984 0.712729
4472.83008 0.713214
4473.31982 0.7137
4473.81982 0.714186
4474.29980 0.714667
4474.79004 0.715153
4475.27979 0.71564
4475.77979 0.716128
4476.27002 0.716615
4476.75977 0.717102
4477.25000 0.717586
4477.74023 0.718071
4478.22998 0.718559
4478.72021 0.719047
4479.20996 0.719535
4479.70020 0.720019
4480.18994 0.720494
4480.68018 0.720946
4481.18018 0.721398
4481.66992 0.721847
4482.16016 0.722299
4482.64990 0.722752
4483.14014 0.723202
4483.62988 0.723655
4484.12012 0.724106
4484.60986 0.724561
4485.10010 0.725013
4485.60010 0.725467
4486.08984 0.725921
4486.58008 0.726376
4487.06982 0.726827
4487.56006 0.727279
4488.06006 0.727734
4488.54980 0.728189
4489.04004 0.728642
4489.52979 0.729095
4490.02002 0.729549
4490.50977 0.729986
4491.00977 0.730423
4491.50000 0.730862
4491.99023 0.731302
4492.47998 0.731734
4492.97998 0.732171
4493.47021 0.732609
4493.95996 0.733048
4494.45020 0.733487
4494.95020 0.733924
4495.43994 0.734363
4495.93018 0.7348
4496.43018 0.73524
4496.91992 0.735679
4497.41016 0.736117
4497.89990 0.736554
4498.39990 0.736995
4498.89014 0.737436
4499.37988 0.737877
4499.87988 0.738316
4500.37012 0.738654
4500.85986 0.738954
4501.35010 0.739256
4501.85010 0.739557
4502.33984 0.739859
4502.83984 0.740163
4503.33008 0.740462
4503.81982 0.740765
4504.31982 0.741068
4504.81006 0.741371
4505.29980 0.741671
4505.79980 0.741975
4506.29004 0.742278
4506.77979 0.742581
4507.27002 0.742881
4507.77002 0.743185
4508.27002 0.743491
4508.75977 0.743794
4509.25000 0.744098
4509.75000 0.744402
4510.24023 0.744735
4510.72998 0.745093
4511.22998 0.745455
4511.72998 0.745817
4512.22021 0.74618
4512.70996 0.74654
4513.20996 0.746903
4513.70020 0.747266
4514.20020 0.747628
4514.68994 0.747991
4515.18994 0.748353
4515.68018 0.748715
4516.18018 0.749076
4516.66992 0.749441
4517.16992 0.749805
4517.66016 0.750169
4518.16016 0.750531
4518.64990 0.750893
4519.14990 0.751258
4519.64014 0.751622
4520.14014 0.751927
4520.64014 0.752084
4521.12988 0.752241
4521.62012 0.752397
4522.12012 0.752554
4522.62012 0.752712
4523.10986 0.752868
4523.60010 0.753023
4524.10010 0.753179
4524.60010 0.753336
4525.10010 0.753493
4525.58984 0.753649
4526.08008 0.753806
4526.58008 0.753964
4527.08008 0.754121
4527.56982 0.754277
4528.06982 0.754435
4528.56982 0.75459
4529.06006 0.754747
4529.56006 0.754904
4530.06006 0.755062
4530.54980 0.755222
4531.04980 0.755382
4531.54980 0.755544
4532.04004 0.755705
4532.54004 0.755866
4533.02979 0.756026
4533.52979 0.756188
4534.02979 0.756349
4534.52002 0.75651
4535.02002 0.756671
4535.52002 0.756832
4536.02002 0.756992
4536.50977 0.757153
4537.00977 0.757315
4537.50977 0.757476
4538.00977 0.757638
4538.50977 0.7578
4539.00000 0.757963
4539.50000 0.758123
4540.00000 0.758284
4540.49023 0.758407
4540.99023 0.758531
4541.49023 0.758654
4541.99023 0.758777
4542.47998 0.7589
4542.97998 0.759024
4543.47998 0.759148
4543.97998 0.759271
4544.47998 0.759396
4544.97998 0.75952
4545.47021 0.759643
4545.97021 0.759765
4546.47021 0.759889
4546.97021 0.760012
4547.47021 0.760137
4547.95996 0.760261
4548.45996 0.760384
4548.95996 0.760507
4549.45996 0.76063
4549.95996 0.760753
4550.45020 0.760749
4550.95020 0.760733
4551.45020 0.760715
4551.95020 0.760696
4552.45020 0.760679
4552.95020 0.760662
4553.45020 0.760644
4553.95020 0.760626
4554.45020 0.760608
4554.93994 0.760591
4555.43994 0.760573
4555.93994 0.760556
4556.43994 0.760536
4556.93994 0.760516
4557.43994 0.760498
4557.93994 0.76048
4558.43994 0.760462
4558.93994 0.760446
4559.43994 0.760425
4559.93994 0.760405
4560.43994 0.760471
4560.93994 0.760548
4561.43994 0.760626
4561.93994 0.760703
4562.43994 0.760779
4562.93994 0.760855
4563.43994 0.760932
4563.93994 0.761009
4564.43994 0.761085
4564.93994 0.76116
4565.43994 0.761237
4565.93994 0.761315
4566.43994 0.761392
4566.93994 0.76147
4567.43994 0.761546
4567.93994 0.761621
4568.43994 0.761697
4568.93994 0.761774
4569.43994 0.761849
4569.93994 0.761925
4570.43994 0.761881
4570.93994 0.761823
4571.45020 0.761765
4571.95020 0.761706
4572.45020 0.761647
4572.95020 0.761588
4573.45020 0.761529
4573.95020 0.76147
4574.45020 0.761411
4574.95996 0.761352
4575.45996 0.761292
4575.95996 0.761231
4576.45996 0.761171
4576.95996 0.761112
4577.45996 0.761053
4577.95996 0.760993
4578.47021 0.760932
4578.97021 0.760871
4579.47021 0.76081
4579.97021 0.76075
4580.47998 0.760982
4580.97998 0.76123
4581.47998 0.761478
4581.97998 0.761727
4582.47998 0.761977
4582.97998 0.762226
4583.49023 0.762476
4583.99023 0.762727
4584.49023 0.762977
4584.99023 0.763225
4585.50000 0.763475
4586.00000 0.763725
4586.50000 0.763974
4587.00000 0.764224
4587.50977 0.764475
4588.00977 0.764725
4588.50977 0.764974
4589.00977 0.765224
4589.52002 0.765476
4590.02002 0.76572
4590.52002 0.765828
4591.02979 0.765935
4591.52979 0.766043
4592.02979 0.766151
4592.54004 0.766259
4593.04004 0.766368
4593.54980 0.766476
4594.04980 0.766583
4594.54980 0.766692
4595.04980 0.7668
4595.56006 0.766908
4596.06006 0.767016
4596.56006 0.767123
4597.06982 0.767231
4597.56982 0.767339
4598.06982 0.767448
4598.58008 0.767555
4599.08984 0.767662
4599.58984 0.767771
4600.08984 0.767968
4600.60010 0.768575
4601.10010 0.769182
4601.60986 0.769789
4602.10986 0.770393
4602.60986 0.771002
4603.12012 0.771611
4603.62012 0.772216
4604.12988 0.772825
4604.62988 0.773432
4605.14014 0.774042
4605.64014 0.774648
4606.14990 0.775257
4606.64990 0.775865
4607.14990 0.776476
4607.66016 0.777085
4608.16992 0.777696
4608.66992 0.77831
4609.16992 0.778917
4609.68018 0.779528
4610.18994 0.779988
4610.68994 0.780187
4611.20020 0.780387
4611.70020 0.780587
4612.20996 0.780788
4612.72021 0.780989
4613.22021 0.781189
4613.72021 0.78139
4614.22998 0.781591
4614.74023 0.781792
4615.24023 0.781991
4615.74023 0.782192
4616.25000 0.782392
4616.75977 0.782592
4617.25977 0.782793
4617.77002 0.782995
4618.27979 0.783197
4618.77979 0.783396
4619.29004 0.783598
4619.79980 0.783799
4620.29980 0.784272
4620.81006 0.784926
4621.31006 0.785583
4621.81982 0.786241
4622.33008 0.786895
4622.83984 0.787551
4623.33984 0.788208
4623.85010 0.788868
4624.35010 0.789524
4624.85986 0.790183
4625.37012 0.790839
4625.87012 0.7915
4626.37988 0.792156
4626.89014 0.792816
4627.39990 0.793479
4627.89990 0.794141
4628.41016 0.794799
4628.91992 0.795464
4629.43018 0.796126
4629.93018 0.796782
4630.43994 0.797364
4630.95020 0.797933
4631.45996 0.798502
4631.95996 0.799066
4632.47021 0.799635
4632.97998 0.800206
4633.49023 0.800776
4633.99023 0.801342
4634.50000 0.801913
4635.00977 0.802484
4635.52002 0.803055
4636.02002 0.803626
4636.52979 0.804198
4637.04004 0.804768
4637.54980 0.805336
4638.06006 0.805908
4638.56982 0.806483
4639.06982 0.807058
4639.58008 0.807627
4640.08984 0.808175
4640.60010 0.808609
4641.10010 0.809042
4641.60986 0.809476
4642.12012 0.809911
4642.62988 0.810344
4643.14014 0.81078
4643.64990 0.811214
4644.16016 0.81165
4644.66992 0.812087
4645.18018 0.812521
4645.68994 0.812957
4646.20020 0.813393
4646.70996 0.81383
4647.22021 0.814267
4647.72998 0.814704
4648.22998 0.815139
4648.74023 0.815575
4649.25000 0.816013
4649.75977 0.816452
4650.27002 0.816863
4650.77979 0.817255
4651.29004 0.817647
4651.79980 0.818037
4652.31006 0.81843
4652.81982 0.818819
4653.33008 0.819214
4653.83984 0.819607
4654.35010 0.820001
4654.85986 0.820393
4655.37012 0.820787
4655.87988 0.82118
4656.39014 0.821573
4656.89990 0.821968
4657.41016 0.822363
4657.91992 0.822758
4658.43018 0.823149
4658.93994 0.823541
4659.45020 0.823937
4659.97021 0.824334
4660.47021 0.824957
4660.97998 0.825598
4661.49023 0.826244
4662.00977 0.82689
4662.52002 0.827531
4663.02979 0.828176
4663.54004 0.828824
4664.04980 0.829464
4664.56006 0.830111
4665.06982 0.830759
4665.58984 0.831406
4666.10010 0.832054
4666.60986 0.832698
4667.12012 0.833346
4667.62988 0.833992
4668.14014 0.834641
4668.64990 0.835286
4669.16992 0.835936
4669.68018 0.836582
4670.18994 0.837083
4670.70020 0.837329
4671.20996 0.837574
4671.72021 0.837819
4672.22998 0.838064
4672.75000 0.83831
4673.25977 0.838556
4673.77002 0.838801
4674.27979 0.839047
4674.79980 0.839294
4675.31006 0.839538
4675.81982 0.839782
4676.33984 0.840029
4676.85010 0.840277
4677.35986 0.840521
4677.87012 0.840768
4678.39014 0.841014
4678.89990 0.84126
4679.41016 0.841505
4679.91992 0.841749
4680.43994 0.841805
4680.95020 0.841825
4681.45996 0.841844
4681.97998 0.841863
4682.49023 0.841882
4683.00000 0.841902
4683.50977 0.84192
4684.02979 0.841938
4684.54004 0.841955
4685.04980 0.841973
4685.56982 0.841994
4686.08008 0.842014
4686.60010 0.842032
4687.10986 0.84205
4687.62012 0.842069
4688.14014 0.842087
4688.64990 0.842104
4689.16016 0.842122
4689.68018 0.842141
4690.18994 0.842197
4690.70020 0.842316
4691.22021 0.842435
4691.72998 0.842554
4692.25000 0.842674
4692.75977 0.842793
4693.27979 0.842913
4693.79004 0.843033
4694.31006 0.843152
4694.81982 0.843273
4695.33984 0.843392
4695.85010 0.84351
4696.35986 0.843628
4696.87988 0.843748
4697.39014 0.843869
4697.91016 0.843989
4698.41992 0.844107
4698.93994 0.844226
4699.45020 0.844345
4699.97021 0.844464
4700.47998 0.844619
4701.00000 0.844777
4701.50977 0.844935
4702.02979 0.845094
4702.54004 0.84525
4703.06006 0.845407
4703.58008 0.845566
4704.08984 0.845723
4704.60986 0.84588
4705.12012 0.846037
4705.64014 0.846195
4706.14990 0.846352
4706.66992 0.84651
4707.18018 0.846668
4707.70020 0.846826
4708.20996 0.846984
4708.72998 0.847141
4709.25000 0.847299
4709.75977 0.847455
4710.27979 0.847801
4710.79980 0.848309
4711.31006 0.848817
4711.83008 0.849323
4712.35010 0.849832
4712.85986 0.850341
4713.37988 0.850849
4713.89990 0.851355
4714.41016 0.851864
4714.93018 0.852373
4715.43994 0.852881
4715.95996 0.853388
4716.47998 0.853899
4716.99023 0.854408
4717.50977 0.854915
4718.02979 0.855425
4718.54980 0.855936
4719.06006 0.856447
4719.58008 0.856956
4720.10010 0.857339
4720.60986 0.857158
4721.12988 0.856977
4721.64990 0.856797
4722.16992 0.856617
4722.68994 0.856437
4723.20020 0.856257
4723.72021 0.856076
4724.24023 0.855895
4724.75977 0.855712
4725.27002 0.85553
4725.79004 0.855347
4726.31006 0.855165
4726.83008 0.854984
4727.33984 0.854801
4727.85986 0.854618
4728.37988 0.854433
4728.89990 0.854251
4729.41992 0.854068
4729.93994 0.853884
4730.45020 0.854088
4730.97021 0.854347
4731.49023 0.854605
4732.00977 0.854864
4732.52979 0.855124
4733.04980 0.855381
4733.56006 0.855638
4734.08008 0.855897
4734.60010 0.856156
4735.12012 0.856415
4735.64014 0.856673
4736.16016 0.856933
4736.68018 0.857193
4737.20020 0.857451
4737.72021 0.857711
4738.24023 0.857971
4738.75000 0.85823
4739.27002 0.85849
4739.79980 0.858751
4740.31006 0.85892
4740.83008 0.859029
4741.35010 0.85914
4741.87988 0.85925
4742.39014 0.859359
4742.91016 0.85947
4743.43018 0.859579
4743.95020 0.859688
4744.47021 0.859797
4744.99023 0.859905
4745.50977 0.860016
4746.02979 0.860126
4746.54980 0.860236
4747.06982 0.860345
4747.58984 0.860456
4748.10986 0.860565
4748.62988 0.860675
4749.14990 0.860784
4749.68018 0.860893
4750.18994 0.861212
4750.72021 0.861887
4751.24023 0.862562
4751.75977 0.863234
4752.27002 0.863906
4752.79980 0.86458
4753.31982 0.865257
4753.83984 0.865934
4754.35986 0.866603
4754.87988 0.867279
4755.39990 0.867957
4755.91992 0.868635
4756.43994 0.869309
4756.97021 0.869987
4757.49023 0.870665
4758.00977 0.871342
4758.52979 0.872021
4759.04980 0.872701
4759.56982 0.873381
4760.10010 0.873964
4760.62012 0.874136
4761.14014 0.874308
4761.66016 0.874479
4762.18018 0.874649
4762.70020 0.874821
4763.22998 0.874993
4763.75000 0.875163
4764.27002 0.875333
4764.79004 0.875505
4765.31006 0.875677
4765.83984 0.875849
4766.35986 0.876019
4766.87988 0.876191
4767.39990 0.876362
4767.93018 0.876533
4768.45020 0.876705
4768.97021 0.876877
4769.49023 0.877047
4770.02002 0.877236
4770.54004 0.877951
4771.06006 0.878671
4771.58008 0.879386
4772.10986 0.880106
4772.62988 0.880828
4773.14990 0.881545
4773.66992 0.882261
4774.20020 0.882983
4774.72021 0.883704
4775.24023 0.884423
4775.77002 0.885145
4776.29004 0.885868
4776.81982 0.886589
4777.33984 0.887313
4777.85986 0.888033
4778.39014 0.888756
4778.91016 0.88948
4779.43994 0.890201
4779.95996 0.890926
4780.47998 0.891085
4781.00977 0.891199
4781.52979 0.891311
4782.06006 0.891424
4782.58008 0.891536
4783.10010 0.891648
4783.62012 0.891761
4784.14990 0.891873
4784.68018 0.891986
4785.20020 0.892098
4785.72021 0.892211
4786.25000 0.892324
4786.77002 0.892437
4787.29980 0.89255
4787.81982 0.892662
4788.35010 0.892774
4788.87988 0.892887
4789.39990 0.892999
4789.91992 0.893112
4790.45020 0.893411
4790.97021 0.893744
4791.49023 0.894075
4792.02002 0.894409
4792.54980 0.894741
4793.06982 0.895072
4793.60010 0.895405
4794.12012 0.895737
4794.64990 0.896073
4795.16992 0.896405
4795.70020 0.896738
4796.22998 0.897072
4796.75000 0.897407
4797.27979 0.89774
4797.79980 0.898073
4798.33008 0.898407
4798.85010 0.898741
4799.37988 0.899073
4799.91016 0.899409
4800.43018 0.899599
4800.95996 0.899757
4801.47998 0.899916
4802.00977 0.900075
4802.54004 0.900233
4803.06006 0.900391
4803.58984 0.900549
4804.12012 0.900707
4804.64014 0.900866
4805.16992 0.901025
4805.68994 0.901183
4806.22021 0.901341
4806.75000 0.901499
4807.27979 0.901657
4807.79980 0.901816
4808.33008 0.901976
4808.85010 0.902133
4809.37988 0.902293
4809.91016 0.902452
4810.43994 0.902673
4810.95996 0.902905
4811.49023 0.90314
4812.02002 0.903374
4812.54980 0.903608
4813.06982 0.90384
4813.60010 0.904076
4814.12988 0.90431
4814.64990 0.904544
4815.18018 0.904779
4815.70996 0.905014
4816.24023 0.905248
4816.77002 0.905481
4817.29980 0.905717
4817.81982 0.905952
4818.35010 0.906188
4818.87988 0.906421
4819.41016 0.906657
4819.93018 0.906892
4820.45996 0.906785
4820.99023 0.906631
4821.52002 0.906476
4822.04980 0.906322
4822.58008 0.906167
4823.10010 0.906011
4823.64014 0.905855
4824.16016 0.905699
4824.68994 0.905545
4825.22021 0.905388
4825.75000 0.905232
4826.27979 0.905076
4826.81006 0.904919
4827.33984 0.904763
4827.85986 0.904608
4828.39014 0.904451
4828.91992 0.904294
4829.45020 0.904137
4829.97998 0.903979
4830.50977 0.904118
4831.04004 0.904268
4831.56982 0.904418
4832.10010 0.904568
4832.62988 0.904717
4833.16016 0.904868
4833.68994 0.905019
4834.22021 0.905169
4834.75000 0.905318
4835.27979 0.905468
4835.81006 0.905618
4836.33984 0.905767
4836.87012 0.905918
4837.39990 0.906069
4837.93018 0.906221
4838.45996 0.906371
4838.99023 0.90652
4839.52002 0.90667
4840.04980 0.906805
4840.58008 0.906796
4841.10986 0.906786
4841.64014 0.906777
4842.16992 0.906767
4842.70020 0.906757
4843.22998 0.906747
4843.77002 0.906736
4844.29004 0.906727
4844.83008 0.906718
4845.35986 0.906709
4845.89014 0.906699
4846.41992 0.906688
4846.95020 0.906677
4847.47998 0.906667
4848.00977 0.906657
4848.54004 0.906646
4849.06982 0.906636
4849.60010 0.906625
4850.14014 0.906695
4850.66992 0.906999
4851.20020 0.907304
4851.72998 0.907609
4852.25977 0.907913
4852.79980 0.908218
4853.33008 0.908522
4853.85986 0.90883
4854.39014 0.909137
4854.93018 0.909443
4855.45996 0.90975
4855.97998 0.910052
4856.52002 0.910357
4857.04980 0.910663
4857.58984 0.91097
4858.10986 0.911274
4858.64990 0.911579
4859.18018 0.911885
4859.70996 0.912191
4860.24023 0.9123
4860.77979 0.91218
4861.31006 0.91206
4861.83984 0.911942
4862.37988 0.911822
4862.91016 0.911701
4863.43994 0.91158
4863.97998 0.911459
4864.50977 0.911339
4865.04004 0.911219
4865.58008 0.911098
4866.10986 0.910977
4866.64014 0.910857
4867.18018 0.910735
4867.70996 0.910615
4868.24023 0.910494
4868.77002 0.910372
4869.31006 0.910249
4869.83984 0.910127
4870.37988 0.910232
4870.91016 0.910436
4871.43994 0.910639
4871.97998 0.910842
4872.50977 0.911044
4873.04980 0.911247
4873.58008 0.91145
4874.10986 0.911654
4874.64990 0.911859
4875.18994 0.912064
4875.72021 0.912265
4876.25000 0.912469
4876.79004 0.912672
4877.31982 0.912876
4877.85010 0.913078
4878.39014 0.913282
4878.91992 0.913485
4879.45996 0.91369
4879.99023 0.913892
4880.52002 0.914097
4881.06006 0.914302
4881.60010 0.914506
4882.12988 0.914711
4882.66992 0.914917
4883.20020 0.915122
4883.74023 0.915326
4884.27002 0.91553
4884.81006 0.915735
4885.35010 0.91594
4885.87988 0.916144
4886.41016 0.916349
4886.95020 0.916554
4887.47998 0.91676
4888.02002 0.916966
4888.56006 0.91717
4889.08984 0.917374
4889.62988 0.917579
4890.16016 0.917851
4890.70020 0.918275
4891.24023 0.918699
4891.77002 0.919119
4892.31006 0.919543
4892.85010 0.919969
4893.37988 0.920394
4893.91992 0.920818
4894.45996 0.921243
4894.99023 0.921667
4895.52979 0.92209
4896.06006 0.922513
4896.60010 0.922939
4897.14014 0.923364
4897.66992 0.923785
4898.20996 0.92421
4898.75000 0.924635
4899.27979 0.925063
4899.81982 0.925487
4900.35986 0.92592
4900.89014 0.92635
4901.43018 0.926784
4901.97021 0.927216
4902.50977 0.927651
4903.04980 0.928084
4903.58008 0.928513
4904.12012 0.928946
4904.64990 0.92938
4905.18994 0.929814
4905.72998 0.930246
4906.27002 0.930681
4906.81006 0.931116
4907.33984 0.93155
4907.87988 0.931982
4908.41992 0.932416
4908.95020 0.932853
4909.49023 0.93329
4910.02979 0.933743
4910.56982 0.934464
4911.10986 0.935185
4911.64990 0.935898
4912.18018 0.936618
4912.72998 0.937343
4913.25977 0.938062
4913.79980 0.938783
4914.33984 0.939506
4914.87988 0.940225
4915.41992 0.940946
4915.95996 0.941669
4916.50000 0.942394
4917.02979 0.943118
4917.56982 0.94384
4918.10986 0.944563
4918.64990 0.945288
4919.18994 0.946013
4919.72998 0.946734
4920.27002 0.947175
4920.81006 0.947326
4921.35010 0.947477
4921.89014 0.947629
4922.43018 0.947781
4922.97021 0.947933
4923.50977 0.948083
4924.04004 0.948231
4924.58008 0.948382
4925.12012 0.948534
4925.66016 0.948683
4926.20020 0.948833
4926.74023 0.948983
4927.27979 0.949134
4927.81982 0.949284
4928.35986 0.949435
4928.89990 0.949588
4929.43994 0.949739
4929.97998 0.949889
4930.52002 0.950035
4931.06006 0.950181
4931.60986 0.950328
4932.14014 0.950475
4932.68018 0.950621
4933.22998 0.950769
4933.77002 0.950916
4934.31006 0.951063
4934.85010 0.95121
4935.39014 0.951356
4935.93018 0.951503
4936.47021 0.95165
4937.00977 0.951796
4937.54980 0.951942
4938.08984 0.952088
4938.62988 0.952234
4939.18018 0.952381
4939.70996 0.952525
4940.25977 0.952814
4940.79980 0.953263
4941.33984 0.953712
4941.87988 0.95416
4942.43018 0.954609
4942.97021 0.955058
4943.50977 0.955506
4944.04980 0.95595
4944.58984 0.956399
4945.12988 0.956848
4945.68018 0.957296
4946.22021 0.95774
4946.75977 0.95819
4947.29980 0.95864
4947.85010 0.95909
4948.37988 0.959536
4948.93018 0.959988
4949.47021 0.960436
4950.00977 0.960881
4950.56006 0.961148
4951.10010 0.961416
4951.64014 0.961681
4952.18018 0.96195
4952.72998 0.962218
4953.27002 0.962486
4953.81006 0.962754
4954.35010 0.963022
4954.89990 0.963289
4955.43994 0.963557
4955.97998 0.963826
4956.52002 0.964092
4957.06982 0.964361
4957.60986 0.964629
4958.14990 0.964897
4958.70020 0.965166
4959.24023 0.965435
4959.79004 0.965704
4960.33008 0.965905
4960.87012 0.966068
4961.41992 0.96623
4961.95996 0.966393
4962.50977 0.966557
4963.04980 0.96672
4963.58984 0.966882
4964.14014 0.967044
4964.68018 0.967207
4965.22998 0.96737
4965.77002 0.967531
4966.31006 0.967693
4966.85986 0.967857
4967.39990 0.968019
4967.95020 0.96818
4968.49023 0.968342
4969.02979 0.968505
4969.58008 0.968669
4970.12012 0.968829
4970.66992 0.968979
4971.22021 0.96913
4971.75977 0.969282
4972.29980 0.969431
4972.85010 0.969581
4973.39014 0.969733
4973.93994 0.969885
4974.47998 0.970035
4975.02979 0.970185
4975.56982 0.970337
4976.12012 0.970488
4976.66016 0.970637
4977.20996 0.970787
4977.75000 0.970939
4978.29980 0.971091
4978.85010 0.971244
4979.39014 0.971394
4979.93994 0.971543
4980.47998 0.971744
4981.02979 0.971955
4981.58008 0.972168
4982.12012 0.97238
4982.66992 0.972591
4983.20996 0.972801
4983.75977 0.973011
4984.31006 0.973223
4984.85010 0.973436
4985.39990 0.973647
4985.93994 0.973857
4986.49023 0.974069
4987.04004 0.97428
4987.58008 0.97449
4988.12988 0.9747
4988.66992 0.974911
4989.22021 0.975123
4989.77002 0.975334
4990.31982 0.975621
4990.87012 0.97596
4991.41016 0.9763
4991.95996 0.97664
4992.50977 0.976978
4993.04980 0.977318
4993.60010 0.977658
4994.14990 0.977998
4994.68994 0.978335
4995.24023 0.978675
4995.79004 0.979015
4996.33984 0.979357
4996.87988 0.979695
4997.43018 0.980037
4997.97998 0.980378
4998.52979 0.980718
4999.08008 0.981059
4999.62012 0.981401
5000.16992 0.981538
5000.72021 0.981234
5001.27002 0.980927
5001.81006 0.980619
5002.35986 0.980312
5002.91016 0.980006
5003.45996 0.979698
5004.00977 0.979389
5004.56006 0.979081
5005.10986 0.978772
5005.64990 0.978466
5006.20020 0.978157
5006.75000 0.977848
5007.29980 0.977539
5007.85010 0.977229
5008.39990 0.976918
5008.93994 0.97661
5009.49023 0.976299
5010.04004 0.976022
5010.58984 0.97614
5011.14014 0.976259
5011.68994 0.976379
5012.24023 0.976498
5012.79004 0.976616
5013.33984 0.976734
5013.89014 0.976853
5014.43994 0.976972
5014.99023 0.977091
5015.54004 0.977209
5016.08984 0.977326
5016.64014 0.977444
5017.18018 0.977561
5017.72998 0.97768
5018.27979 0.977799
5018.83984 0.977917
5019.39014 0.978036
5019.93994 0.978155
5020.49023 0.978008
5021.02979 0.977829
5021.58984 0.977648
5022.14014 0.977467
5022.68994 0.977287
5023.22998 0.977108
5023.79004 0.976927
5024.33984 0.976746
5024.89014 0.976564
5025.43994 0.976384
5025.99023 0.976202
5026.54004 0.976021
5027.08984 0.975839
5027.64014 0.975657
5028.20020 0.975473
5028.75000 0.975291
5029.29980 0.97511
5029.85010 0.974928
5030.39990 0.974833
5030.95020 0.974771
5031.50000 0.97471
5032.06006 0.974649
5032.60986 0.974587
5033.16016 0.974525
5033.70996 0.974464
5034.25977 0.974403
5034.81006 0.974341
5035.35986 0.974279
5035.91016 0.974218
5036.47021 0.974156
5037.02002 0.974095
5037.56982 0.974032
5038.12012 0.97397
5038.66992 0.973907
5039.22998 0.973844
5039.77979 0.973781
5040.33008 0.973426
5040.89014 0.972872
5041.43994 0.972326
5041.99023 0.971774
5042.54004 0.971221
5043.10010 0.970668
5043.64990 0.97012
5044.20020 0.969566
5044.75000 0.969013
5045.31006 0.968459
5045.85010 0.96791
5046.41016 0.967356
5046.95996 0.966801
5047.52002 0.966244
5048.06982 0.965688
5048.62012 0.965132
5049.18018 0.964575
5049.72998 0.964024
5050.27979 0.963937
5050.83984 0.9643
5051.39014 0.964661
5051.95020 0.965022
5052.50000 0.965385
5053.04980 0.965747
5053.60986 0.966109
5054.16016 0.966471
5054.70996 0.966831
5055.27002 0.967195
5055.81982 0.967557
5056.37988 0.967921
5056.93018 0.968283
5057.47998 0.968644
5058.04004 0.969006
5058.58984 0.969369
5059.14990 0.969732
5059.70020 0.970095
5060.25977 0.970258
5060.81006 0.970187
5061.37012 0.970117
5061.91992 0.970047
5062.47998 0.969977
5063.02979 0.969907
5063.58984 0.969836
5064.14014 0.969765
5064.68994 0.969693
5065.25000 0.969622
5065.81006 0.969551
5066.35986 0.96948
5066.91016 0.969409
5067.47021 0.969337
5068.02002 0.969265
5068.58008 0.969192
5069.14014 0.969119
5069.68994 0.969048
5070.25000 0.96926
5070.79980 0.969821
5071.35986 0.970387
5071.91992 0.970952
5072.47021 0.971514
5073.02002 0.972077
5073.58008 0.972643
5074.14014 0.973208
5074.68994 0.973772
5075.25000 0.974337
5075.81006 0.9749
5076.35986 0.975465
5076.91992 0.976033
5077.47021 0.976597
5078.02979 0.977168
5078.58984 0.977729
5079.14014 0.978296
5079.70020 0.978865
5080.25977 0.979103
5080.81982 0.97896
5081.37988 0.978817
5081.93018 0.978674
5082.49023 0.978531
5083.04004 0.978389
5083.60010 0.978244
5084.16016 0.978099
5084.70996 0.977955
5085.27002 0.977811
5085.83008 0.977667
5086.39014 0.977522
5086.93994 0.977379
5087.50000 0.977235
5088.06006 0.977089
5088.62012 0.976944
5089.18018 0.976798
5089.72998 0.976653
5090.29004 0.976701
5090.85010 0.976927
5091.39990 0.977155
5091.95996 0.977383
5092.52002 0.97761
5093.08008 0.977835
5093.64014 0.978061
5094.18994 0.978289
5094.75977 0.978518
5095.31006 0.978745
5095.87012 0.978969
5096.43018 0.979196
5096.99023 0.979424
5097.54004 0.979651
5098.10010 0.979879
5098.66992 0.980108
5099.22021 0.980333
5099.77979 0.98056
5100.33984 0.980908
5100.89990 0.981334
5101.45996 0.981759
5102.02002 0.982183
5102.58008 0.982609
5103.14014 0.983035
5103.70020 0.98346
5104.25977 0.983886
5104.81006 0.984308
5105.37988 0.984736
5105.93018 0.985162
5106.49023 0.985588
5107.04980 0.986011
5107.60986 0.98644
5108.16992 0.986866
5108.72998 0.987292
5109.29004 0.98772
5109.85010 0.988146
5110.41016 0.988479
5110.97998 0.988778
5111.54004 0.989079
5112.08984 0.989376
5112.64990 0.989674
5113.20996 0.989974
5113.77002 0.990272
5114.33008 0.990572
5114.89014 0.990871
5115.45020 0.991169
5116.00977 0.991465
5116.56982 0.991766
5117.12988 0.992067
5117.70020 0.992366
5118.25977 0.992664
5118.81982 0.992965
5119.37988 0.993264
5119.93994 0.993563
5120.50000 0.99358
5121.06006 0.993564
5121.62012 0.993548
5122.18994 0.993533
5122.75000 0.993518
5123.31006 0.993502
5123.87012 0.993484
5124.43018 0.993468
5124.99023 0.993452
5125.56006 0.993435
5126.10986 0.993418
5126.68018 0.993403
5127.24023 0.993386
5127.79980 0.993369
5128.35986 0.993351
5128.91992 0.993334
5129.49023 0.993317
5130.04980 0.993335
5130.60986 0.993714
5131.18018 0.994096
5131.74023 0.994476
5132.29980 0.994856
5132.85986 0.995236
5133.43018 0.995618
5133.99023 0.995999
5134.54980 0.99638
5135.10986 0.996757
5135.68018 0.997139
5136.24023 0.997521
5136.79980 0.997903
5137.35986 0.99828
5137.93018 0.998662
5138.49023 0.999044
5139.04980 0.999426
5139.60986 0.999806
5140.18018 1.0
5140.74023 0.999789
5141.31006 0.999579
5141.87012 0.999366
5142.43994 0.999154
5143.00000 0.998942
5143.56006 0.998728
5144.12012 0.998515
5144.68994 0.998302
5145.25000 0.998089
5145.81006 0.997876
5146.37988 0.997662
5146.93994 0.997448
5147.50000 0.997235
5148.06982 0.997021
5148.64014 0.996808
5149.20020 0.996592
5149.75977 0.996378
5150.33008 0.996344
5150.89014 0.996441
5151.45996 0.996539
5152.02002 0.996638
5152.58984 0.996736
5153.14990 0.996835
5153.72021 0.996933
5154.27979 0.997029
5154.85010 0.997124
5155.41016 0.997223
5155.97998 0.997321
5156.54004 0.997419
5157.10986 0.997517
5157.66992 0.997613
5158.22998 0.997709
5158.79980 0.997806
5159.37012 0.997905
5159.93018 0.998003
5160.50000 0.997879
5161.06006 0.997724
5161.62988 0.99757
5162.18994 0.997416
5162.75977 0.99726
5163.33008 0.997104
5163.89990 0.996949
5164.45996 0.996795
5165.02002 0.996639
5165.58984 0.996484
5166.16016 0.996328
5166.72021 0.996172
5167.29004 0.996016
5167.85010 0.995859
5168.41992 0.995704
5168.99023 0.995549
5169.56006 0.99539
5170.12012 0.995195
5170.68994 0.994862
5171.25000 0.994527
5171.81982 0.994193
5172.39014 0.993857
5172.95020 0.993522
5173.52002 0.993186
5174.08984 0.99285
5174.66016 0.992515
5175.22021 0.992179
5175.79004 0.991843
5176.35986 0.991505
5176.91992 0.991169
5177.49023 0.990831
5178.06006 0.990495
5178.62988 0.990157
5179.18994 0.98982
5179.75977 0.989481
5180.33008 0.989104
5180.89990 0.988698
5181.45996 0.988296
5182.02979 0.98789
5182.60010 0.987481
5183.16992 0.987078
5183.74023 0.986673
5184.31006 0.986266
5184.87988 0.985858
5185.43994 0.985453
5186.00977 0.985044
5186.58008 0.984637
5187.14990 0.984228
5187.70996 0.983824
5188.27979 0.983415
5188.85010 0.983005
5189.41992 0.982595
5189.99023 0.982185
5190.56006 0.982013
5191.12988 0.981842
5191.68994 0.981671
5192.27002 0.981501
5192.83984 0.98133
5193.39990 0.98116
5193.97021 0.98099
5194.54004 0.980818
5195.10986 0.980647
5195.68018 0.980477
5196.25000 0.980304
5196.81982 0.980133
5197.39014 0.97996
5197.95020 0.979788
5198.52002 0.979616
5199.10010 0.979445
5199.66992 0.979272
5200.22998 0.979097
5200.81006 0.978917
5201.37988 0.978739
5201.95020 0.97856
5202.52002 0.978382
5203.08984 0.978201
5203.66016 0.97802
5204.22998 0.97784
5204.79980 0.97766
5205.37012 0.97748
5205.93994 0.977301
5206.50977 0.977121
5207.08008 0.97694
5207.64990 0.976758
5208.22021 0.976579
5208.79004 0.976399
5209.35986 0.976218
5209.93018 0.976035
5210.50977 0.976025
5211.06982 0.976039
5211.64990 0.976053
5212.22021 0.976067
5212.79004 0.97608
5213.35986 0.976093
5213.93018 0.976106
5214.50977 0.97612
5215.08008 0.976134
5215.64990 0.976146
5216.22021 0.976158
5216.79004 0.97617
5217.35986 0.976183
5217.93018 0.976196
5218.50000 0.976207
5219.08008 0.97622
5219.64990 0.976232
5220.22021 0.976115
5220.79004 0.975792
5221.35986 0.97547
5221.93994 0.975146
5222.50977 0.974822
5223.08008 0.974497
5223.64990 0.974173
5224.22998 0.973849
5224.79980 0.973525
5225.37012 0.973202
5225.95020 0.972876
5226.52002 0.972551
5227.08984 0.972225
5227.66016 0.9719
5228.24023 0.971574
5228.81006 0.971251
5229.37988 0.970925
5229.95020 0.9706
5230.52979 0.97095
5231.10010 0.97136
5231.68018 0.971771
5232.25000 0.972179
5232.81982 0.972591
5233.39990 0.973002
5233.97021 0.973412
5234.54004 0.973822
5235.12012 0.974234
5235.68994 0.974646
5236.25977 0.975056
5236.83984 0.975467
5237.41016 0.975878
5237.99023 0.97629
5238.56006 0.976699
5239.12988 0.977109
5239.70996 0.977522
5240.27979 0.977608
5240.85010 0.977353
5241.43018 0.977098
5242.00977 0.976844
5242.58008 0.976588
5243.14990 0.976331
5243.72998 0.976074
5244.31006 0.975818
5244.87988 0.975563
5245.45020 0.975307
5246.02979 0.97505
5246.60010 0.974794
5247.18018 0.974538
5247.75000 0.974278
5248.33008 0.97402
5248.89990 0.973764
5249.47998 0.973508
5250.04980 0.973321
5250.62988 0.973861
5251.20020 0.974398
5251.77979 0.974939
5252.35010 0.97548
5252.93018 0.976021
5253.50977 0.976559
5254.08008 0.977099
5254.66016 0.977641
5255.22998 0.97818
5255.81006 0.978721
5256.39014 0.979263
5256.97021 0.979805
5257.54004 0.980341
5258.10986 0.980883
5258.68994 0.981425
5259.27002 0.981967
5259.83984 0.982503
5260.41992 0.982212
5260.99023 0.981601
5261.56982 0.980991
5262.14990 0.980386
5262.72998 0.979772
5263.29980 0.979161
5263.87988 0.978549
5264.45996 0.977939
5265.02979 0.977326
5265.60986 0.976712
5266.18994 0.976102
5266.77002 0.975488
5267.33984 0.974878
5267.91992 0.974264
5268.49023 0.973652
5269.06982 0.973037
5269.64990 0.972422
5270.22998 0.972004
5270.79980 0.971881
5271.37988 0.971758
5271.95996 0.971633
5272.54004 0.97151
5273.12012 0.971386
5273.68994 0.971262
5274.27002 0.971139
5274.85010 0.971016
5275.43018 0.970892
5276.00977 0.970767
5276.58984 0.970642
5277.16016 0.970517
5277.74023 0.970393
5278.31982 0.970268
5278.89990 0.970142
5279.47998 0.970018
5280.06006 0.969879
5280.64014 0.969616
5281.20996 0.969355
5281.79004 0.969091
5282.37012 0.968825
5282.95020 0.968559
5283.52979 0.968297
5284.10986 0.968033
5284.68994 0.96777
5285.27002 0.967505
5285.85010 0.967238
5286.43018 0.966973
5287.00977 0.966708
5287.58008 0.966443
5288.16016 0.966179
5288.74023 0.965912
5289.31982 0.965646
5289.89990 0.96538
5290.47998 0.964991
5291.06006 0.96458
5291.64014 0.964164
5292.22021 0.96375
5292.79980 0.963333
5293.37988 0.962919
5293.95996 0.9625
5294.54004 0.962085
5295.12012 0.961667
5295.70020 0.96125
5296.27979 0.960836
5296.85986 0.960416
5297.43994 0.959999
5298.02979 0.959583
5298.60986 0.959165
5299.18994 0.958748
5299.77002 0.958328
5300.35010 0.957752
5300.93018 0.957073
5301.50977 0.956389
5302.08984 0.955707
5302.66992 0.955021
5303.25000 0.95434
5303.83008 0.953654
5304.41016 0.952969
5304.99023 0.952287
5305.58008 0.9516
5306.16016 0.950916
5306.74023 0.950229
5307.31982 0.949541
5307.89990 0.948854
5308.49023 0.948165
5309.06006 0.947482
5309.64990 0.946793
5310.22998 0.946022
5310.81006 0.945127
5311.39014 0.944238
5311.97021 0.94334
5312.56006 0.942443
5313.14014 0.941545
5313.72021 0.940651
5314.29980 0.939757
5314.89014 0.938855
5315.47021 0.937954
5316.04980 0.937058
5316.64014 0.936158
5317.22021 0.935257
5317.79980 0.934361
5318.39014 0.933458
5318.97021 0.932555
5319.54980 0.931656
5320.12988 0.93071
5320.72021 0.929593
5321.29980 0.928474
5321.87988 0.92736
5322.47021 0.926241
5323.04980 0.925128
5323.62988 0.924007
5324.22021 0.922887
5324.79980 0.921771
5325.37988 0.920648
5325.97021 0.919526
5326.54980 0.918408
5327.12988 0.91729
5327.72021 0.916167
5328.29980 0.915037
5328.89014 0.913918
5329.47021 0.912793
5330.06006 0.91172
5330.64014 0.911155
5331.22021 0.91059
5331.81006 0.910021
5332.39014 0.909453
5332.97998 0.908884
5333.56006 0.908321
5334.14014 0.907752
5334.72998 0.907182
5335.31006 0.906611
5335.89990 0.906044
5336.47998 0.905474
5337.06982 0.904903
5337.64990 0.904335
5338.24023 0.903764
5338.81982 0.903192
5339.41016 0.902622
5339.99023 0.902049
5340.58008 0.9014
5341.16016 0.900745
5341.75000 0.900092
5342.33008 0.899435
5342.91992 0.898781
5343.50000 0.898124
5344.08984 0.897472
5344.66992 0.896815
5345.25977 0.896158
5345.85010 0.895504
5346.43018 0.894846
5347.02002 0.894186
5347.60986 0.893527
5348.18994 0.892869
5348.77002 0.892217
5349.35986 0.891553
5349.95020 0.890893
5350.54004 0.890897
5351.12012 0.89096
5351.70996 0.891022
5352.29980 0.891082
5352.87988 0.891142
5353.47021 0.891204
5354.06006 0.891266
5354.64014 0.891328
5355.22998 0.89139
5355.81006 0.891451
5356.39990 0.891513
5356.99023 0.891575
5357.58008 0.891634
5358.16016 0.891694
5358.75000 0.891757
5359.33984 0.891819
5359.93018 0.891881
5360.52002 0.891624
5361.10010 0.891322
5361.68994 0.891023
5362.27979 0.890721
5362.85986 0.890419
5363.45020 0.890117
5364.04004 0.889817
5364.62012 0.889513
5365.20996 0.889209
5365.79980 0.888909
5366.39014 0.888606
5366.97998 0.888302
5367.56006 0.887997
5368.14990 0.887693
5368.74023 0.887391
5369.33008 0.887087
5369.91992 0.886782
5370.50977 0.887571
5371.10010 0.88853
5371.68994 0.889486
5372.27979 0.890445
5372.87012 0.891403
5373.45020 0.892357
5374.04004 0.893317
5374.62988 0.894272
5375.22021 0.895232
5375.81006 0.896188
5376.39990 0.897149
5376.97998 0.898106
5377.58008 0.899069
5378.16992 0.900031
5378.75977 0.900993
5379.33984 0.901951
5379.93018 0.90291
5380.52002 0.903885
5381.10986 0.904861
5381.70020 0.905841
5382.29980 0.906819
5382.89014 0.907799
5383.47021 0.908769
5384.06006 0.909749
5384.64990 0.910728
5385.24023 0.911709
5385.83008 0.912681
5386.41992 0.913662
5387.00977 0.914643
5387.60010 0.915623
5388.18994 0.916595
5388.77979 0.917579
5389.37988 0.918566
5389.97021 0.919542
5390.56006 0.921332
5391.14990 0.923173
5391.74023 0.925016
5392.33008 0.926848
5392.91992 0.928681
5393.50977 0.930522
5394.10010 0.932365
5394.68994 0.934203
5395.27979 0.936048
5395.87988 0.937885
5396.47021 0.93973
5397.06006 0.941568
5397.64990 0.943418
5398.24023 0.945258
5398.83008 0.947107
5399.43018 0.948956
5400.02002 0.950774
5400.60986 0.951541
5401.20020 0.952302
5401.79004 0.95307
5402.39014 0.953843
5402.97998 0.954609
5403.56982 0.955377
5404.16016 0.956145
5404.75977 0.956915
5405.33984 0.957677
5405.93994 0.958447
5406.52979 0.959218
5407.12012 0.959988
5407.70996 0.960752
5408.31006 0.961524
5408.89990 0.962296
5409.49023 0.963068
5410.08008 0.963819
5410.68018 0.964512
5411.27002 0.965197
5411.85986 0.965884
5412.45996 0.966573
5413.04980 0.967263
5413.64990 0.967951
5414.24023 0.968634
5414.83008 0.969324
5415.43018 0.970015
5416.02002 0.970706
5416.60986 0.971389
5417.20020 0.972079
5417.79980 0.97277
5418.39014 0.973461
5418.97998 0.974148
5419.58008 0.974838
5420.16992 0.975095
5420.77002 0.974283
5421.35986 0.973469
5421.95996 0.972655
5422.54980 0.971841
5423.14014 0.971035
5423.74023 0.97022
5424.33984 0.969402
5424.93018 0.96859
5425.52002 0.967776
5426.12012 0.966961
5426.70996 0.966147
5427.31006 0.965335
5427.89990 0.964519
5428.50000 0.963702
5429.08984 0.962884
5429.68994 0.962075
5430.27979 0.961157
5430.87988 0.960127
5431.47021 0.959097
5432.06982 0.958071
5432.66016 0.957043
5433.25977 0.956012
5433.85010 0.95498
5434.45020 0.953948
5435.04980 0.952915
5435.64014 0.951883
5436.22998 0.950859
5436.83008 0.949825
5437.43018 0.948789
5438.02002 0.947755
5438.62012 0.94673
5439.20996 0.945695
5439.81006 0.944658
5440.41016 0.94209
5441.00000 0.93884
5441.60010 0.935559
5442.18994 0.932274
5442.79004 0.928988
5443.39014 0.925701
5443.99023 0.922413
5444.58984 0.919125
5445.18018 0.915868
5445.77979 0.912558
5446.37012 0.909283
5446.97021 0.905987
5447.56982 0.902691
5448.16016 0.899411
5448.75977 0.89613
5449.35986 0.89283
5449.95996 0.88953
5450.54980 0.884928
5451.14990 0.880249
5451.74023 0.875562
5452.33984 0.870851
5452.93994 0.86614
5453.54004 0.861427
5454.12988 0.856755
5454.72998 0.85204
5455.33008 0.84732
5455.93018 0.842604
5456.52979 0.837881
5457.12988 0.833156
5457.72998 0.828428
5458.31982 0.823748
5458.91992 0.819022
5459.52002 0.81429
5460.12012 0.808946
5460.70996 0.801206
5461.31006 0.793387
5461.91016 0.785566
5462.50977 0.777745
5463.10986 0.769998
5463.70996 0.762166
5464.31006 0.754293
5464.91016 0.746502
5465.50977 0.738664
5466.10986 0.730824
5466.70996 0.722982
5467.29980 0.715215
5467.89990 0.707362
5468.50000 0.699515
5469.10010 0.691658
5469.70020 0.683839
5470.29980 0.675365
5470.89990 0.666183
5471.50000 0.656998
5472.10010 0.647811
5472.68994 0.638703
5473.29004 0.629512
5473.89990 0.62031
5474.50000 0.611106
5475.10010 0.601899
5475.70020 0.59269
5476.29004 0.583568
5476.89990 0.574347
5477.50000 0.565131
5478.10010 0.555905
5478.70020 0.546675
5479.29980 0.537444
5479.89990 0.52821
5480.50977 0.518345
5481.10010 0.508462
5481.70020 0.49848
5482.29980 0.488487
5482.89990 0.478597
5483.50000 0.468599
5484.10010 0.458598
5484.70996 0.448587
5485.29980 0.438678
5485.89990 0.428669
5486.50977 0.41865
5487.10986 0.408629
5487.70996 0.398604
5488.31006 0.388577
5488.91992 0.378547
5489.50977 0.368612
5490.12012 0.358952
5490.72021 0.35084
5491.31982 0.342726
5491.91992 0.334696
5492.52002 0.326578
5493.12012 0.318457
5493.72998 0.310334
5494.33008 0.302287
5494.93018 0.294152
5495.52979 0.286016
5496.14014 0.277884
5496.74023 0.269742
5497.33984 0.261598
5497.95020 0.253445
5498.54004 0.245376
5499.14990 0.237225
5499.75000 0.229065
5500.35986 0.222395
5500.95996 0.216768
5501.56006 0.211135
5502.16992 0.205495
5502.77002 0.199913
5503.37012 0.194275
5503.97998 0.188631
5504.58008 0.18299
5505.18018 0.177397
5505.77979 0.171748
5506.39014 0.166097
5506.99023 0.160445
5507.60010 0.154791
5508.18994 0.149186
5508.79980 0.143529
5509.39990 0.137866
5510.00977 0.132234
5510.60986 0.128818
5511.22021 0.125401
5511.81982 0.121983
5512.41992 0.118595
5513.02979 0.115175
5513.62988 0.111752
5514.22998 0.108364
5514.83984 0.104939
5515.43994 0.101513
5516.04980 0.0980831
5516.64990 0.0946884
5517.25977 0.0912597
5517.85986 0.0878274
5518.47021 0.0843941
5519.06982 0.08096
5519.68018 0.0775249
5520.27979 0.0748051
5520.89014 0.0728916
5521.49023 0.0709976
5522.10010 0.0690846
5522.70020 0.0671694
5523.31006 0.0652537
5523.91016 0.063347
5524.52002 0.0614395
5525.12012 0.0595222
5525.72998 0.0576029
5526.33984 0.0556846
5526.93994 0.0537844
5527.54004 0.0518634
5528.14990 0.049942
5528.75977 0.0480199
5529.35986 0.0461067
5529.97021 0.0441914
5530.56982 0.0430723
5531.18018 0.0419987
5531.79004 0.0409249
5532.39990 0.0398507
5533.00000 0.0387762
5533.60986 0.0377015
5534.22021 0.0366266
5534.81982 0.0355618
5535.43018 0.0344854
5536.04004 0.0334088
5536.64014 0.032332
5537.24023 0.0312661
5537.85010 0.0301878
5538.45996 0.0291101
5539.06982 0.0280322
5539.66992 0.0269643
5540.27979 0.0260977
5540.89014 0.0254806
5541.50000 0.0248634
5542.10010 0.0242459
5542.70996 0.0236283
5543.31982 0.023013
5543.93018 0.022398
5544.52979 0.0217793
5545.14014 0.021161
5545.75000 0.0205449
5546.35010 0.0199287
5546.95996 0.0193092
5547.56982 0.0186892
5548.18018 0.0180694
5548.79004 0.0174519
5549.39014 0.0168348
5550.00000 0.0162153
5550.60986 0.0158762
5551.22021 0.0155387
5551.83008 0.0151975
5552.43994 0.0148581
5553.04004 0.0145219
5553.64990 0.0141821
5554.25977 0.0138422
5554.87012 0.0135021
5555.47998 0.013162
5556.08984 0.0128218
5556.70020 0.0124831
5557.31006 0.012144
5557.91992 0.0118035
5558.52979 0.0114627
5559.14014 0.0111217
5559.74023 0.0107839
5560.35010 0.0105192
5560.95996 0.0103099
5561.56982 0.0101004
5562.18018 0.00989307
5562.79004 0.00968345
5563.39990 0.00947378
5564.00977 0.00926406
5564.62012 0.00905428
5565.22998 0.00884545
5565.85010 0.00863439
5566.45020 0.00842647
5567.06006 0.0082163
5567.66992 0.00800607
5568.27979 0.0077958
5568.89014 0.00758766
5569.50000 0.00737711
5570.10986 0.0071973
5570.72021 0.00715453
5571.33008 0.0071117
5571.93994 0.00706865
5572.54980 0.0070256
5573.16016 0.00698278
5573.77979 0.00693946
5574.39014 0.00689637
5575.00000 0.00685323
5575.60986 0.00681053
5576.22021 0.00676737
5576.83008 0.0067242
5577.43994 0.00668101
5578.06006 0.00663781
5578.66016 0.00659479
5579.27002 0.00655177
5579.89014 0.00650851
5580.50000 0.00646506
5581.10986 0.0064218
5581.72021 0.00637829
5582.33008 0.00633503
5582.93994 0.00629147
5583.56006 0.00624794
5584.16992 0.00620457
5584.77979 0.00616122
5585.39014 0.00611763
5586.00977 0.00607403
5586.60986 0.00603063
5587.22998 0.00598701
5587.85010 0.00594312
5588.45996 0.00589947
5589.06982 0.00585622
5589.68018 0.00581253
5590.29004 0.00576134
5590.91016 0.005702
5591.52002 0.0056432
5592.12988 0.00558382
5592.74023 0.00552437
5593.35986 0.0054649
5593.97021 0.00540603
5594.58008 0.00534653
5595.18994 0.005287
5595.81006 0.00522746
5596.41992 0.00516789
5597.04004 0.00510826
5597.64990 0.00504894
5598.25977 0.00498956
5598.87988 0.00492988
5599.49023 0.00487017
5600.10010 0.00481041
5600.72021 0.00475077
5601.33008 0.00469112
5601.93994 0.00463111
5602.56006 0.00457113
5603.16992 0.00451138
5603.79004 0.00445133
5604.39990 0.00439156
6164.83984 0.0
