# %ECSV 0.9
# ---
# datatype:
# - {name: wavelength, unit: Angstrom, datatype: float32}
# - {name: response, datatype: float32}
# meta: !!omap
# - {band_name: F550M}
# - {group_name: ACS_HRC}
wavelength response
4703.70605 0.0
5226.33984 0.00362317
5227.08984 0.00376203
5227.83984 0.00390104
5228.58984 0.00403956
5229.33984 0.00417823
5230.08984 0.00431685
5230.83984 0.00445565
5231.58984 0.00459504
5232.33984 0.00473449
5233.10010 0.00487409
5233.83984 0.00501311
5234.58984 0.00515226
5235.35010 0.00529201
5236.10010 0.00543191
5236.85010 0.0055707
5237.60010 0.0057107
5238.35010 0.00585021
5239.10010 0.00598978
5239.85986 0.00613004
5240.60986 0.00645542
5241.35986 0.00682351
5242.10986 0.00719319
5242.87012 0.00756179
5243.62012 0.00793029
5244.37012 0.00829919
5245.12012 0.00866967
5245.87988 0.0090403
5246.62988 0.00940986
5247.37988 0.00977955
5248.14014 0.0101506
5248.89014 0.010522
5249.64990 0.0108938
5250.39990 0.0114522
5251.14990 0.0121872
5251.89990 0.0129197
5252.64990 0.0136524
5253.41016 0.0143887
5254.16992 0.0151248
5254.91992 0.0158588
5255.66992 0.0165931
5256.43018 0.017331
5257.18018 0.0180658
5257.93994 0.0188014
5258.68994 0.01954
5259.45020 0.020279
5260.20020 0.021213
5260.95020 0.0226884
5261.70996 0.0241709
5262.47021 0.025654
5263.22021 0.0271328
5263.97998 0.0286112
5264.72998 0.0300967
5265.49023 0.031577
5266.24023 0.0330579
5267.00000 0.0345459
5267.75977 0.0360336
5268.50977 0.0375169
5269.27002 0.0390008
5270.02002 0.0405482
5270.77979 0.0437286
5271.54004 0.0469349
5272.29004 0.0501426
5273.04980 0.0533514
5273.81006 0.0565492
5274.56006 0.0597504
5275.31982 0.0629651
5276.08008 0.0661812
5276.83984 0.0693859
5277.58984 0.0725941
5278.35010 0.0758036
5279.10986 0.0790142
5279.87012 0.0822386
5280.62012 0.0877268
5281.39014 0.0937071
5282.14014 0.0996666
5282.89990 0.105628
5283.66016 0.111616
5284.41016 0.117563
5285.16992 0.123559
5285.93018 0.129556
5286.68994 0.135534
5287.45020 0.141513
5288.20996 0.147522
5288.97021 0.153533
5289.72998 0.159546
5290.49023 0.168504
5291.25000 0.179113
5292.00000 0.189726
5292.75977 0.200342
5293.52002 0.211003
5294.27979 0.221667
5295.04004 0.232302
5295.81006 0.242981
5296.56006 0.253623
5297.33008 0.264309
5298.08008 0.274925
5298.85010 0.285626
5299.60986 0.29633
5300.37012 0.309023
5301.12012 0.323896
5301.89014 0.338841
5302.64990 0.353791
5303.41016 0.36869
5304.16992 0.383595
5304.93018 0.398572
5305.68994 0.413497
5306.45020 0.428428
5307.22021 0.443422
5307.97998 0.458422
5308.74023 0.473379
5309.50000 0.488342
5310.27002 0.502924
5311.02979 0.516686
5311.79004 0.530338
5312.54980 0.544111
5313.31982 0.557889
5314.08008 0.571618
5314.83984 0.585363
5315.60010 0.599156
5316.37012 0.612963
5317.12988 0.626732
5317.89014 0.640496
5318.64990 0.654273
5319.41992 0.668048
5320.18018 0.680684
5320.95020 0.689431
5321.70996 0.698173
5322.47021 0.706891
5323.24023 0.715614
5324.00000 0.724372
5324.77002 0.733139
5325.52979 0.741835
5326.29004 0.750607
5327.06006 0.75935
5327.81982 0.768095
5328.58984 0.776883
5329.35010 0.785673
5330.12012 0.79358
5330.87988 0.796727
5331.64990 0.799875
5332.41016 0.803026
5333.18018 0.806178
5333.93994 0.809344
5334.70996 0.81251
5335.47998 0.815667
5336.24023 0.818838
5337.00977 0.821997
5337.77002 0.82517
5338.54004 0.828319
5339.31006 0.831496
5340.06982 0.834447
5340.83984 0.835241
5341.60010 0.836033
5342.37012 0.836829
5343.14014 0.837624
5343.91016 0.838421
5344.66992 0.839212
5345.43994 0.84001
5346.20996 0.840804
5346.97021 0.841598
5347.74023 0.842396
5348.50977 0.843194
5349.27979 0.84399
5350.04004 0.844779
5350.81006 0.84547
5351.58008 0.846162
5352.35010 0.846847
5353.12012 0.847537
5353.89014 0.848229
5354.64990 0.848919
5355.41992 0.849609
5356.18994 0.850301
5356.95996 0.850995
5357.72998 0.851682
5358.50000 0.852373
5359.27002 0.853066
5360.02979 0.8538
5360.79980 0.855475
5361.56982 0.85715
5362.35010 0.858827
5363.10986 0.860499
5363.87988 0.862171
5364.64990 0.863849
5365.43018 0.865528
5366.18994 0.867197
5366.95996 0.868878
5367.72998 0.870553
5368.50000 0.87223
5369.27002 0.873914
5370.04980 0.875583
5370.81982 0.877021
5371.58984 0.878455
5372.35986 0.879889
5373.12988 0.881321
5373.89990 0.882757
5374.66992 0.884196
5375.43994 0.885638
5376.22021 0.887074
5376.99023 0.888517
5377.75977 0.889956
5378.52979 0.8914
5379.31006 0.892843
5380.06982 0.894324
5380.85010 0.896247
5381.62012 0.898164
5382.39014 0.900083
5383.16016 0.902011
5383.93994 0.903939
5384.70996 0.905866
5385.47998 0.907789
5386.25977 0.909713
5387.02979 0.911636
5387.79980 0.913559
5388.56982 0.915494
5389.35010 0.917429
5390.12012 0.919252
5390.89990 0.920542
5391.66992 0.921837
5392.45020 0.923133
5393.22021 0.924422
5393.99023 0.925712
5394.77002 0.927012
5395.54004 0.928303
5396.31006 0.929595
5397.08984 0.930895
5397.87012 0.932196
5398.64014 0.933491
5399.41016 0.934785
5400.18994 0.93602
5400.95996 0.937043
5401.74023 0.938076
5402.50977 0.939108
5403.29004 0.940141
5404.06006 0.941168
5404.83984 0.942199
5405.62012 0.943232
5406.39990 0.944267
5407.16992 0.945299
5407.93994 0.94633
5408.72021 0.947364
5409.49023 0.948397
5410.27002 0.949196
5411.04980 0.94956
5411.83008 0.949921
5412.60010 0.950284
5413.37988 0.950645
5414.16016 0.951008
5414.93018 0.95137
5415.70996 0.951734
5416.49023 0.952098
5417.27002 0.952459
5418.04980 0.952823
5418.81982 0.953186
5419.60010 0.953552
5420.37988 0.953682
5421.16016 0.953567
5421.93018 0.953451
5422.70996 0.953335
5423.49023 0.953219
5424.27002 0.953103
5425.04980 0.952986
5425.83008 0.952872
5426.60986 0.952754
5427.37988 0.952638
5428.16016 0.952523
5428.93994 0.952405
5429.72021 0.952289
5430.50000 0.952143
5431.27979 0.95198
5432.06006 0.951818
5432.83984 0.951653
5433.62012 0.951491
5434.39990 0.951328
5435.18018 0.951166
5435.95996 0.951004
5436.74023 0.95084
5437.52002 0.950676
5438.29980 0.950513
5439.08008 0.95035
5439.85986 0.950186
5440.64014 0.94998
5441.41992 0.949765
5442.20996 0.949549
5442.97998 0.949334
5443.77002 0.949117
5444.54980 0.948902
5445.33008 0.948686
5446.10986 0.948471
5446.89014 0.948254
5447.68018 0.948037
5448.45996 0.947822
5449.24023 0.947606
5450.02002 0.947392
5450.79980 0.947337
5451.58008 0.947278
5452.37012 0.94722
5453.14990 0.947162
5453.93018 0.947103
5454.72021 0.947045
5455.50000 0.946988
5456.27979 0.946929
5457.06006 0.946871
5457.85010 0.946813
5458.62988 0.946755
5459.41992 0.946698
5460.20020 0.946678
5460.97998 0.946768
5461.77002 0.946858
5462.54980 0.946948
5463.33008 0.94704
5464.12012 0.947129
5464.89990 0.94722
5465.68994 0.947311
5466.47021 0.947402
5467.25977 0.947494
5468.04004 0.947585
5468.81982 0.947675
5469.60986 0.947767
5470.39990 0.948058
5471.18018 0.948538
5471.97021 0.949022
5472.75000 0.949504
5473.52979 0.949988
5474.31982 0.950473
5475.10986 0.950959
5475.89990 0.951443
5476.68018 0.951928
5477.47021 0.952413
5478.25000 0.952897
5479.04004 0.953382
5479.81982 0.953869
5480.60986 0.954079
5481.39990 0.954209
5482.18018 0.95434
5482.97021 0.954472
5483.75977 0.954603
5484.54004 0.954732
5485.33008 0.954863
5486.12012 0.954994
5486.91016 0.955126
5487.68994 0.955258
5488.47998 0.955388
5489.27002 0.955519
5490.06006 0.955608
5490.85010 0.95514
5491.64014 0.954677
5492.41992 0.954216
5493.20996 0.953749
5494.00000 0.953283
5494.79004 0.952815
5495.58008 0.952353
5496.35986 0.951888
5497.16016 0.951419
5497.95020 0.95095
5498.72998 0.950485
5499.52002 0.950017
5500.31006 0.949887
5501.10010 0.950275
5501.89014 0.950658
5502.68018 0.951046
5503.47021 0.951433
5504.25977 0.951819
5505.04980 0.952204
5505.83984 0.95259
5506.62988 0.952976
5507.41992 0.953364
5508.20996 0.953752
5509.00000 0.954142
5509.79004 0.954527
5510.58008 0.954953
5511.37988 0.955393
5512.16992 0.955833
5512.95996 0.956272
5513.75000 0.956713
5514.54004 0.957152
5515.33008 0.957591
5516.12012 0.958033
5516.91992 0.958474
5517.70996 0.958917
5518.50000 0.959358
5519.29004 0.959799
5520.08008 0.960299
5520.87012 0.961319
5521.66992 0.962344
5522.45996 0.963367
5523.25000 0.964388
5524.04004 0.965412
5524.83984 0.966437
5525.62988 0.967464
5526.43018 0.968493
5527.22021 0.969513
5528.00977 0.970541
5528.79980 0.971565
5529.60010 0.972592
5530.39014 0.972961
5531.18994 0.97265
5531.97998 0.972341
5532.77002 0.972026
5533.56982 0.971714
5534.35986 0.971404
5535.14990 0.971093
5535.95020 0.970781
5536.75000 0.970469
5537.54004 0.970156
5538.33008 0.969845
5539.12988 0.969533
5539.93018 0.969218
5540.72021 0.970262
5541.52002 0.971442
5542.31006 0.972624
5543.10986 0.973812
5543.89990 0.974993
5544.70020 0.976181
5545.50000 0.97737
5546.29004 0.978553
5547.08984 0.979737
5547.87988 0.980928
5548.68018 0.982111
5549.47021 0.983303
5550.27002 0.983879
5551.06982 0.983259
5551.85986 0.98264
5552.66016 0.982023
5553.45996 0.981401
5554.25977 0.980779
5555.04980 0.98016
5555.85010 0.97954
5556.64990 0.978918
5557.43994 0.978297
5558.24023 0.977675
5559.04004 0.977051
5559.83984 0.976429
5560.64014 0.976452
5561.43018 0.976638
5562.22998 0.976825
5563.02979 0.97701
5563.83008 0.977195
5564.62988 0.977381
5565.43018 0.977566
5566.22021 0.977752
5567.02002 0.977939
5567.81982 0.978124
5568.62988 0.978312
5569.41992 0.9785
5570.22021 0.97861
5571.02002 0.978519
5571.81982 0.978427
5572.62012 0.978336
5573.41992 0.978246
5574.22021 0.978156
5575.02002 0.978064
5575.81982 0.977974
5576.62012 0.977884
5577.41992 0.977794
5578.22021 0.977702
5579.02002 0.97761
5579.81982 0.977521
5580.62012 0.976995
5581.43018 0.976345
5582.22998 0.975695
5583.02979 0.975045
5583.83008 0.974393
5584.62988 0.973743
5585.43018 0.973093
5586.22998 0.972444
5587.02979 0.971792
5587.83984 0.971139
5588.64014 0.970486
5589.43994 0.969834
5590.24023 0.969329
5591.04980 0.969163
5591.85010 0.968997
5592.64990 0.968832
5593.45996 0.968666
5594.25977 0.9685
5595.06006 0.968334
5595.85986 0.968167
5596.66992 0.967999
5597.47021 0.967833
5598.27002 0.967668
5599.06982 0.967502
5599.87988 0.967335
5600.68018 0.967319
5601.49023 0.967329
5602.29004 0.967339
5603.10010 0.967348
5603.89990 0.967359
5604.70996 0.96737
5605.50977 0.96738
5606.31006 0.96739
5607.12012 0.967401
5607.91992 0.967412
5608.72998 0.967423
5609.52979 0.967434
5610.33984 0.967483
5611.14990 0.967588
5611.95020 0.967692
5612.75000 0.967799
5613.56006 0.967903
5614.35986 0.968007
5615.16992 0.968113
5615.97998 0.968218
5616.77979 0.968322
5617.58984 0.968427
5618.39990 0.968534
5619.20020 0.968642
5620.00977 0.968754
5620.81006 0.969383
5621.62012 0.970016
5622.43018 0.970647
5623.22998 0.971278
5624.04004 0.971914
5624.85010 0.972547
5625.66016 0.97318
5626.47021 0.973815
5627.27002 0.974448
5628.08008 0.975081
5628.89014 0.975715
5629.70020 0.976351
5630.50977 0.976973
5631.31006 0.977582
5632.12012 0.978191
5632.93018 0.978806
5633.74023 0.979419
5634.54004 0.980027
5635.35010 0.98064
5636.16016 0.981256
5636.97021 0.981867
5637.77979 0.982479
5638.58984 0.983094
5639.39990 0.983709
5640.20996 0.984217
5641.02002 0.984425
5641.83008 0.984632
5642.64014 0.984841
5643.45020 0.985048
5644.25977 0.985257
5645.06982 0.985466
5645.87988 0.985677
5646.68994 0.985882
5647.50000 0.986091
5648.31006 0.9863
5649.12012 0.986507
5649.93018 0.986716
5650.74023 0.987472
5651.54980 0.988271
5652.35986 0.989076
5653.18018 0.989882
5653.99023 0.990685
5654.79980 0.991488
5655.60986 0.992292
5656.41992 0.993097
5657.22998 0.993901
5658.04980 0.99471
5658.85986 0.995518
5659.66992 0.996323
5660.47998 0.996814
5661.29980 0.99709
5662.10986 0.997367
5662.93018 0.997639
5663.72998 0.997915
5664.54980 0.998192
5665.35986 0.998468
5666.16992 0.998744
5666.99023 0.99902
5667.79980 0.999296
5668.60986 0.999571
5669.43018 0.999848
5670.24023 1.0
5671.04980 0.999856
5671.87012 0.999714
5672.68018 0.999571
5673.50000 0.999427
5674.31006 0.999283
5675.12012 0.99914
5675.93994 0.998993
5676.75977 0.99885
5677.56982 0.998704
5678.37988 0.99856
5679.20020 0.998416
5680.02002 0.998258
5680.83008 0.997392
5681.64990 0.996521
5682.45996 0.995648
5683.27979 0.994779
5684.08984 0.99391
5684.91016 0.993037
5685.72021 0.992167
5686.54004 0.991297
5687.35986 0.990422
5688.18018 0.989547
5688.99023 0.988676
5689.81006 0.987803
5690.62012 0.98718
5691.43994 0.986634
5692.25977 0.98609
5693.06982 0.985546
5693.89014 0.984999
5694.70996 0.984454
5695.52002 0.98391
5696.33984 0.983363
5697.16016 0.982814
5697.97998 0.982267
5698.79980 0.981722
5699.60986 0.981174
5700.43018 0.980532
5701.25000 0.979797
5702.06982 0.979062
5702.89014 0.978329
5703.70020 0.977594
5704.52002 0.976857
5705.33984 0.976121
5706.16016 0.975386
5706.97998 0.97465
5707.79980 0.973915
5708.62012 0.973179
5709.43994 0.972443
5710.25977 0.972072
5711.08008 0.972509
5711.89990 0.972945
5712.72021 0.973383
5713.54004 0.97382
5714.35986 0.974258
5715.18018 0.974692
5716.00000 0.97513
5716.81982 0.97557
5717.64014 0.976007
5718.45996 0.976444
5719.27979 0.976883
5720.10010 0.977277
5720.93018 0.977363
5721.75000 0.977446
5722.56006 0.97753
5723.39014 0.977614
5724.20996 0.977697
5725.02979 0.97778
5725.85010 0.977864
5726.66992 0.97795
5727.49023 0.978032
5728.31982 0.978115
5729.14014 0.978199
5729.95996 0.978282
5730.77979 0.979032
5731.60986 0.979817
5732.43018 0.980598
5733.25000 0.981379
5734.06982 0.982165
5734.89990 0.98295
5735.72021 0.983732
5736.54004 0.984516
5737.37012 0.985303
5738.18994 0.986087
5739.00977 0.986872
5739.83984 0.987656
5740.66016 0.988114
5741.49023 0.98849
5742.31006 0.988866
5743.14014 0.989243
5743.95996 0.989618
5744.77979 0.989991
5745.60986 0.990369
5746.43994 0.990748
5747.25977 0.991123
5748.08008 0.9915
5748.91016 0.991877
5749.72998 0.992255
5750.56006 0.99166
5751.37988 0.990602
5752.20996 0.989543
5753.02979 0.988487
5753.85986 0.987424
5754.68994 0.98636
5755.50977 0.985298
5756.33984 0.984232
5757.16016 0.983172
5757.99023 0.982107
5758.81982 0.981039
5759.64014 0.979978
5760.47021 0.978266
5761.29980 0.976074
5762.12012 0.973878
5762.95020 0.971673
5763.77979 0.969469
5764.60986 0.967263
5765.43994 0.965062
5766.25977 0.962862
5767.08984 0.960663
5767.91016 0.958459
5768.74023 0.956247
5769.56982 0.954033
5770.39990 0.951839
5771.22998 0.949655
5772.06006 0.947461
5772.89014 0.945268
5773.72021 0.943073
5774.54004 0.940893
5775.37012 0.938692
5776.20020 0.936503
5777.02979 0.93431
5777.85986 0.932109
5778.68994 0.929906
5779.52002 0.92771
5780.35010 0.925898
5781.18018 0.924622
5782.00977 0.923349
5782.83008 0.922076
5783.66992 0.920796
5784.50000 0.919518
5785.33008 0.918243
5786.16016 0.916967
5786.99023 0.915686
5787.81982 0.914406
5788.64990 0.913133
5789.47998 0.911851
5790.31006 0.910957
5791.14014 0.910712
5791.97021 0.910469
5792.81006 0.910224
5793.64014 0.90998
5794.47021 0.909736
5795.29980 0.909492
5796.12988 0.909246
5796.95996 0.909002
5797.79004 0.908756
5798.62988 0.90851
5799.45996 0.908265
5800.29004 0.908474
5801.12012 0.90952
5801.95996 0.910572
5802.79004 0.911625
5803.62012 0.912668
5804.45996 0.91372
5805.29004 0.914769
5806.12012 0.915823
5806.95020 0.916872
5807.79004 0.917926
5808.62012 0.918981
5809.45996 0.920033
5810.29004 0.921102
5811.12012 0.922204
5811.95996 0.923305
5812.79004 0.924414
5813.62988 0.92552
5814.45996 0.926623
5815.29004 0.927727
5816.12988 0.928836
5816.97021 0.929946
5817.79980 0.931055
5818.62988 0.932158
5819.47021 0.933268
5820.31006 0.933741
5821.14014 0.933115
5821.97998 0.932485
5822.81006 0.931856
5823.64990 0.931229
5824.47998 0.930601
5825.31982 0.92997
5826.14990 0.929341
5826.99023 0.928711
5827.83008 0.928081
5828.66992 0.927449
5829.50000 0.92682
5830.33984 0.923222
5831.18018 0.915198
5832.02002 0.907173
5832.85010 0.899178
5833.68994 0.891173
5834.52002 0.883133
5835.35986 0.875123
5836.20020 0.867111
5837.04004 0.859057
5837.87988 0.851006
5838.70996 0.842981
5839.54980 0.834946
5840.39014 0.823117
5841.22021 0.807056
5842.06006 0.790859
5842.89990 0.774656
5843.74023 0.758449
5844.58008 0.742292
5845.41992 0.72612
5846.25977 0.709887
5847.10010 0.693646
5847.93994 0.677459
5848.77979 0.661266
5849.60986 0.645067
5850.45996 0.627319
5851.29004 0.608413
5852.14014 0.589411
5852.97998 0.570402
5853.81982 0.551451
5854.66016 0.532493
5855.50000 0.513461
5856.33008 0.494555
5857.18018 0.475497
5858.02002 0.456421
5858.85986 0.437414
5859.70020 0.418322
5860.54004 0.402284
5861.37988 0.387849
5862.22998 0.3734
5863.06982 0.359003
5863.91016 0.344593
5864.75000 0.330177
5865.58984 0.315756
5866.43018 0.30127
5867.27002 0.286779
5868.12012 0.272333
5868.95996 0.25788
5869.79980 0.243364
5870.64990 0.233185
5871.47998 0.224409
5872.33008 0.21556
5873.16992 0.206708
5874.00977 0.197889
5874.85010 0.189062
5875.70020 0.180196
5876.54980 0.171327
5877.39014 0.162492
5878.22998 0.153612
5879.08008 0.144766
5879.91992 0.135917
5880.75977 0.130555
5881.60986 0.12555
5882.45020 0.120541
5883.29980 0.115551
5884.14014 0.110556
5884.97998 0.105542
5885.83008 0.100523
5886.66992 0.0955429
5887.52002 0.0905205
5888.35986 0.0854936
5889.20996 0.0804853
5890.04980 0.0756215
5890.89990 0.0729397
5891.75000 0.0702556
5892.58984 0.0675812
5893.43994 0.0649059
5894.27979 0.0622281
5895.12988 0.0595399
5895.97021 0.0568599
5896.81982 0.0541683
5897.66992 0.0514755
5898.52002 0.048791
5899.35986 0.0461054
5900.20996 0.0437083
5901.06006 0.0422329
5901.89990 0.0407678
5902.75000 0.0392903
5903.58984 0.0378182
5904.43994 0.0363397
5905.29004 0.0348658
5906.14014 0.0333862
5906.99023 0.0319052
5907.83984 0.0304287
5908.68018 0.0289518
5909.52979 0.0274744
5910.37988 0.026285
5911.22998 0.0254549
5912.06982 0.0246246
5912.93018 0.0237934
5913.77002 0.0229682
5914.62012 0.0221365
5915.47021 0.0213044
5916.31982 0.0204715
5917.16992 0.0196451
5918.02002 0.0188117
5918.87012 0.0179808
5919.70996 0.0171496
5920.56006 0.0164951
5921.41992 0.0159317
5922.27002 0.0153699
5923.12012 0.0148057
5923.97021 0.0142435
5924.81006 0.0136811
5925.66016 0.0131181
5926.52002 0.0125526
5927.37012 0.0119869
5928.22021 0.0114232
5929.06982 0.010859
5929.91992 0.0102927
5930.77002 0.00997606
5931.62012 0.0096873
5932.47021 0.00939627
5933.33008 0.00910497
5934.18018 0.00881474
5935.02979 0.00852427
5935.87988 0.00823267
5936.72998 0.00794084
5937.58984 0.00765007
5938.43994 0.00735903
5939.29004 0.00706805
5940.14014 0.00680093
5940.99023 0.00666146
5941.85010 0.00652141
5942.70020 0.0063812
5943.54980 0.00624152
5944.39990 0.00610179
5945.25977 0.00596144
5946.12012 0.00582096
5946.95996 0.00568153
5947.81982 0.00554095
5948.66992 0.00540087
5949.52979 0.0052601
5950.37988 0.00511984
5951.24023 0.00497896
5952.08984 0.00483805
5952.93994 0.00469765
5953.79980 0.00455709
5954.64990 0.00441641
5955.50000 0.00427576
5956.35986 0.00413441
6551.99609 0.0
