# %ECSV 0.9
# ---
# datatype:
# - {name: wavelength, unit: Angstrom, datatype: float32}
# - {name: response, datatype: float32}
# meta: !!omap
# - {band_name: F550M_77}
# - {group_name: ACS_WFC}
wavelength response
4697.63086 0.0
5219.58984 0.00236327
5220.33984 0.00244428
5221.08984 0.00257813
5221.83984 0.00271254
5222.58984 0.00284701
5223.33984 0.00298056
5224.08984 0.00311522
5224.83984 0.00324992
5225.58984 0.00338415
5226.33984 0.00351852
5227.08984 0.00365337
5227.83984 0.00378836
5228.58984 0.00392288
5229.33984 0.00405753
5230.08984 0.00419217
5230.83984 0.00432719
5231.58984 0.00446281
5232.33984 0.00459849
5233.10010 0.00473433
5233.83984 0.00486961
5234.58984 0.00500506
5235.35010 0.0051411
5236.10010 0.0052773
5236.85010 0.00541241
5237.60010 0.00554873
5238.35010 0.00568459
5239.10010 0.00582052
5239.85986 0.00595714
5240.60986 0.00627395
5241.35986 0.0066324
5242.10986 0.00699246
5242.87012 0.00735157
5243.62012 0.00771066
5244.37012 0.0080702
5245.12012 0.00843137
5245.87988 0.00879274
5246.62988 0.00915316
5247.37988 0.0095138
5248.14014 0.00987584
5248.89014 0.0102383
5249.64990 0.0106012
5250.39990 0.0111455
5251.14990 0.0118617
5251.89990 0.0125755
5252.64990 0.0132896
5253.41016 0.0140073
5254.16992 0.0147249
5254.91992 0.0154406
5255.66992 0.0161566
5256.43018 0.0168762
5257.18018 0.017593
5257.93994 0.0183105
5258.68994 0.0190313
5259.45020 0.0197524
5260.20020 0.0206636
5260.95020 0.0221026
5261.70996 0.0235488
5262.47021 0.0249957
5263.22021 0.0264387
5263.97998 0.0278814
5264.72998 0.0293316
5265.49023 0.0307768
5266.24023 0.0322227
5267.00000 0.0336758
5267.75977 0.0351289
5268.50977 0.0365779
5269.27002 0.0380277
5270.02002 0.0395399
5270.77979 0.0426454
5271.54004 0.045777
5272.29004 0.0489104
5273.04980 0.0520458
5273.81006 0.0551708
5274.56006 0.0582997
5275.31982 0.0614426
5276.08008 0.0645874
5276.83984 0.0677219
5277.58984 0.0708604
5278.35010 0.0740007
5279.10986 0.0771428
5279.87012 0.0802989
5280.62012 0.0856573
5281.39014 0.0914943
5282.14014 0.0973107
5282.89990 0.103129
5283.66016 0.108972
5284.41016 0.114775
5285.16992 0.120626
5285.93018 0.126478
5286.68994 0.13231
5287.45020 0.138144
5288.20996 0.144006
5288.97021 0.14987
5289.72998 0.155736
5290.49023 0.16449
5291.25000 0.174867
5292.00000 0.185248
5292.75977 0.195636
5293.52002 0.206071
5294.27979 0.216511
5295.04004 0.226923
5295.81006 0.237383
5296.56006 0.247807
5297.33008 0.258278
5298.08008 0.268682
5298.85010 0.279172
5299.60986 0.289667
5300.37012 0.302095
5301.12012 0.31664
5301.89014 0.331257
5302.64990 0.345879
5303.41016 0.360451
5304.16992 0.375029
5304.93018 0.38968
5305.68994 0.40428
5306.45020 0.418886
5307.22021 0.433553
5307.97998 0.448227
5308.74023 0.46286
5309.50000 0.4775
5310.27002 0.491783
5311.02979 0.505299
5311.79004 0.518711
5312.54980 0.532242
5313.31982 0.545782
5314.08008 0.559279
5314.83984 0.572792
5315.60010 0.586356
5316.37012 0.599937
5317.12988 0.613483
5317.89014 0.627029
5318.64990 0.640591
5319.41992 0.654153
5320.18018 0.66659
5320.95020 0.675173
5321.70996 0.683755
5322.47021 0.692314
5323.24023 0.700876
5324.00000 0.709473
5324.77002 0.71808
5325.52979 0.726619
5326.29004 0.735233
5327.06006 0.743819
5327.81982 0.752407
5328.58984 0.761036
5329.35010 0.769669
5330.12012 0.777443
5330.87988 0.780572
5331.64990 0.783704
5332.41016 0.786838
5333.18018 0.789974
5333.93994 0.793123
5334.70996 0.796274
5335.47998 0.799415
5336.24023 0.80257
5337.00977 0.805716
5337.77002 0.808875
5338.54004 0.812012
5339.31006 0.815175
5340.06982 0.818121
5340.83984 0.818988
5341.60010 0.819857
5342.37012 0.820731
5343.14014 0.821604
5343.91016 0.822476
5344.66992 0.823343
5345.43994 0.824218
5346.20996 0.82509
5346.97021 0.825961
5347.74023 0.826835
5348.50977 0.827712
5349.27979 0.828585
5350.04004 0.829448
5350.81006 0.830152
5351.58008 0.830856
5352.35010 0.831554
5353.12012 0.832258
5353.89014 0.832963
5354.64990 0.833665
5355.41992 0.834367
5356.18994 0.835073
5356.95996 0.835779
5357.72998 0.836482
5358.50000 0.837185
5359.27002 0.837889
5360.02979 0.838637
5360.79980 0.840366
5361.56982 0.842097
5362.35010 0.843828
5363.10986 0.845555
5363.87988 0.847282
5364.64990 0.849017
5365.43018 0.850751
5366.18994 0.852475
5366.95996 0.854215
5367.72998 0.855947
5368.50000 0.857681
5369.27002 0.859421
5370.04980 0.861145
5370.81982 0.862614
5371.58984 0.86408
5372.35986 0.865546
5373.12988 0.867011
5373.89990 0.868478
5374.66992 0.869951
5375.43994 0.871426
5376.22021 0.872894
5376.99023 0.87437
5377.75977 0.875839
5378.52979 0.877316
5379.31006 0.878793
5380.06982 0.880306
5380.85010 0.882268
5381.62012 0.884225
5382.39014 0.886182
5383.16016 0.888148
5383.93994 0.890115
5384.70996 0.892084
5385.47998 0.894046
5386.25977 0.89601
5387.02979 0.897974
5387.79980 0.899941
5388.56982 0.901915
5389.35010 0.90389
5390.12012 0.905753
5390.89990 0.907059
5391.66992 0.908367
5392.45020 0.909677
5393.22021 0.910982
5393.99023 0.912288
5394.77002 0.913601
5395.54004 0.914908
5396.31006 0.916215
5397.08984 0.917528
5397.87012 0.918843
5398.64014 0.920153
5399.41016 0.921463
5400.18994 0.922732
5400.95996 0.923847
5401.74023 0.924972
5402.50977 0.926097
5403.29004 0.927222
5404.06006 0.928343
5404.83984 0.929465
5405.62012 0.930592
5406.39990 0.931721
5407.16992 0.932845
5407.93994 0.933967
5408.72021 0.935093
5409.49023 0.93622
5410.27002 0.937116
5411.04980 0.93758
5411.83008 0.938046
5412.60010 0.93851
5413.37988 0.938973
5414.16016 0.939438
5414.93018 0.939901
5415.70996 0.940366
5416.49023 0.940831
5417.27002 0.941295
5418.04980 0.941761
5418.81982 0.942223
5419.60010 0.942689
5420.37988 0.942895
5421.16016 0.942829
5421.93018 0.942767
5422.70996 0.942702
5423.49023 0.942636
5424.27002 0.942569
5425.04980 0.942501
5425.83008 0.942433
5426.60986 0.942367
5427.37988 0.942301
5428.16016 0.942233
5428.93994 0.942166
5429.72021 0.942098
5430.50000 0.942024
5431.27979 0.941946
5432.06006 0.941868
5432.83984 0.941788
5433.62012 0.941709
5434.39990 0.94163
5435.18018 0.94155
5435.95996 0.94147
5436.74023 0.941392
5437.52002 0.941311
5438.29980 0.94123
5439.08008 0.941149
5439.85986 0.941068
5440.64014 0.940906
5441.41992 0.940725
5442.20996 0.940543
5442.97998 0.940365
5443.77002 0.940181
5444.54980 0.939999
5445.33008 0.939817
5446.10986 0.939635
5446.89014 0.939453
5447.68018 0.939269
5448.45996 0.939085
5449.24023 0.938902
5450.02002 0.938724
5450.79980 0.93875
5451.58008 0.938775
5452.37012 0.9388
5453.14990 0.938826
5453.93018 0.93885
5454.72021 0.938874
5455.50000 0.938899
5456.27979 0.938923
5457.06006 0.938948
5457.85010 0.938972
5458.62988 0.938995
5459.41992 0.93902
5460.20020 0.93907
5460.97998 0.9392
5461.77002 0.939331
5462.54980 0.939462
5463.33008 0.939592
5464.12012 0.939722
5464.89990 0.939851
5465.68994 0.939981
5466.47021 0.940112
5467.25977 0.940242
5468.04004 0.940371
5468.81982 0.9405
5469.60986 0.940629
5470.39990 0.940983
5471.18018 0.941549
5471.97021 0.94212
5472.75000 0.94269
5473.52979 0.943259
5474.31982 0.943829
5475.10986 0.944402
5475.89990 0.944972
5476.68018 0.945542
5477.47021 0.946111
5478.25000 0.94668
5479.04004 0.94725
5479.81982 0.947824
5480.60986 0.948062
5481.39990 0.948204
5482.18018 0.948347
5482.97021 0.948492
5483.75977 0.948634
5484.54004 0.948775
5485.33008 0.948918
5486.12012 0.949061
5486.91016 0.949203
5487.68994 0.949346
5488.47998 0.949487
5489.27002 0.949629
5490.06006 0.949725
5490.85010 0.949255
5491.64014 0.948786
5492.41992 0.948319
5493.20996 0.947848
5494.00000 0.947377
5494.79004 0.946904
5495.58008 0.946434
5496.35986 0.945962
5497.16016 0.94549
5497.95020 0.945016
5498.72998 0.944546
5499.52002 0.944072
5500.31006 0.943976
5501.10010 0.94446
5501.89014 0.94494
5502.68018 0.945425
5503.47021 0.94591
5504.25977 0.946392
5505.04980 0.946876
5505.83984 0.947358
5506.62988 0.947841
5507.41992 0.948326
5508.20996 0.948811
5509.00000 0.949296
5509.79004 0.94978
5510.58008 0.950215
5511.37988 0.950633
5512.16992 0.95105
5512.95996 0.951465
5513.75000 0.951883
5514.54004 0.9523
5515.33008 0.952717
5516.12012 0.953135
5516.91992 0.953553
5517.70996 0.953973
5518.50000 0.95439
5519.29004 0.954806
5520.08008 0.955287
5520.87012 0.956328
5521.66992 0.957371
5522.45996 0.958415
5523.25000 0.959456
5524.04004 0.960498
5524.83984 0.961544
5525.62988 0.96259
5526.43018 0.963637
5527.22021 0.964676
5528.00977 0.965723
5528.79980 0.966767
5529.60010 0.96781
5530.39014 0.96821
5531.18994 0.967939
5531.97998 0.967667
5532.77002 0.967397
5533.56982 0.967125
5534.35986 0.966853
5535.14990 0.966581
5535.95020 0.966308
5536.75000 0.966035
5537.54004 0.965763
5538.33008 0.965489
5539.12988 0.965214
5539.93018 0.96494
5540.72021 0.965943
5541.52002 0.967077
5542.31006 0.968212
5543.10986 0.96935
5543.89990 0.970485
5544.70020 0.971625
5545.50000 0.972764
5546.29004 0.973899
5547.08984 0.975036
5547.87988 0.976177
5548.68018 0.977309
5549.47021 0.97845
5550.27002 0.979024
5551.06982 0.978487
5551.85986 0.977951
5552.66016 0.977414
5553.45996 0.976876
5554.25977 0.976336
5555.04980 0.975799
5555.85010 0.975263
5556.64990 0.974724
5557.43994 0.974185
5558.24023 0.973643
5559.04004 0.973101
5559.83984 0.972556
5560.64014 0.972598
5561.43018 0.972787
5562.22998 0.972975
5563.02979 0.973161
5563.83008 0.97335
5564.62988 0.973538
5565.43018 0.973725
5566.22021 0.973911
5567.02002 0.974101
5567.81982 0.974287
5568.62988 0.974474
5569.41992 0.974662
5570.22021 0.97475
5571.02002 0.97458
5571.81982 0.974412
5572.62012 0.974242
5573.41992 0.97407
5574.22021 0.9739
5575.02002 0.973729
5575.81982 0.97356
5576.62012 0.973389
5577.41992 0.973219
5578.22021 0.973047
5579.02002 0.972873
5579.81982 0.972702
5580.62012 0.972181
5581.43018 0.971556
5582.22998 0.970932
5583.02979 0.970311
5583.83008 0.969687
5584.62988 0.969062
5585.43018 0.968438
5586.22998 0.967814
5587.02979 0.967187
5587.83984 0.966559
5588.64014 0.965933
5589.43994 0.965307
5590.24023 0.964829
5591.04980 0.964695
5591.85010 0.964563
5592.64990 0.96443
5593.45996 0.964297
5594.25977 0.964164
5595.06006 0.96403
5595.85986 0.963895
5596.66992 0.963761
5597.47021 0.963628
5598.27002 0.963492
5599.06982 0.963356
5599.87988 0.963222
5600.68018 0.963266
5601.49023 0.963341
5602.29004 0.963417
5603.10010 0.963492
5603.89990 0.963567
5604.70996 0.963644
5605.50977 0.963718
5606.31006 0.963792
5607.12012 0.963868
5607.91992 0.963941
5608.72998 0.964016
5609.52979 0.96409
5610.33984 0.964215
5611.14990 0.964413
5611.95020 0.96461
5612.75000 0.964806
5613.56006 0.965002
5614.35986 0.965198
5615.16992 0.965396
5615.97998 0.965593
5616.77979 0.965788
5617.58984 0.965985
5618.39990 0.966182
5619.20020 0.966378
5620.00977 0.966582
5620.81006 0.967208
5621.62012 0.967841
5622.43018 0.968472
5623.22998 0.969102
5624.04004 0.969736
5624.85010 0.970369
5625.66016 0.971001
5626.47021 0.971636
5627.27002 0.972268
5628.08008 0.972901
5628.89014 0.973534
5629.70020 0.974169
5630.50977 0.97481
5631.31006 0.975453
5632.12012 0.976099
5632.93018 0.976746
5633.74023 0.977393
5634.54004 0.978037
5635.35010 0.978686
5636.16016 0.979335
5636.97021 0.979981
5637.77979 0.980629
5638.58984 0.981277
5639.39990 0.981927
5640.20996 0.982477
5641.02002 0.982751
5641.83008 0.983025
5642.64014 0.983302
5643.45020 0.983577
5644.25977 0.983853
5645.06982 0.984129
5645.87988 0.984405
5646.68994 0.984678
5647.50000 0.984954
5648.31006 0.985231
5649.12012 0.985506
5649.93018 0.985783
5650.74023 0.986563
5651.54980 0.987382
5652.35986 0.988208
5653.18018 0.989035
5653.99023 0.989862
5654.79980 0.990686
5655.60986 0.991511
5656.41992 0.992337
5657.22998 0.993163
5658.04980 0.993991
5658.85986 0.994823
5659.66992 0.99565
5660.47998 0.996179
5661.29980 0.996507
5662.10986 0.996834
5662.93018 0.997163
5663.72998 0.997488
5664.54980 0.997817
5665.35986 0.998145
5666.16992 0.998473
5666.99023 0.998802
5667.79980 0.99913
5668.60986 0.999459
5669.43018 0.999788
5670.24023 1.0
5671.04980 0.999938
5671.87012 0.999878
5672.68018 0.999818
5673.50000 0.999757
5674.31006 0.999695
5675.12012 0.999633
5675.93994 0.999571
5676.75977 0.999511
5677.56982 0.999449
5678.37988 0.999388
5679.20020 0.999327
5680.02002 0.999252
5680.83008 0.998525
5681.64990 0.997795
5682.45996 0.997063
5683.27979 0.996334
5684.08984 0.995605
5684.91016 0.994871
5685.72021 0.99414
5686.54004 0.99341
5687.35986 0.992675
5688.18018 0.99194
5688.99023 0.991206
5689.81006 0.990473
5690.62012 0.989921
5691.43994 0.989426
5692.25977 0.988932
5693.06982 0.988439
5693.89014 0.987943
5694.70996 0.98745
5695.52002 0.986956
5696.33984 0.986458
5697.16016 0.985962
5697.97998 0.985467
5698.79980 0.98497
5699.60986 0.984472
5700.43018 0.983901
5701.25000 0.983254
5702.06982 0.982608
5702.89014 0.981964
5703.70020 0.981318
5704.52002 0.98067
5705.33984 0.98002
5706.16016 0.979371
5706.97998 0.978726
5707.79980 0.978076
5708.62012 0.977427
5709.43994 0.976778
5710.25977 0.976489
5711.08008 0.976991
5711.89990 0.977489
5712.72021 0.977992
5713.54004 0.978492
5714.35986 0.978995
5715.18018 0.979496
5716.00000 0.98
5716.81982 0.980504
5717.64014 0.981007
5718.45996 0.98151
5719.27979 0.982016
5720.10010 0.982461
5720.93018 0.982476
5721.75000 0.982494
5722.56006 0.982511
5723.39014 0.982527
5724.20996 0.982543
5725.02979 0.982559
5725.85010 0.982578
5726.66992 0.982594
5727.49023 0.982612
5728.31982 0.982631
5729.14014 0.982648
5729.95996 0.982666
5730.77979 0.983516
5731.60986 0.984409
5732.43018 0.985299
5733.25000 0.986191
5734.06982 0.987086
5734.89990 0.987982
5735.72021 0.988877
5736.54004 0.98977
5737.37012 0.990668
5738.18994 0.991566
5739.00977 0.992462
5739.83984 0.993363
5740.66016 0.993824
5741.49023 0.99418
5742.31006 0.994537
5743.14014 0.994894
5743.95996 0.995251
5744.77979 0.995606
5745.60986 0.995964
5746.43994 0.996323
5747.25977 0.99668
5748.08008 0.99704
5748.91016 0.997399
5749.72998 0.997759
5750.56006 0.997262
5751.37988 0.996361
5752.20996 0.995459
5753.02979 0.994554
5753.85986 0.993646
5754.68994 0.992739
5755.50977 0.991833
5756.33984 0.990923
5757.16016 0.990017
5757.99023 0.989105
5758.81982 0.988192
5759.64014 0.987288
5760.47021 0.985627
5761.29980 0.983408
5762.12012 0.981189
5762.95020 0.978962
5763.77979 0.97673
5764.60986 0.974498
5765.43994 0.972275
5766.25977 0.970051
5767.08984 0.967827
5767.91016 0.965602
5768.74023 0.963368
5769.56982 0.96113
5770.39990 0.958967
5771.22998 0.956874
5772.06006 0.954768
5772.89014 0.952662
5773.72021 0.950554
5774.54004 0.948462
5775.37012 0.94635
5776.20020 0.944246
5777.02979 0.942138
5777.85986 0.940025
5778.68994 0.937907
5779.52002 0.935798
5780.35010 0.934056
5781.18018 0.932824
5782.00977 0.931596
5782.83008 0.930369
5783.66992 0.929136
5784.50000 0.927903
5785.33008 0.926674
5786.16016 0.925444
5786.99023 0.924207
5787.81982 0.922971
5788.64990 0.921744
5789.47998 0.920507
5790.31006 0.919671
5791.14014 0.919506
5791.97021 0.919339
5792.81006 0.919173
5793.64014 0.919007
5794.47021 0.918841
5795.29980 0.918674
5796.12988 0.918507
5796.95996 0.918342
5797.79004 0.918176
5798.62988 0.918009
5799.45996 0.917843
5800.29004 0.918098
5801.12012 0.919132
5801.95996 0.92017
5802.79004 0.921209
5803.62012 0.92224
5804.45996 0.923281
5805.29004 0.924317
5806.12012 0.925357
5806.95020 0.926395
5807.79004 0.927438
5808.62012 0.928482
5809.45996 0.929522
5810.29004 0.930628
5811.12012 0.931859
5811.95996 0.93309
5812.79004 0.934327
5813.62988 0.935565
5814.45996 0.936799
5815.29004 0.938035
5816.12988 0.939278
5816.97021 0.940519
5817.79980 0.941763
5818.62988 0.942998
5819.47021 0.944243
5820.31006 0.944837
5821.14014 0.944305
5821.97998 0.94377
5822.81006 0.943235
5823.64990 0.942704
5824.47998 0.942171
5825.31982 0.941635
5826.14990 0.941101
5826.99023 0.940567
5827.83008 0.94003
5828.66992 0.939495
5829.50000 0.93896
5830.33984 0.935382
5831.18018 0.927263
5832.02002 0.919144
5832.85010 0.911053
5833.68994 0.902955
5834.52002 0.894821
5835.35986 0.886716
5836.20020 0.878609
5837.04004 0.870459
5837.87988 0.862312
5838.70996 0.854192
5839.54980 0.846062
5840.39014 0.834112
5841.22021 0.817901
5842.06006 0.80155
5842.89990 0.78519
5843.74023 0.768823
5844.58008 0.752505
5845.41992 0.736169
5846.25977 0.719768
5847.10010 0.703361
5847.93994 0.687003
5848.77979 0.670636
5849.60986 0.654261
5850.45996 0.636282
5851.29004 0.617101
5852.14014 0.597824
5852.97998 0.57854
5853.81982 0.559316
5854.66016 0.540083
5855.50000 0.520777
5856.33008 0.501599
5857.18018 0.482267
5858.02002 0.462917
5858.85986 0.443639
5859.70020 0.424274
5860.54004 0.408039
5861.37988 0.393443
5862.22998 0.378832
5863.06982 0.36427
5863.91016 0.349689
5864.75000 0.335101
5865.58984 0.320503
5866.43018 0.305837
5867.27002 0.291161
5868.12012 0.276527
5868.95996 0.261884
5869.79980 0.247173
5870.64990 0.236846
5871.47998 0.22794
5872.33008 0.218957
5873.16992 0.209971
5874.00977 0.201019
5874.85010 0.192058
5875.70020 0.183057
5876.54980 0.174053
5877.39014 0.165081
5878.22998 0.156065
5879.08008 0.147082
5879.91992 0.138096
5880.75977 0.132662
5881.60986 0.127591
5882.45020 0.122514
5883.29980 0.117455
5884.14014 0.112391
5884.97998 0.107306
5885.83008 0.102215
5886.66992 0.0971617
5887.52002 0.0920649
5888.35986 0.0869622
5889.20996 0.0818772
5890.04980 0.0769382
5890.89990 0.0742199
5891.75000 0.0714983
5892.58984 0.0687859
5893.43994 0.0660718
5894.27979 0.0633544
5895.12988 0.0606258
5895.97021 0.0579048
5896.81982 0.0551711
5897.66992 0.0524357
5898.52002 0.0497079
5899.35986 0.0469783
5900.20996 0.0445411
5901.06006 0.0430398
5901.89990 0.0415488
5902.75000 0.0400452
5903.58984 0.0385469
5904.43994 0.0370418
5905.29004 0.0355413
5906.14014 0.0340348
5906.99023 0.0325268
5907.83984 0.0310232
5908.68018 0.0295191
5909.52979 0.0280142
5910.37988 0.0268025
5911.22998 0.0259565
5912.06982 0.0251102
5912.93018 0.0242631
5913.77002 0.023422
5914.62012 0.0225742
5915.47021 0.0217261
5916.31982 0.0208772
5917.16992 0.0200347
5918.02002 0.0191851
5918.87012 0.0183381
5919.70996 0.0174907
5920.56006 0.0168248
5921.41992 0.0162522
5922.27002 0.0156812
5923.12012 0.0151075
5923.97021 0.0145357
5924.81006 0.0139636
5925.66016 0.0133907
5926.52002 0.0128152
5927.37012 0.0122393
5928.22021 0.0116653
5929.06982 0.0110906
5929.91992 0.0105135
5930.77002 0.0101913
5931.62012 0.00989744
5932.47021 0.00960119
5933.33008 0.0093046
5934.18018 0.00900903
5935.02979 0.00871315
5935.87988 0.00841607
5936.72998 0.00811866
5937.58984 0.00782227
5938.43994 0.00752554
5939.29004 0.00722881
5940.14014 0.00695636
5940.99023 0.00681422
5941.85010 0.00667145
5942.70020 0.00652852
5943.54980 0.0063861
5944.39990 0.00624359
5945.25977 0.00610044
5946.12012 0.00595713
5946.95996 0.0058149
5947.81982 0.00567144
5948.66992 0.00552848
5949.52979 0.0053848
5950.37988 0.0052417
5951.24023 0.00509804
5952.08984 0.0049543
5952.93994 0.00481104
5953.79980 0.00466763
5954.64990 0.00452405
5955.50000 0.00438046
5956.35986 0.00423612
5957.22021 0.00409179
5958.06982 0.00394729
5958.93018 0.0038032
5959.77979 0.0036591
5960.64014 0.00358198
5961.50000 0.00352788
5962.35010 0.00347414
5963.20996 0.00341996
5964.06006 0.00336593
5964.91016 0.00331183
5965.77002 0.00325751
5966.62988 0.00320315
5967.49023 0.00314893
5968.33984 0.00309446
5969.20020 0.00304014
5970.06006 0.00298579
5970.91016 0.00293114
5971.77002 0.00287625
5972.62988 0.00282129
5973.47998 0.00276655
5974.33984 0.00271175
6571.77393 0.0
