# %ECSV 0.9
# ---
# datatype:
# - {name: wavelength, unit: Angstrom, datatype: float32}
# - {name: response, datatype: float32}
# meta: !!omap
# - {band_name: F550M_81}
# - {group_name: ACS_WFC}
wavelength response
4697.79297 0.0
5219.77002 0.00236565
5220.41992 0.00245251
5221.08008 0.00256963
5221.72998 0.00268634
5222.39014 0.00280353
5223.04004 0.00292033
5223.70020 0.00303717
5224.35010 0.00315404
5225.00977 0.00327096
5225.66016 0.003388
5226.31982 0.00350551
5226.97021 0.00362263
5227.62012 0.00373978
5228.27979 0.00385698
5228.93994 0.00397483
5229.58984 0.0040921
5230.25000 0.00420958
5230.89990 0.00432726
5231.56006 0.00444543
5232.22021 0.00456374
5232.87012 0.00468165
5233.52002 0.00479953
5234.18018 0.00491755
5234.83984 0.00503616
5235.49023 0.00515428
5236.14990 0.00527246
5236.81006 0.0053907
5237.45996 0.00550959
5238.12012 0.00562792
5238.77002 0.00574639
5239.43018 0.00586492
5240.08984 0.00600884
5240.74023 0.00632115
5241.39990 0.0066362
5242.06006 0.00694885
5242.72021 0.00726144
5243.37012 0.00757442
5244.02979 0.00788781
5244.68994 0.00820393
5245.35010 0.00851742
5246.00000 0.00883131
5246.66016 0.00914536
5247.31982 0.00945958
5247.97021 0.00977398
5248.62988 0.0100885
5249.29004 0.0104035
5249.95020 0.0107198
5250.60010 0.0113169
5251.25977 0.0119386
5251.91992 0.0125633
5252.58008 0.013186
5253.24023 0.0138086
5253.89990 0.0144318
5254.56006 0.0150582
5255.22021 0.0156848
5255.87012 0.0163089
5256.52979 0.0169333
5257.18994 0.0175584
5257.85010 0.0181866
5258.50977 0.0188124
5259.16992 0.0194384
5259.83008 0.0200646
5260.49023 0.0211578
5261.14990 0.0224131
5261.79980 0.0236681
5262.45996 0.0249245
5263.12012 0.0261815
5263.77979 0.0274399
5264.43994 0.0287037
5265.10010 0.0299689
5265.75977 0.0312282
5266.41992 0.0324889
5267.08008 0.0337502
5267.74023 0.0350186
5268.39990 0.0362811
5269.06006 0.0375498
5269.72998 0.0388143
5270.37988 0.0409246
5271.04004 0.0436417
5271.70020 0.0463623
5272.35986 0.0490822
5273.02979 0.0518178
5273.68994 0.0545526
5274.33984 0.0572547
5275.00977 0.0599946
5275.66992 0.0627379
5276.33008 0.0654685
5276.99023 0.0682025
5277.64990 0.0709382
5278.31006 0.0736853
5278.97998 0.0764379
5279.64014 0.0791777
5280.29980 0.0829738
5280.95996 0.0880409
5281.62012 0.0931321
5282.29004 0.0982248
5282.95020 0.103296
5283.60986 0.108347
5284.27002 0.113448
5284.93994 0.118525
5285.60010 0.123606
5286.25977 0.12869
5286.91992 0.133774
5287.58008 0.138864
5288.25000 0.143975
5288.91016 0.14909
5289.56982 0.154185
5290.22998 0.160681
5290.89990 0.16972
5291.56006 0.178803
5292.22998 0.187857
5292.89014 0.19695
5293.54980 0.206013
5294.22021 0.215082
5294.87988 0.224195
5295.54004 0.233239
5296.20020 0.242322
5296.87012 0.251455
5297.54004 0.260594
5298.20020 0.269657
5298.85986 0.278805
5299.52002 0.287924
5300.18994 0.298051
5300.85010 0.310735
5301.52002 0.32348
5302.18018 0.336173
5302.85010 0.348927
5303.50977 0.361639
5304.18018 0.374347
5304.83984 0.387069
5305.50977 0.399852
5306.16992 0.412639
5306.83984 0.425375
5307.50000 0.438124
5308.16992 0.450869
5308.83008 0.463628
5309.50000 0.476392
5310.16016 0.488909
5310.83008 0.500647
5311.49023 0.512436
5312.16016 0.524187
5312.83008 0.535988
5313.49023 0.547752
5314.16016 0.559531
5314.81982 0.571308
5315.49023 0.583142
5316.16016 0.594991
5316.81982 0.606795
5317.49023 0.618606
5318.14990 0.630423
5318.81982 0.642297
5319.49023 0.654083
5320.14990 0.664959
5320.81982 0.67244
5321.49023 0.679903
5322.14990 0.687331
5322.81982 0.694827
5323.49023 0.702298
5324.14990 0.709766
5324.81982 0.717242
5325.49023 0.724754
5326.16016 0.732275
5326.83008 0.739761
5327.49023 0.747254
5328.16016 0.754744
5328.83008 0.762275
5329.50000 0.769809
5330.16992 0.77612
5330.83008 0.778852
5331.50000 0.781587
5332.16992 0.784321
5332.83984 0.787058
5333.50977 0.789807
5334.16992 0.792536
5334.83984 0.795277
5335.50977 0.798031
5336.18018 0.800786
5336.85010 0.803533
5337.52002 0.80628
5338.18994 0.809028
5338.85986 0.811791
5339.52979 0.814553
5340.20020 0.816721
5340.85986 0.817481
5341.52979 0.818243
5342.20020 0.819009
5342.87012 0.819766
5343.54004 0.820528
5344.20996 0.821293
5344.87988 0.822059
5345.54980 0.822823
5346.22021 0.823587
5346.89014 0.82435
5347.56006 0.825113
5348.22998 0.825877
5348.89990 0.826643
5349.56982 0.827411
5350.24023 0.828124
5350.91016 0.828739
5351.58008 0.829354
5352.25000 0.829969
5352.93018 0.830587
5353.60010 0.831205
5354.27002 0.831821
5354.93994 0.832436
5355.60986 0.833053
5356.27979 0.83367
5356.95020 0.834286
5357.62012 0.834906
5358.29004 0.835523
5358.97021 0.83614
5359.64014 0.836757
5360.31006 0.837787
5360.97998 0.839293
5361.64990 0.840801
5362.31982 0.842309
5363.00000 0.843826
5363.66992 0.845341
5364.33984 0.846851
5365.00977 0.848363
5365.68994 0.849873
5366.35986 0.851393
5367.02979 0.852907
5367.70020 0.854422
5368.37988 0.855938
5369.04980 0.857461
5369.72021 0.858976
5370.39990 0.860354
5371.06982 0.861634
5371.74023 0.862916
5372.41016 0.864198
5373.08008 0.865481
5373.75977 0.866774
5374.43994 0.868058
5375.10986 0.869341
5375.77979 0.870626
5376.45020 0.871911
5377.12988 0.873208
5377.81006 0.874494
5378.47998 0.87578
5379.14990 0.877068
5379.83008 0.878356
5380.50000 0.879954
5381.16992 0.881663
5381.85010 0.883382
5382.52002 0.885094
5383.20020 0.886806
5383.87012 0.888526
5384.54980 0.89024
5385.22021 0.891955
5385.89990 0.893671
5386.56982 0.895395
5387.25000 0.897121
5387.91992 0.89884
5388.60010 0.900559
5389.27002 0.902278
5389.95020 0.904007
5390.62012 0.905192
5391.29980 0.906333
5391.97998 0.907473
5392.64990 0.908621
5393.33008 0.909763
5394.00000 0.910906
5394.68018 0.91205
5395.35010 0.913195
5396.02979 0.914339
5396.70996 0.915488
5397.37988 0.916634
5398.06006 0.917785
5398.74023 0.918931
5399.41016 0.920077
5400.08984 0.921204
5400.77002 0.922184
5401.45020 0.923174
5402.12012 0.924154
5402.79980 0.925136
5403.47998 0.926117
5404.14990 0.9271
5404.83008 0.928082
5405.50977 0.92907
5406.18018 0.930054
5406.85986 0.931038
5407.54004 0.932022
5408.22021 0.933011
5408.89990 0.933998
5409.56982 0.934984
5410.25000 0.935757
5410.93018 0.936166
5411.60986 0.936576
5412.29004 0.936985
5412.95996 0.937393
5413.64014 0.9378
5414.31982 0.938211
5415.00000 0.938622
5415.68018 0.93903
5416.35986 0.939436
5417.04004 0.939847
5417.72021 0.940256
5418.39014 0.940664
5419.06982 0.94107
5419.75000 0.94148
5420.43018 0.941597
5421.10986 0.941543
5421.79004 0.941492
5422.47021 0.94144
5423.14990 0.941386
5423.83008 0.941333
5424.50977 0.941278
5425.18994 0.941222
5425.87012 0.941167
5426.54980 0.941114
5427.22998 0.941061
5427.91016 0.941005
5428.58984 0.94095
5429.27002 0.940895
5429.95020 0.94084
5430.62988 0.940777
5431.31006 0.940713
5431.99023 0.940648
5432.66992 0.940583
5433.35010 0.940518
5434.02979 0.940453
5434.70996 0.940388
5435.39990 0.940322
5436.08008 0.940256
5436.75977 0.940191
5437.43994 0.940125
5438.12012 0.940058
5438.79980 0.939992
5439.49023 0.939925
5440.16992 0.939837
5440.85010 0.939684
5441.52979 0.93953
5442.20996 0.939376
5442.89014 0.939223
5443.56982 0.939068
5444.25977 0.938913
5444.93994 0.938758
5445.62012 0.938603
5446.29980 0.938448
5446.99023 0.938294
5447.66992 0.938137
5448.35010 0.93798
5449.02979 0.937824
5449.72021 0.937668
5450.39990 0.93762
5451.08984 0.937647
5451.77002 0.937671
5452.45020 0.937697
5453.14014 0.937723
5453.81982 0.937748
5454.50977 0.937773
5455.18994 0.937798
5455.87012 0.937823
5456.54980 0.937849
5457.24023 0.937874
5457.91992 0.937899
5458.60010 0.937923
5459.29004 0.937948
5459.97998 0.937973
5460.66016 0.938087
5461.33984 0.938204
5462.02979 0.938321
5462.70996 0.93844
5463.39990 0.938558
5464.08008 0.938675
5464.77002 0.938791
5465.45020 0.938908
5466.14014 0.939025
5466.81982 0.939143
5467.50000 0.939259
5468.18994 0.939376
5468.87012 0.939492
5469.56006 0.939609
5470.25000 0.939863
5470.93018 0.940366
5471.62012 0.940865
5472.29980 0.941366
5472.99023 0.941869
5473.68018 0.942369
5474.35986 0.942869
5475.04980 0.943373
5475.72998 0.943873
5476.41992 0.944373
5477.10986 0.944874
5477.79004 0.945377
5478.47998 0.945877
5479.16992 0.946382
5479.85010 0.946884
5480.54004 0.947091
5481.22998 0.947218
5481.91016 0.947347
5482.60010 0.947476
5483.29004 0.947605
5483.97998 0.947733
5484.66016 0.947861
5485.35010 0.947989
5486.04004 0.948117
5486.72021 0.948245
5487.41016 0.948374
5488.10010 0.948502
5488.79004 0.948629
5489.47998 0.948756
5490.16016 0.948755
5490.85010 0.948351
5491.54004 0.947946
5492.22998 0.947541
5492.91992 0.947134
5493.60010 0.946727
5494.29004 0.94632
5494.97998 0.945914
5495.66992 0.945505
5496.35986 0.945098
5497.04980 0.94469
5497.74023 0.944281
5498.43018 0.943873
5499.12012 0.943463
5499.81006 0.943054
5500.49023 0.943245
5501.18018 0.943669
5501.87988 0.944094
5502.56982 0.944521
5503.25000 0.944944
5503.93994 0.94537
5504.62988 0.945796
5505.31982 0.946222
5506.00977 0.946646
5506.70020 0.947073
5507.39014 0.947498
5508.08008 0.947923
5508.77002 0.94835
5509.45996 0.948778
5510.14990 0.949192
5510.83984 0.94956
5511.52979 0.949927
5512.22998 0.950295
5512.91992 0.950663
5513.60986 0.95103
5514.29980 0.951398
5514.99023 0.951766
5515.68018 0.952133
5516.37012 0.9525
5517.06006 0.952868
5517.75977 0.953239
5518.45020 0.953608
5519.14014 0.953974
5519.83008 0.954342
5520.52002 0.95512
5521.20996 0.956032
5521.91016 0.956947
5522.60010 0.95786
5523.29004 0.958772
5523.97998 0.959689
5524.68018 0.960602
5525.37012 0.961519
5526.06006 0.962429
5526.75000 0.963347
5527.45020 0.964265
5528.14014 0.96518
5528.83008 0.966095
5529.52002 0.96701
5530.22021 0.967568
5530.91016 0.967337
5531.60010 0.967104
5532.29004 0.966872
5532.99023 0.96664
5533.68018 0.966406
5534.37988 0.966171
5535.06982 0.965936
5535.75977 0.965703
5536.45020 0.96547
5537.14990 0.965235
5537.85010 0.965
5538.54004 0.964764
5539.22998 0.964529
5539.93018 0.964294
5540.62012 0.965158
5541.31006 0.966151
5542.00977 0.96715
5542.70020 0.968144
5543.39990 0.969142
5544.10010 0.970137
5544.79004 0.971132
5545.47998 0.972126
5546.18018 0.97312
5546.87988 0.97412
5547.56982 0.975117
5548.27002 0.976118
5548.95996 0.977113
5549.66016 0.978111
5550.35010 0.97837
5551.04980 0.977907
5551.75000 0.977441
5552.43994 0.976977
5553.14014 0.976512
5553.83008 0.976046
5554.52979 0.975581
5555.22021 0.975116
5555.91992 0.974652
5556.60986 0.974185
5557.31006 0.973718
5558.00977 0.973248
5558.70996 0.972779
5559.39990 0.97231
5560.10010 0.971929
5560.79004 0.972098
5561.49023 0.972266
5562.18994 0.972434
5562.89014 0.972602
5563.58008 0.972769
5564.27979 0.972936
5564.97998 0.973104
5565.66992 0.97327
5566.37012 0.973437
5567.06982 0.973606
5567.77002 0.973773
5568.47021 0.973939
5569.16016 0.974106
5569.85986 0.974274
5570.56006 0.974192
5571.25977 0.974048
5571.95996 0.973903
5572.64990 0.973759
5573.35010 0.973613
5574.04980 0.973469
5574.75000 0.973323
5575.45020 0.973178
5576.14990 0.973034
5576.85010 0.972888
5577.54980 0.972742
5578.25000 0.972596
5578.93994 0.972449
5579.64014 0.972303
5580.33984 0.971966
5581.04004 0.971425
5581.74023 0.970888
5582.43994 0.970348
5583.14014 0.969807
5583.83984 0.969265
5584.54004 0.968724
5585.24023 0.968182
5585.93994 0.967641
5586.64014 0.967097
5587.33984 0.966553
5588.04004 0.96601
5588.74023 0.965467
5589.43994 0.964924
5590.14014 0.964467
5590.85010 0.964353
5591.54004 0.964241
5592.24023 0.964129
5592.95020 0.964016
5593.64990 0.963905
5594.35010 0.963792
5595.04980 0.963679
5595.75000 0.963565
5596.45020 0.963452
5597.14990 0.963339
5597.85010 0.963224
5598.56006 0.963109
5599.25977 0.962995
5599.95996 0.96288
5600.66016 0.962939
5601.35986 0.963009
5602.06982 0.963079
5602.77002 0.963148
5603.47021 0.963217
5604.16992 0.963287
5604.87988 0.963357
5605.56982 0.963425
5606.27002 0.963493
5606.97998 0.963563
5607.68994 0.963631
5608.39014 0.9637
5609.08984 0.963769
5609.79004 0.963836
5610.50000 0.96398
5611.20020 0.964157
5611.89990 0.96433
5612.60010 0.964506
5613.31006 0.964682
5614.00977 0.964856
5614.70996 0.965032
5615.41992 0.965207
5616.12012 0.965383
5616.83008 0.965557
5617.52979 0.965733
5618.22998 0.965908
5618.93994 0.966082
5619.64014 0.966257
5620.35010 0.966617
5621.04980 0.967172
5621.75977 0.967727
5622.45996 0.968284
5623.16992 0.968838
5623.87012 0.969393
5624.56982 0.969948
5625.27979 0.970503
5625.97998 0.971059
5626.68994 0.971616
5627.39990 0.972175
5628.10010 0.972731
5628.81006 0.973288
5629.50977 0.973844
5630.22021 0.974405
5630.91992 0.974967
5631.62012 0.975534
5632.33008 0.976104
5633.04004 0.976672
5633.75000 0.97724
5634.45020 0.977808
5635.16016 0.978376
5635.85986 0.978947
5636.56982 0.979518
5637.27979 0.980083
5637.97998 0.980655
5638.68994 0.981222
5639.39990 0.981791
5640.10010 0.982314
5640.81006 0.982557
5641.52002 0.9828
5642.22998 0.983045
5642.93018 0.98329
5643.64014 0.983533
5644.35010 0.983776
5645.04980 0.98402
5645.75977 0.984265
5646.47021 0.984509
5647.18018 0.984753
5647.89014 0.984997
5648.58984 0.985242
5649.29980 0.985486
5650.00977 0.985736
5650.70996 0.986457
5651.41992 0.987182
5652.12988 0.987905
5652.83984 0.98863
5653.54980 0.989354
5654.25977 0.990078
5654.97021 0.990801
5655.68018 0.991528
5656.37988 0.99225
5657.08984 0.992978
5657.79980 0.993706
5658.50977 0.994432
5659.22021 0.995159
5659.93018 0.995886
5660.64014 0.996219
5661.35010 0.996507
5662.06006 0.996797
5662.77002 0.997085
5663.47998 0.997376
5664.18994 0.997665
5664.89990 0.997955
5665.60010 0.998245
5666.31982 0.998536
5667.02979 0.998827
5667.74023 0.999117
5668.45020 0.999408
5669.16016 0.999698
5669.87012 0.999987
5670.58008 1.0
5671.29004 0.99995
5672.00000 0.999901
5672.70996 0.999852
5673.41992 0.999802
5674.12988 0.999752
5674.83984 0.999702
5675.54980 0.999651
5676.27002 0.999601
5676.97998 0.999552
5677.68994 0.999501
5678.39990 0.999451
5679.10986 0.999402
5679.81982 0.999351
5680.54004 0.998859
5681.25000 0.998231
5681.95996 0.997598
5682.66992 0.996961
5683.39014 0.996325
5684.10010 0.995692
5684.81006 0.995057
5685.52002 0.994422
5686.24023 0.993784
5686.95020 0.993148
5687.66016 0.992513
5688.37012 0.991876
5689.08984 0.991236
5689.79980 0.990599
5690.50977 0.990112
5691.22998 0.989683
5691.93994 0.989255
5692.64990 0.988826
5693.37012 0.988398
5694.08008 0.98797
5694.79004 0.987543
5695.50977 0.987115
5696.22021 0.986685
5696.93994 0.986254
5697.64990 0.985824
5698.35986 0.985394
5699.08008 0.984963
5699.79004 0.984534
5700.50000 0.984013
5701.22021 0.983454
5701.93018 0.982894
5702.64990 0.982333
5703.35986 0.98177
5704.08008 0.981209
5704.79004 0.980648
5705.50977 0.980085
5706.22998 0.979522
5706.93994 0.978964
5707.64990 0.978398
5708.37012 0.977831
5709.08984 0.977267
5709.79980 0.976705
5710.52002 0.976864
5711.22998 0.977305
5711.95020 0.977744
5712.66992 0.978187
5713.37988 0.978626
5714.10010 0.979068
5714.81006 0.97951
5715.52979 0.979953
5716.24023 0.980396
5716.95996 0.98084
5717.68018 0.981284
5718.39990 0.981727
5719.10986 0.982171
5719.83008 0.982616
5720.54004 0.982735
5721.25977 0.982753
5721.97998 0.982773
5722.68994 0.98279
5723.41016 0.982807
5724.12988 0.982825
5724.85010 0.982842
5725.56006 0.982861
5726.27979 0.98288
5727.00000 0.982897
5727.72021 0.982918
5728.43994 0.982937
5729.14990 0.982955
5729.87012 0.982974
5730.58984 0.983618
5731.31006 0.984402
5732.02979 0.985182
5732.74023 0.985962
5733.45996 0.986748
5734.18018 0.987534
5734.89990 0.988318
5735.62012 0.989102
5736.33984 0.989887
5737.06006 0.990674
5737.77979 0.991465
5738.50000 0.992252
5739.20996 0.993036
5739.93018 0.993826
5740.64990 0.994182
5741.37012 0.994497
5742.08984 0.994815
5742.81006 0.995128
5743.52979 0.995443
5744.25000 0.995758
5744.97021 0.996073
5745.68994 0.996389
5746.41016 0.996704
5747.12988 0.99702
5747.85010 0.997339
5748.56982 0.997656
5749.29004 0.997972
5750.00977 0.998269
5750.72998 0.997485
5751.45996 0.996698
5752.16992 0.995916
5752.89014 0.995128
5753.62012 0.994337
5754.33984 0.993546
5755.06006 0.99276
5755.77979 0.991971
5756.50000 0.991182
5757.22021 0.99039
5757.95020 0.989596
5758.66992 0.988808
5759.39014 0.988018
5760.10986 0.987049
5760.83008 0.985111
5761.54980 0.983175
5762.27979 0.981231
5763.00000 0.979295
5763.72021 0.977347
5764.43994 0.975406
5765.16992 0.973466
5765.89014 0.971526
5766.60986 0.969586
5767.33008 0.967646
5768.06006 0.965695
5768.77979 0.963744
5769.50000 0.961799
5770.22998 0.959892
5770.95020 0.958066
5771.66992 0.956236
5772.39014 0.954407
5773.10986 0.952576
5773.83984 0.950735
5774.56982 0.948894
5775.29004 0.947058
5776.00977 0.945223
5776.74023 0.943384
5777.45996 0.941538
5778.18018 0.939707
5778.91016 0.937859
5779.64014 0.936009
5780.35986 0.93455
5781.08008 0.933482
5781.81006 0.932411
5782.52979 0.931336
5783.25977 0.930267
5783.97998 0.929191
5784.70020 0.928125
5785.43018 0.927049
5786.16016 0.925977
5786.87988 0.924902
5787.60010 0.92383
5788.33008 0.922752
5789.06006 0.921673
5789.77979 0.920598
5790.50977 0.920179
5791.22998 0.920037
5791.95996 0.919895
5792.68018 0.919753
5793.41016 0.919611
5794.14014 0.91947
5794.87012 0.919326
5795.58984 0.919183
5796.31982 0.919041
5797.04004 0.918899
5797.77002 0.918757
5798.49023 0.918615
5799.22021 0.918472
5799.95020 0.918328
5800.68018 0.919166
5801.39990 0.920073
5802.12988 0.920979
5802.85986 0.921891
5803.58984 0.922799
5804.31006 0.923704
5805.04004 0.924617
5805.77002 0.925529
5806.50000 0.926439
5807.22021 0.92735
5807.95020 0.928261
5808.68018 0.929177
5809.41016 0.930093
5810.12988 0.931031
5810.85986 0.932111
5811.58984 0.933194
5812.31982 0.934274
5813.04980 0.935355
5813.77979 0.936441
5814.50977 0.937523
5815.24023 0.938611
5815.95996 0.939696
5816.68994 0.94078
5817.41992 0.941865
5818.14990 0.942952
5818.87988 0.944038
5819.60986 0.945131
5820.33984 0.945501
5821.06982 0.945039
5821.79980 0.944576
5822.52979 0.944113
5823.25977 0.943651
5823.97998 0.94319
5824.70996 0.942726
5825.43994 0.94226
5826.18018 0.941794
5826.91016 0.941331
5827.64014 0.940866
5828.37012 0.940402
5829.10010 0.939937
5829.81982 0.939474
5830.56006 0.933961
5831.29004 0.926898
5832.02002 0.919797
5832.75000 0.912725
5833.47998 0.905651
5834.20996 0.898541
5834.95020 0.891429
5835.68018 0.884344
5836.41016 0.877284
5837.14014 0.870159
5837.87012 0.863066
5838.60010 0.855971
5839.33008 0.848869
5840.06982 0.841088
5840.79980 0.826799
5841.52979 0.812571
5842.25977 0.798336
5842.99023 0.784086
5843.72998 0.76983
5844.45996 0.755568
5845.18994 0.7413
5845.91992 0.726958
5846.66016 0.712601
5847.39014 0.698316
5848.12012 0.684015
5848.85010 0.669697
5849.58984 0.655382
5850.31982 0.639991
5851.04980 0.623146
5851.79004 0.606285
5852.52002 0.589497
5853.25000 0.572703
5853.99023 0.555893
5854.72021 0.539009
5855.45996 0.522186
5856.18994 0.505437
5856.91992 0.488526
5857.66016 0.471609
5858.39014 0.454754
5859.12012 0.437892
5859.85986 0.421025
5860.60010 0.407457
5861.33008 0.394687
5862.06006 0.381969
5862.79980 0.369296
5863.52979 0.356496
5864.27002 0.343748
5865.00000 0.330986
5865.74023 0.318165
5866.47021 0.305396
5867.20996 0.292553
5867.93994 0.279762
5868.68018 0.266964
5869.41016 0.25415
5870.14990 0.24235
5870.87988 0.234534
5871.62012 0.226679
5872.35986 0.218821
5873.10010 0.210998
5873.83008 0.203166
5874.56006 0.195332
5875.29980 0.187464
5876.04004 0.179656
5876.77002 0.171814
5877.50977 0.163934
5878.25000 0.156045
5878.97998 0.14819
5879.72021 0.140332
5880.45996 0.134614
5881.20020 0.130178
5881.93994 0.125738
5882.66992 0.121336
5883.39990 0.116912
5884.14990 0.112464
5884.87988 0.108035
5885.62012 0.103601
5886.35986 0.0991475
5887.10010 0.0947089
5887.83984 0.0902475
5888.56982 0.0858015
5889.31006 0.0813563
5890.04980 0.0770369
5890.77979 0.0746691
5891.52002 0.0722999
5892.25977 0.0699183
5893.00000 0.0675355
5893.74023 0.0651607
5894.47998 0.0627845
5895.22021 0.060407
5895.95020 0.0580282
5896.68994 0.0556464
5897.43018 0.0532649
5898.16992 0.0508694
5898.91016 0.0484724
5899.64990 0.0460852
5900.39014 0.0442676
5901.12988 0.0429592
5901.87012 0.041645
5902.60986 0.0403407
5903.35010 0.0390256
5904.08984 0.0377142
5904.83008 0.036397
5905.56982 0.0350845
5906.31006 0.0337715
5907.04980 0.0324528
5907.79004 0.0311326
5908.52979 0.0298171
5909.27002 0.0285072
5910.00977 0.0271937
5910.75000 0.026457
5911.49023 0.02572
5912.22998 0.0249827
5912.97998 0.0242413
5913.72021 0.0235001
5914.45996 0.0227616
5915.20020 0.0220229
5915.93994 0.0212834
5916.68018 0.0205441
5917.41992 0.0198041
5918.16016 0.0190638
5918.89990 0.0183198
5919.64990 0.0175755
5920.39014 0.0169619
5921.12988 0.0164634
5921.87012 0.0159643
5922.60986 0.0154649
5923.35010 0.0149648
5924.10010 0.0144625
5924.83984 0.01396
5925.58984 0.013459
5926.33008 0.0129578
5927.06982 0.0124564
5927.81006 0.0119519
5928.56006 0.0114498
5929.29980 0.0109494
5930.04004 0.0104577
5930.79004 0.0101987
5931.52979 0.00994087
5932.27002 0.00968269
5933.00977 0.00942438
5933.75977 0.00916493
5934.50977 0.00890518
5935.25000 0.00864633
5935.99023 0.0083887
5936.72998 0.00812841
5937.47998 0.00786918
5938.22021 0.00760981
5938.97021 0.00734911
5939.70996 0.00708949
5940.45996 0.00691191
5941.20020 0.00678757
5941.93994 0.00666317
5942.68994 0.00653872
5943.43018 0.00641421
5944.18018 0.00628956
5944.91992 0.00616428
5945.66992 0.00603902
5946.41992 0.00591412
5947.16016 0.00578925
5947.89990 0.00566422
5948.64990 0.00553865
5949.39014 0.0054141
5950.14014 0.00528886
5950.89014 0.00516319
5951.64014 0.00503747
5952.37988 0.00491217
5953.12012 0.0047868
5953.87012 0.00466137
5954.62012 0.0045353
5955.35986 0.00441023
5956.10986 0.00428402
5956.85010 0.00415824
5957.60010 0.00403183
5958.35010 0.00390592
5959.10010 0.00377995
5959.85010 0.00365324
5960.58984 0.00358969
5961.33984 0.00354238
5962.08008 0.00349541
5962.83008 0.00344801
5963.58008 0.00340077
5964.33008 0.0033535
5965.06982 0.0033062
5965.81982 0.00325868
5966.56982 0.00321107
5967.31982 0.00316368
5968.06982 0.00311623
5968.81006 0.00306875
5969.56006 0.00302124
5970.31006 0.00297361
5971.06006 0.00292579
5971.81006 0.00287776
5972.56006 0.00282968
5973.29980 0.00278179
5974.04980 0.00273388
6571.45459 0.0
