# %ECSV 0.9
# ---
# datatype:
# - {name: wavelength, unit: Angstrom, datatype: float32}
# - {name: response, datatype: float32}
# meta: !!omap
# - {band_name: F205W}
# - {group_name: NICMOS2}
wavelength response
14672.02539 0.0
16302.25000 0.000408
16302.98047 0.000417
16303.70996 0.000426
16304.44043 0.000435
16305.16992 0.000442
16305.88965 0.000444
16306.62012 0.000446
16307.34961 0.000448
16308.08008 0.00045
16308.80957 0.000451
16309.54004 0.000453
16310.25977 0.000455
16310.99023 0.000456
16311.71973 0.000457
16312.45020 0.000458
16313.17969 0.00046
16313.91016 0.000461
16314.62988 0.000462
16315.36035 0.000466
16316.08984 0.000474
16316.82031 0.000481
16317.54980 0.000489
16318.28027 0.000497
16319.00977 0.000504
16319.74023 0.000512
16320.46973 0.000516
16321.19043 0.000518
16321.91992 0.000519
16322.65039 0.000521
16323.37988 0.000523
16324.11035 0.000525
16324.83984 0.000527
16325.57031 0.000531
16326.29980 0.000535
16327.03027 0.000539
16327.75977 0.000544
16328.49023 0.000548
16329.21973 0.000552
16329.94043 0.000556
16330.66992 0.000554
16331.40039 0.000552
16332.12988 0.000549
16332.86035 0.000547
16333.58984 0.000544
16334.32031 0.000542
16335.04980 0.00054
16335.78027 0.000547
16336.50977 0.000554
16337.24023 0.000561
16337.96973 0.000568
16338.70020 0.000575
16339.42969 0.000582
16340.16016 0.000588
16340.88965 0.000592
16341.62012 0.000595
16342.34961 0.000598
16343.08008 0.000602
16343.80957 0.000605
16344.54004 0.000608
16345.26953 0.00061
16346.00000 0.000607
16346.73047 0.000605
16347.45996 0.000603
16348.19043 0.000601
16348.91992 0.000599
16349.65039 0.000596
16350.37988 0.000599
16351.11035 0.000606
16351.83984 0.000612
16352.57031 0.000619
16353.29980 0.000626
16354.03027 0.000633
16354.75977 0.000639
16355.49023 0.000645
16356.21973 0.00065
16356.95020 0.000655
16357.67969 0.00066
16358.41992 0.000665
16359.15039 0.00067
16359.87988 0.000675
16360.61035 0.000677
16361.33984 0.000679
16362.07031 0.00068
16362.79980 0.000681
16363.53027 0.000682
16364.25977 0.000684
16364.99023 0.000685
16365.71973 0.000688
16366.45020 0.000692
16367.17969 0.000695
16367.91992 0.000699
16368.65039 0.000702
16369.37988 0.000705
16370.11035 0.000709
16370.83984 0.000715
16371.57031 0.000721
16372.29980 0.000727
16373.03027 0.000733
16373.76953 0.000738
16374.50000 0.000744
16375.23047 0.000747
16375.95996 0.000744
16376.69043 0.000741
16377.41992 0.000737
16378.15039 0.000734
16378.88965 0.000731
16379.62012 0.000728
16380.34961 0.000731
16381.08008 0.000741
16381.80957 0.000752
16382.54004 0.000762
16383.28027 0.000773
16384.00977 0.000783
16384.74023 0.000794
16385.47070 0.000794
16386.19922 0.000789
16386.93945 0.000783
16387.66992 0.000778
16388.40039 0.000772
16389.13086 0.000767
16389.85938 0.000762
16390.58984 0.000768
16391.33008 0.000778
16392.06055 0.000787
16392.78906 0.000797
16393.51953 0.000806
16394.25977 0.000816
16394.99023 0.000825
16395.72070 0.000837
16396.44922 0.00085
16397.18945 0.000862
16397.91992 0.000874
16398.65039 0.000887
16399.38086 0.000899
16400.11914 0.00091
16400.84961 0.000912
16401.58008 0.000915
16402.31055 0.000917
16403.03906 0.00092
16403.77930 0.000922
16404.50977 0.000925
16405.24023 0.000926
16405.97070 0.000927
16406.71094 0.000928
16407.43945 0.000928
16408.16992 0.000929
16408.91016 0.00093
16409.64062 0.000931
16410.36914 0.000937
16411.10938 0.000949
16411.83984 0.000961
16412.57031 0.000973
16413.30078 0.000985
16414.03906 0.000997
16414.76953 0.001009
16415.50000 0.00101
16416.24023 0.001006
16416.97070 0.001002
16417.69922 0.000998
16418.43945 0.000993
16419.16992 0.000989
16419.90039 0.000985
16420.64062 0.00099
16421.36914 0.000996
16422.09961 0.001002
16422.83984 0.001008
16423.57031 0.001014
16424.30078 0.00102
16425.03906 0.001027
16425.76953 0.001033
16426.50977 0.00104
16427.24023 0.001047
16427.97070 0.001054
16428.71094 0.001061
16429.43945 0.001068
16430.16992 0.001074
16430.91016 0.001077
16431.64062 0.00108
16432.38086 0.001084
16433.10938 0.001087
16433.83984 0.00109
16434.58008 0.001094
16435.31055 0.001097
16436.05078 0.0011
16436.77930 0.001104
16437.50977 0.001107
16438.25000 0.00111
16438.98047 0.001114
16439.72070 0.001117
16440.44922 0.001125
16441.18945 0.001135
16441.91992 0.001145
16442.65039 0.001155
16443.39062 0.001165
16444.11914 0.001175
16444.85938 0.001185
16445.58984 0.001191
16446.33008 0.001195
16447.06055 0.0012
16447.80078 0.001204
16448.52930 0.001209
16449.26953 0.001213
16450.00000 0.001218
16450.73047 0.001216
16451.47070 0.001214
16452.21094 0.001213
16452.93945 0.001211
16453.66992 0.001209
16454.41016 0.001208
16455.14062 0.001209
16455.88086 0.001223
16456.60938 0.001237
16457.34961 0.001251
16458.08008 0.001265
16458.82031 0.001279
16459.55078 0.001293
16460.28906 0.001303
16461.02930 0.001308
16461.75977 0.001312
16462.50000 0.001317
16463.23047 0.001321
16463.97070 0.001326
16464.69922 0.00133
16465.43945 0.001333
16466.16992 0.001335
16466.91016 0.001336
16467.64062 0.001338
16468.38086 0.001339
16469.11914 0.001341
16469.84961 0.001342
16470.58984 0.001353
16471.32031 0.001366
16472.06055 0.001379
16472.78906 0.001392
16473.52930 0.001405
16474.25977 0.001418
16475.00000 0.001431
16475.74023 0.001437
16476.47070 0.001443
16477.21094 0.001449
16477.93945 0.001456
16478.67969 0.001462
16479.41992 0.001468
16480.15039 0.001474
16480.89062 0.00148
16481.63086 0.001487
16482.35938 0.001493
16483.09961 0.0015
16483.83008 0.001506
16484.57031 0.001513
16485.30078 0.00152
16486.03906 0.00153
16486.77930 0.00154
16487.50977 0.00155
16488.25000 0.00156
16488.99023 0.00157
16489.72070 0.00158
16490.46094 0.001581
16491.19922 0.001578
16491.92969 0.001575
16492.66992 0.001572
16493.41016 0.001569
16494.14062 0.001566
16494.88086 0.001563
16495.61914 0.00157
16496.34961 0.001578
16497.08984 0.001586
16497.83008 0.001594
16498.56055 0.001603
16499.30078 0.001611
16500.03906 0.001619
16500.77930 0.001621
16501.50977 0.001623
16502.25000 0.001625
16502.99023 0.001628
16503.72070 0.00163
16504.46094 0.001632
16505.19922 0.001636
16505.93945 0.001646
16506.66992 0.001656
16507.41016 0.001666
16508.15039 0.001676
16508.88086 0.001686
16509.61914 0.001696
16510.35938 0.00171
16511.09961 0.001729
16511.83008 0.001748
16512.57031 0.001766
16513.31055 0.001785
16514.05078 0.001804
16514.77930 0.001822
16515.51953 0.001827
16516.25977 0.001826
16517.00000 0.001826
16517.73047 0.001825
16518.47070 0.001824
16519.21094 0.001823
16519.94922 0.001822
16520.68945 0.001829
16521.41992 0.001837
16522.16016 0.001844
16522.90039 0.001851
16523.64062 0.001859
16524.36914 0.001866
16525.10938 0.001873
16525.84961 0.00188
16526.58984 0.001886
16527.33008 0.001892
16528.07031 0.001898
16528.80078 0.001904
16529.53906 0.00191
16530.27930 0.001918
16531.01953 0.001931
16531.75977 0.001943
16532.50000 0.001955
16533.23047 0.001967
16533.97070 0.001979
16534.71094 0.001991
16535.44922 0.001999
16536.18945 0.002004
16536.92969 0.002009
16537.66992 0.002014
16538.40039 0.002019
16539.14062 0.002023
16539.88086 0.002028
16540.61914 0.002035
16541.35938 0.002043
16542.09961 0.00205
16542.83984 0.002057
16543.58008 0.002065
16544.31055 0.002072
16545.05078 0.002079
16545.78906 0.002085
16546.52930 0.002091
16547.26953 0.002098
16548.00977 0.002104
16548.75000 0.00211
16549.49023 0.002116
16550.23047 0.002123
16550.97070 0.002132
16551.71094 0.002141
16552.44922 0.00215
16553.18945 0.002159
16553.91992 0.002168
16554.66016 0.002177
16555.40039 0.002186
16556.14062 0.002195
16556.88086 0.002204
16557.61914 0.002214
16558.35938 0.002223
16559.09961 0.002232
16559.83984 0.002242
16560.58008 0.00225
16561.32031 0.002257
16562.06055 0.002265
16562.80078 0.002273
16563.53906 0.002281
16564.27930 0.002289
16565.01953 0.002297
16565.75977 0.002304
16566.50000 0.002312
16567.24023 0.00232
16567.98047 0.002328
16568.72070 0.002336
16569.46094 0.002344
16570.19922 0.002352
16570.93945 0.002361
16571.67969 0.00237
16572.41992 0.00238
16573.16016 0.002389
16573.90039 0.002398
16574.64062 0.002407
16575.38086 0.002415
16576.11914 0.002423
16576.85938 0.002431
16577.59961 0.002438
16578.33984 0.002446
16579.08008 0.002453
16579.82031 0.002461
16580.56055 0.002471
16581.30078 0.002483
16582.03906 0.002494
16582.78906 0.002505
16583.52930 0.002517
16584.26953 0.002528
16585.00977 0.002539
16585.75000 0.002547
16586.49023 0.002555
16587.23047 0.002563
16587.97070 0.002571
16588.71094 0.002579
16589.44922 0.002587
16590.18945 0.002594
16590.92969 0.002602
16591.67969 0.002609
16592.41992 0.002617
16593.16016 0.002625
16593.90039 0.002632
16594.64062 0.00264
16595.38086 0.002646
16596.11914 0.00265
16596.85938 0.002655
16597.60938 0.00266
16598.34961 0.002665
16599.08984 0.002669
16599.83008 0.002674
16600.57031 0.002688
16601.31055 0.002704
16602.05078 0.002721
16602.78906 0.002737
16603.53906 0.002754
16604.27930 0.00277
16605.01953 0.002786
16605.75977 0.002786
16606.50000 0.002786
16607.24023 0.002785
16607.99023 0.002785
16608.73047 0.002785
16609.47070 0.002784
16610.21094 0.002788
16610.94922 0.002805
16611.69922 0.002821
16612.43945 0.002837
16613.17969 0.002854
16613.91992 0.00287
16614.66016 0.002886
16615.41016 0.0029
16616.15039 0.002911
16616.89062 0.002921
16617.63086 0.002932
16618.38086 0.002943
16619.11914 0.002954
16619.85938 0.002965
16620.59961 0.002973
16621.33984 0.002981
16622.08984 0.002989
16622.83008 0.002997
16623.57031 0.003005
16624.31055 0.003013
16625.06055 0.003021
16625.80078 0.003028
16626.53906 0.003035
16627.27930 0.003042
16628.02930 0.003049
16628.76953 0.003056
16629.50977 0.003063
16630.25977 0.003071
16631.00000 0.00308
16631.74023 0.00309
16632.48047 0.003099
16633.23047 0.003109
16633.97070 0.003118
16634.71094 0.003127
16635.46094 0.003137
16636.19922 0.003148
16636.93945 0.003159
16637.67969 0.003169
16638.42969 0.00318
16639.16992 0.00319
16639.91016 0.003201
16640.66016 0.003214
16641.40039 0.003228
16642.14062 0.003241
16642.89062 0.003255
16643.63086 0.003269
16644.36914 0.003282
16645.11914 0.003297
16645.85938 0.003316
16646.59961 0.003335
16647.34961 0.003355
16648.08984 0.003374
16648.83008 0.003394
16649.58008 0.003413
16650.32031 0.003421
16651.07031 0.003415
16651.81055 0.003409
16652.55078 0.003403
16653.30078 0.003396
16654.03906 0.00339
16654.78906 0.003384
16655.52930 0.003397
16656.26953 0.003418
16657.01953 0.003439
16657.75977 0.003461
16658.50000 0.003482
16659.25000 0.003503
16659.99023 0.003524
16660.74023 0.003532
16661.48047 0.00354
16662.22070 0.003549
16662.97070 0.003557
16663.71094 0.003565
16664.46094 0.003573
16665.19922 0.00358
16665.94922 0.003585
16666.68945 0.00359
16667.43945 0.003594
16668.17969 0.003599
16668.91992 0.003604
16669.66992 0.003608
16670.41016 0.003616
16671.16016 0.003626
16671.90039 0.003637
16672.65039 0.003647
16673.39062 0.003657
16674.14062 0.003667
16674.88086 0.003677
16675.63086 0.003691
16676.36914 0.003704
16677.11914 0.003718
16677.85938 0.003732
16678.60938 0.003745
16679.34961 0.003759
16680.09961 0.003773
16680.83984 0.003787
16681.58984 0.003801
16682.33008 0.003816
16683.08008 0.00383
16683.82031 0.003845
16684.57031 0.003859
16685.31055 0.003871
16686.06055 0.003879
16686.80078 0.003887
16687.55078 0.003895
16688.28906 0.003903
16689.03906 0.003911
16689.77930 0.003918
16690.52930 0.00393
16691.27930 0.003943
16692.01953 0.003956
16692.76953 0.003969
16693.50977 0.003982
16694.25977 0.003996
16695.00000 0.004009
16695.75000 0.004023
16696.49023 0.004037
16697.24023 0.004051
16697.99023 0.004065
16698.73047 0.004079
16699.48047 0.004094
16700.22070 0.004107
16700.97070 0.004117
16701.71094 0.004128
16702.46094 0.004138
16703.21094 0.004149
16703.94922 0.00416
16704.69922 0.00417
16705.44922 0.00418
16706.18945 0.004189
16706.93945 0.004198
16707.67969 0.004207
16708.42969 0.004217
16709.17969 0.004226
16709.91992 0.004235
16710.66992 0.004246
16711.41992 0.004256
16712.16016 0.004267
16712.91016 0.004278
16713.65039 0.004288
16714.40039 0.004299
16715.15039 0.004311
16715.89062 0.004328
16716.64062 0.004345
16717.39062 0.004362
16718.13086 0.004378
16718.88086 0.004395
16719.63086 0.004412
16720.36914 0.004428
16721.11914 0.004443
16721.86914 0.004457
16722.61914 0.004472
16723.35938 0.004486
16724.10938 0.004501
16724.85938 0.004516
16725.59961 0.004531
16726.34961 0.004546
16727.09961 0.004561
16727.83984 0.004576
16728.58984 0.004591
16729.33984 0.004606
16730.08984 0.00462
16730.83008 0.004625
16731.58008 0.004631
16732.33008 0.004637
16733.08008 0.004642
16733.82031 0.004648
16734.57031 0.004654
16735.32031 0.004664
16736.06055 0.004682
16736.81055 0.004699
16737.56055 0.004716
16738.31055 0.004734
16739.05078 0.004751
16739.80078 0.004769
16740.55078 0.004783
16741.30078 0.004796
16742.05078 0.004809
16742.78906 0.004822
16743.53906 0.004835
16744.28906 0.004848
16745.03906 0.004861
16745.78906 0.004877
16746.52930 0.004893
16747.27930 0.004909
16748.02930 0.004925
16748.77930 0.004941
16749.52930 0.004957
16750.26953 0.004972
16751.01953 0.004987
16751.76953 0.005002
16752.51953 0.005017
16753.26953 0.005033
16754.01953 0.005048
16754.75977 0.005063
16755.50977 0.005077
16756.25977 0.005091
16757.00977 0.005104
16757.75977 0.005118
16758.50977 0.005132
16759.25000 0.005145
16760.00000 0.005159
16760.75000 0.005172
16761.50000 0.005185
16762.25000 0.005198
16763.00000 0.005211
16763.75000 0.005224
16764.49023 0.005237
16765.24023 0.005252
16765.99023 0.005271
16766.74023 0.005289
16767.49023 0.005308
16768.24023 0.005326
16768.99023 0.005345
16769.74023 0.005363
16770.49023 0.00538
16771.23047 0.005395
16771.98047 0.005411
16772.73047 0.005426
16773.48047 0.005442
16774.23047 0.005458
16774.98047 0.005473
16775.73047 0.005487
16776.48047 0.005501
16777.23047 0.005515
16777.98047 0.005529
16778.73047 0.005543
16779.48047 0.005557
16780.23047 0.005571
16780.98047 0.005586
16781.72070 0.0056
16782.47070 0.005615
16783.22070 0.00563
16783.97070 0.005645
16784.72070 0.00566
16785.47070 0.005678
16786.22070 0.0057
16786.97070 0.005721
16787.72070 0.005742
16788.47070 0.005763
16789.22070 0.005784
16789.97070 0.005806
16790.72070 0.005828
16791.47070 0.00585
16792.22070 0.005871
16792.97070 0.005893
16793.72070 0.005915
16794.47070 0.005937
16795.22070 0.005956
16795.97070 0.005968
16796.72070 0.005979
16797.47070 0.00599
16798.22070 0.006002
16798.97070 0.006013
16799.72070 0.006025
16800.47070 0.006041
16801.22070 0.006059
16801.97070 0.006078
16802.73047 0.006097
16803.48047 0.006116
16804.23047 0.006134
16804.98047 0.006153
16805.73047 0.006172
16806.48047 0.006191
16807.23047 0.006211
16807.98047 0.00623
16808.73047 0.006249
16809.48047 0.006268
16810.23047 0.006288
16810.98047 0.006312
16811.73047 0.006335
16812.48047 0.006358
16813.24023 0.006382
16813.99023 0.006405
16814.74023 0.006429
16815.49023 0.006447
16816.24023 0.006463
16816.99023 0.006479
16817.74023 0.006495
16818.49023 0.006511
16819.24023 0.006527
16820.00000 0.006543
16820.75000 0.006566
16821.50000 0.006589
16822.25000 0.006612
16823.00000 0.006635
16823.75000 0.006659
16824.50000 0.006682
16825.25977 0.006704
16826.00977 0.006722
16826.75977 0.006741
16827.50977 0.00676
16828.25977 0.006779
16829.00977 0.006798
16829.76953 0.006817
16830.51953 0.006836
16831.26953 0.006856
16832.01953 0.006876
16832.76953 0.006896
16833.51953 0.006916
16834.27930 0.006935
16835.02930 0.006955
16835.77930 0.006978
16836.52930 0.007001
16837.27930 0.007024
16838.03906 0.007047
16838.78906 0.00707
16839.53906 0.007093
16840.28906 0.007116
16841.03906 0.007139
16841.80078 0.007162
16842.55078 0.007185
16843.30078 0.007208
16844.05078 0.007231
16844.80078 0.007254
16845.56055 0.007279
16846.31055 0.007303
16847.06055 0.007328
16847.81055 0.007353
16848.57031 0.007378
16849.32031 0.007403
16850.07031 0.007427
16850.83008 0.007443
16851.58008 0.00746
16852.33008 0.007476
16853.08008 0.007493
16853.83984 0.007509
16854.58984 0.007526
16855.33984 0.007548
16856.08984 0.007576
16856.84961 0.007604
16857.59961 0.007633
16858.34961 0.007661
16859.10938 0.007689
16859.85938 0.007718
16860.60938 0.007747
16861.36914 0.007778
16862.11914 0.007808
16862.86914 0.007838
16863.61914 0.007869
16864.38086 0.007899
16865.13086 0.007928
16865.88086 0.007953
16866.64062 0.007978
16867.39062 0.008002
16868.14062 0.008027
16868.90039 0.008052
16869.65039 0.008076
16870.40039 0.008101
16871.16016 0.008125
16871.91016 0.008149
16872.66992 0.008173
16873.41992 0.008197
16874.16992 0.008221
16874.92969 0.008245
16875.67969 0.008271
16876.42969 0.008297
16877.18945 0.008323
16877.93945 0.008349
16878.69922 0.008375
16879.44922 0.008401
16880.19922 0.008428
16880.96094 0.008459
16881.71094 0.00849
16882.46094 0.008521
16883.22070 0.008551
16883.97070 0.008582
16884.73047 0.008613
16885.48047 0.008645
16886.24023 0.008678
16886.99023 0.008711
16887.74023 0.008744
16888.50000 0.008777
16889.25000 0.00881
16890.00977 0.008842
16890.75977 0.008869
16891.51953 0.008896
16892.26953 0.008923
16893.02930 0.008949
16893.77930 0.008976
16894.53906 0.009003
16895.28906 0.009031
16896.03906 0.009061
16896.80078 0.009091
16897.55078 0.009121
16898.31055 0.009151
16899.06055 0.009182
16899.82031 0.009212
16900.57031 0.009247
16901.33008 0.009285
16902.08008 0.009322
16902.83984 0.009359
16903.58984 0.009397
16904.34961 0.009434
16905.09961 0.009471
16905.85938 0.009503
16906.60938 0.009536
16907.36914 0.009568
16908.11914 0.009601
16908.88086 0.009633
16909.63086 0.009666
16910.39062 0.009698
16911.14062 0.00973
16911.90039 0.009761
16912.65039 0.009793
16913.41016 0.009824
16914.16992 0.009856
16914.91992 0.009888
16915.67969 0.009921
16916.42969 0.009954
16917.18945 0.009987
16917.93945 0.01002
16918.69922 0.010053
16919.46094 0.010086
16920.21094 0.010118
16920.96094 0.010146
16921.72070 0.010174
16922.48047 0.010202
16923.23047 0.01023
16923.99023 0.010258
16924.74023 0.010287
16925.50000 0.010329
16926.25977 0.010378
16927.00977 0.010427
16927.76953 0.010476
16928.52930 0.010526
16929.27930 0.010575
16930.03906 0.010624
16930.78906 0.010673
16931.55078 0.010722
16932.31055 0.010771
16933.06055 0.01082
16933.82031 0.010869
16934.57031 0.010919
16935.33008 0.010959
16936.08984 0.010989
16936.83984 0.011019
16937.59961 0.011048
16938.35938 0.011078
16939.10938 0.011108
16939.86914 0.011138
16940.63086 0.011168
16941.38086 0.011199
16942.14062 0.01123
16942.90039 0.011261
16943.65039 0.011292
16944.41016 0.011323
16945.16992 0.011358
16945.91992 0.011409
16946.67969 0.011461
16947.43945 0.011512
16948.19922 0.011563
16948.94922 0.011614
16949.71094 0.011665
16950.47070 0.011715
16951.22070 0.011764
16951.98047 0.011813
16952.74023 0.011862
16953.49023 0.011911
16954.25000 0.01196
16955.00977 0.012009
16955.76953 0.012051
16956.51953 0.012094
16957.27930 0.012136
16958.03906 0.012178
16958.80078 0.012221
16959.55078 0.012263
16960.31055 0.012308
16961.07031 0.012358
16961.83008 0.012408
16962.58008 0.012458
16963.33984 0.012507
16964.09961 0.012557
16964.85938 0.012607
16965.61914 0.012657
16966.36914 0.012708
16967.13086 0.012758
16967.89062 0.012808
16968.65039 0.012859
16969.40039 0.012909
16970.16016 0.012958
16970.91992 0.013002
16971.67969 0.013046
16972.43945 0.01309
16973.18945 0.013133
16973.94922 0.013177
16974.71094 0.013221
16975.47070 0.01327
16976.23047 0.013321
16976.98047 0.013373
16977.74023 0.013425
16978.50000 0.013477
16979.25977 0.013528
16980.01953 0.01358
16980.77930 0.013631
16981.53906 0.013682
16982.28906 0.013732
16983.05078 0.013783
16983.81055 0.013834
16984.57031 0.013885
16985.33008 0.013937
16986.08984 0.013992
16986.84961 0.014047
16987.59961 0.014102
16988.35938 0.014157
16989.11914 0.014212
16989.88086 0.014267
16990.64062 0.014325
16991.40039 0.014383
16992.16016 0.014441
16992.91992 0.014499
16993.67969 0.014557
16994.42969 0.014615
16995.18945 0.014675
16995.94922 0.014741
16996.71094 0.014806
16997.47070 0.014871
16998.23047 0.014936
16998.99023 0.015001
16999.75000 0.015066
17000.50977 0.015123
17001.26953 0.015175
17002.02930 0.015227
17002.78906 0.015279
17003.53906 0.015331
17004.30078 0.015383
17005.06055 0.015436
17005.82031 0.015501
17006.58008 0.015567
17007.33984 0.015632
17008.09961 0.015697
17008.85938 0.015762
17009.61914 0.015827
17010.38086 0.015894
17011.14062 0.015962
17011.90039 0.016031
17012.66016 0.016099
17013.41992 0.016168
17014.17969 0.016236
17014.93945 0.016305
17015.69922 0.016371
17016.46094 0.016437
17017.22070 0.016503
17017.98047 0.016568
17018.74023 0.016634
17019.50000 0.0167
17020.25977 0.016767
17021.01953 0.016833
17021.77930 0.016899
17022.53906 0.016966
17023.30078 0.017032
17024.06055 0.017099
17024.82031 0.017165
17025.58008 0.017233
17026.33984 0.017301
17027.10938 0.01737
17027.86914 0.017438
17028.61914 0.017506
17029.39062 0.017575
17030.15039 0.017645
17030.91016 0.01772
17031.66992 0.017796
17032.42969 0.017872
17033.18945 0.017948
17033.94922 0.018024
17034.71094 0.018099
17035.47070 0.018175
17036.23047 0.01825
17036.99023 0.018325
17037.75977 0.0184
17038.51953 0.018475
17039.27930 0.01855
17040.03906 0.018625
17040.80078 0.018707
17041.56055 0.018788
17042.32031 0.01887
17043.08008 0.018951
17043.83984 0.019033
17044.60938 0.019114
17045.36914 0.019187
17046.13086 0.019251
17046.89062 0.019316
17047.65039 0.01938
17048.41016 0.019444
17049.16992 0.019508
17049.93945 0.019572
17050.69922 0.019663
17051.46094 0.019756
17052.22070 0.019849
17052.98047 0.019942
17053.74023 0.020035
17054.50000 0.020128
17055.26953 0.020222
17056.02930 0.020317
17056.78906 0.020413
17057.55078 0.020508
17058.31055 0.020604
17059.08008 0.020699
17059.83984 0.020794
17060.59961 0.020874
17061.35938 0.020949
17062.11914 0.021025
17062.89062 0.021101
17063.65039 0.021176
17064.41016 0.021251
17065.16992 0.021331
17065.92969 0.021427
17066.69922 0.021523
17067.46094 0.021618
17068.22070 0.021714
17068.98047 0.021809
17069.75000 0.021905
17070.50977 0.021996
17071.26953 0.022085
17072.02930 0.022174
17072.80078 0.022263
17073.56055 0.022352
17074.32031 0.022441
17075.08008 0.022531
17075.84961 0.022635
17076.60938 0.022739
17077.36914 0.022842
17078.13086 0.022946
17078.90039 0.02305
17079.66016 0.023154
17080.41992 0.023251
17081.18945 0.023344
17081.94922 0.023437
17082.71094 0.02353
17083.47070 0.023623
17084.24023 0.023716
17085.00000 0.023809
17085.75977 0.02393
17086.52930 0.024052
17087.28906 0.024173
17088.05078 0.024295
17088.82031 0.024416
17089.58008 0.024538
17090.33984 0.024651
17091.10938 0.024754
17091.86914 0.024857
17092.63086 0.02496
17093.40039 0.025062
17094.16016 0.025165
17094.91992 0.025268
17095.68945 0.025385
17096.44922 0.025504
17097.21094 0.025623
17097.98047 0.025742
17098.74023 0.025861
17099.50977 0.02598
17100.26953 0.026096
17101.02930 0.026206
17101.80078 0.026316
17102.56055 0.026426
17103.33008 0.026536
17104.08984 0.026646
17104.84961 0.026756
17105.61914 0.026876
17106.38086 0.026997
17107.14062 0.027119
17107.91016 0.027241
17108.66992 0.027362
17109.43945 0.027484
17110.19922 0.027606
17110.97070 0.027732
17111.73047 0.027857
17112.49023 0.027982
17113.25977 0.028108
17114.01953 0.028233
17114.78906 0.028358
17115.55078 0.028493
17116.32031 0.02863
17117.08008 0.028768
17117.84961 0.028905
17118.60938 0.029043
17119.36914 0.029181
17120.14062 0.029319
17120.90039 0.029457
17121.66992 0.029596
17122.42969 0.029735
17123.19922 0.029874
17123.96094 0.030012
17124.73047 0.030151
17125.49023 0.030289
17126.25977 0.030428
17127.01953 0.030566
17127.78906 0.030704
17128.55078 0.030842
17129.32031 0.03098
17130.08008 0.031119
17130.84961 0.031263
17131.60938 0.031406
17132.38086 0.03155
17133.14062 0.031694
17133.91016 0.031837
17134.66992 0.031981
17135.43945 0.032126
17136.21094 0.032271
17136.97070 0.032417
17137.74023 0.032562
17138.50000 0.032708
17139.26953 0.032854
17140.02930 0.033
17140.80078 0.033155
17141.56055 0.03331
17142.33008 0.033465
17143.09961 0.033621
17143.85938 0.033776
17144.63086 0.033931
17145.39062 0.03409
17146.16016 0.034251
17146.91992 0.034412
17147.68945 0.034574
17148.46094 0.034735
17149.22070 0.034897
17149.99023 0.035059
17150.75000 0.035241
17151.51953 0.035424
17152.28906 0.035607
17153.05078 0.03579
17153.82031 0.035973
17154.58008 0.036156
17155.34961 0.036331
17156.11914 0.036495
17156.88086 0.036659
17157.65039 0.036823
17158.41992 0.036987
17159.17969 0.037151
17159.94922 0.037315
17160.71094 0.037488
17161.48047 0.037661
17162.25000 0.037835
17163.00977 0.038008
17163.77930 0.038182
17164.55078 0.038355
17165.31055 0.038527
17166.08008 0.038696
17166.84961 0.038865
17167.61914 0.039035
17168.38086 0.039204
17169.15039 0.039373
17169.91016 0.039542
17170.67969 0.039733
17171.44922 0.039927
17172.21094 0.040121
17172.98047 0.040315
17173.75000 0.040509
17174.51953 0.040703
17175.27930 0.040899
17176.05078 0.041101
17176.82031 0.041302
17177.58984 0.041504
17178.34961 0.041706
17179.11914 0.041907
17179.89062 0.042109
17180.65039 0.042312
17181.41992 0.042515
17182.18945 0.042718
17182.96094 0.042921
17183.72070 0.043124
17184.49023 0.043327
17185.25977 0.043534
17186.02930 0.043748
17186.78906 0.043962
17187.56055 0.044176
17188.33008 0.04439
17189.09961 0.044605
17189.86914 0.044819
17190.63086 0.045028
17191.40039 0.045235
17192.16992 0.045443
17192.93945 0.045651
17193.71094 0.045859
17194.47070 0.046067
17195.24023 0.046278
17196.00977 0.046496
17196.77930 0.046714
17197.53906 0.046931
17198.31055 0.047149
17199.08008 0.047367
17199.84961 0.047585
17200.61914 0.0478
17201.39062 0.048016
17202.15039 0.04823
17202.91992 0.048445
17203.68945 0.048661
17204.46094 0.048876
17205.23047 0.049099
17206.00000 0.049341
17206.76953 0.049583
17207.52930 0.049825
17208.30078 0.050067
17209.07031 0.050309
17209.83984 0.050551
17210.60938 0.0508
17211.38086 0.051052
17212.14062 0.051304
17212.91016 0.051556
17213.67969 0.051808
17214.44922 0.05206
17215.22070 0.052309
17215.99023 0.052553
17216.75977 0.052795
17217.52930 0.053038
17218.30078 0.053282
17219.07031 0.053525
17219.83008 0.053768
17220.59961 0.05402
17221.36914 0.054274
17222.14062 0.054528
17222.91016 0.054782
17223.67969 0.055037
17224.44922 0.055291
17225.22070 0.055544
17225.99023 0.055797
17226.75977 0.056049
17227.52930 0.056302
17228.30078 0.056554
17229.07031 0.056807
17229.83984 0.057059
17230.60938 0.057318
17231.36914 0.057578
17232.14062 0.057838
17232.91016 0.058098
17233.67969 0.058358
17234.46094 0.058619
17235.22070 0.058888
17235.99023 0.059175
17236.75977 0.059463
17237.52930 0.05975
17238.30078 0.060038
17239.07031 0.060327
17239.83984 0.060615
17240.60938 0.060901
17241.38086 0.061188
17242.15039 0.061475
17242.91992 0.061762
17243.68945 0.062048
17244.46094 0.062336
17245.23047 0.062626
17246.00000 0.062923
17246.77930 0.063221
17247.53906 0.063519
17248.32031 0.063817
17249.08984 0.064114
17249.85938 0.064412
17250.63086 0.064703
17251.40039 0.064993
17252.16992 0.065283
17252.93945 0.065573
17253.71094 0.065863
17254.48047 0.066154
17255.25000 0.066447
17256.01953 0.066748
17256.78906 0.067048
17257.56055 0.067349
17258.33008 0.06765
17259.09961 0.06795
17259.86914 0.068251
17260.65039 0.068545
17261.41992 0.068837
17262.18945 0.069128
17262.96094 0.069421
17263.73047 0.069713
17264.50000 0.070005
17265.26953 0.070308
17266.03906 0.070632
17266.81055 0.070957
17267.58984 0.071281
17268.35938 0.071605
17269.13086 0.07193
17269.90039 0.072254
17270.66992 0.072589
17271.43945 0.072926
17272.21094 0.073263
17272.99023 0.0736
17273.75977 0.073936
17274.52930 0.074273
17275.30078 0.074607
17276.07031 0.074934
17276.83984 0.075262
17277.61914 0.07559
17278.39062 0.075918
17279.16016 0.076245
17279.92969 0.076573
17280.69922 0.076911
17281.47070 0.077251
17282.25000 0.07759
17283.01953 0.077929
17283.78906 0.078268
17284.56055 0.078608
17285.33008 0.078949
17286.10938 0.079293
17286.88086 0.079637
17287.65039 0.079982
17288.41992 0.080326
17289.19922 0.080671
17289.97070 0.081015
17290.74023 0.081351
17291.50977 0.081687
17292.27930 0.082022
17293.06055 0.082359
17293.83008 0.082694
17294.59961 0.08303
17295.36914 0.083367
17296.15039 0.083705
17296.91992 0.084043
17297.68945 0.084381
17298.46094 0.084719
17299.24023 0.085057
17300.00977 0.085395
17300.77930 0.085755
17301.55078 0.086114
17302.33008 0.086473
17303.09961 0.086832
17303.86914 0.087192
17304.65039 0.087552
17305.41992 0.087924
17306.18945 0.088308
17306.96094 0.088692
17307.74023 0.089076
17308.50977 0.08946
17309.27930 0.089844
17310.06055 0.090227
17310.83008 0.090593
17311.59961 0.090959
17312.38086 0.091326
17313.15039 0.091692
17313.91992 0.092058
17314.69922 0.092423
17315.47070 0.09279
17316.24023 0.093158
17317.01953 0.093525
17317.78906 0.093893
17318.56055 0.09426
17319.33984 0.094629
17320.10938 0.094996
17320.88086 0.095364
17321.66016 0.095731
17322.42969 0.096099
17323.21094 0.096467
17323.98047 0.096834
17324.75000 0.097202
17325.52930 0.09757
17326.30078 0.097938
17327.07031 0.098306
17327.84961 0.098674
17328.61914 0.099042
17329.40039 0.09941
17330.16992 0.099777
17330.93945 0.100139
17331.72070 0.100503
17332.49023 0.100866
17333.26953 0.101228
17334.03906 0.101592
17334.81055 0.101955
17335.58984 0.102351
17336.35938 0.102755
17337.14062 0.103161
17337.91016 0.103566
17338.68945 0.103971
17339.46094 0.104376
17340.24023 0.104781
17341.00977 0.105183
17341.78906 0.105586
17342.56055 0.105989
17343.33008 0.106392
17344.10938 0.106795
17344.88086 0.107198
17345.66016 0.107582
17346.42969 0.107963
17347.21094 0.108343
17347.98047 0.108724
17348.75977 0.109104
17349.52930 0.109484
17350.31055 0.109867
17351.08008 0.110251
17351.85938 0.110635
17352.63086 0.111019
17353.41016 0.111403
17354.17969 0.111787
17354.96094 0.112171
17355.73047 0.11255
17356.50977 0.112928
17357.27930 0.113306
17358.06055 0.113685
17358.83008 0.114063
17359.60938 0.114441
17360.38086 0.114816
17361.16016 0.115188
17361.93945 0.115559
17362.71094 0.115931
17363.49023 0.116303
17364.25977 0.116675
17365.03906 0.117047
17365.81055 0.117438
17366.58984 0.117828
17367.35938 0.118218
17368.14062 0.11861
17368.91992 0.119
17369.68945 0.11939
17370.47070 0.119793
17371.24023 0.120205
17372.01953 0.120618
17372.78906 0.12103
17373.57031 0.121442
17374.34961 0.121855
17375.11914 0.122263
17375.90039 0.122648
17376.67969 0.123035
17377.44922 0.123421
17378.23047 0.123806
17379.00000 0.124193
17379.77930 0.124578
17380.56055 0.12495
17381.33008 0.125315
17382.10938 0.125681
17382.88086 0.126047
17383.66016 0.126413
17384.43945 0.126778
17385.21094 0.127149
17385.99023 0.127532
17386.76953 0.127916
17387.53906 0.128301
17388.32031 0.128684
17389.09961 0.129069
17389.86914 0.129453
17390.65039 0.129821
17391.42969 0.130186
17392.21094 0.130551
17392.98047 0.130915
17393.75977 0.13128
17394.53906 0.131646
17395.31055 0.132029
17396.08984 0.132438
17396.86914 0.132848
17397.64062 0.133259
17398.41992 0.133669
17399.19922 0.134079
17399.97070 0.13449
17400.75000 0.134866
17401.52930 0.135241
17402.31055 0.135617
17403.08008 0.135992
17403.85938 0.136367
17404.64062 0.136743
17405.41992 0.137126
17406.18945 0.137517
17406.97070 0.137908
17407.75000 0.138299
17408.52930 0.138689
17409.30078 0.13908
17410.08008 0.139467
17410.85938 0.139819
17411.63086 0.14017
17412.41016 0.140522
17413.18945 0.140874
17413.97070 0.141226
17414.75000 0.141577
17415.51953 0.141926
17416.30078 0.142274
17417.08008 0.142622
17417.85938 0.142969
17418.64062 0.143318
17419.41016 0.143666
17420.18945 0.144015
17420.97070 0.144369
17421.75000 0.144722
17422.52930 0.145076
17423.30078 0.145429
17424.08008 0.145783
17424.85938 0.146137
17425.64062 0.146506
17426.41992 0.14688
17427.19922 0.147253
17427.97070 0.147627
17428.75000 0.148
17429.52930 0.148374
17430.31055 0.148744
17431.08984 0.149106
17431.86914 0.149469
17432.65039 0.149832
17433.41992 0.150194
17434.19922 0.150558
17434.98047 0.150921
17435.75977 0.151273
17436.53906 0.151626
17437.32031 0.151979
17438.09961 0.152332
17438.88086 0.152684
17439.65039 0.153037
17440.42969 0.153369
17441.21094 0.153686
17441.99023 0.154002
17442.76953 0.154318
17443.55078 0.154634
17444.33008 0.15495
17445.10938 0.155267
17445.89062 0.155584
17446.66992 0.1559
17447.44922 0.156217
17448.22070 0.156534
17449.00000 0.156851
17449.77930 0.157168
17450.56055 0.157489
17451.33984 0.157811
17452.11914 0.158133
17452.90039 0.158456
17453.67969 0.158778
17454.46094 0.1591
17455.24023 0.15942
17456.01953 0.159737
17456.80078 0.160054
17457.58008 0.160372
17458.35938 0.160688
17459.14062 0.161005
17459.91992 0.161322
17460.69922 0.16163
17461.48047 0.161936
17462.25977 0.162242
17463.03906 0.162548
17463.82031 0.162854
17464.59961 0.16316
17465.38086 0.16348
17466.16016 0.163812
17466.93945 0.164146
17467.72070 0.164479
17468.50000 0.164812
17469.27930 0.165145
17470.06055 0.165476
17470.83984 0.165782
17471.61914 0.166088
17472.40039 0.166394
17473.17969 0.166701
17473.96094 0.167006
17474.74023 0.167313
17475.51953 0.16759
17476.30078 0.167854
17477.08008 0.168117
17477.85938 0.16838
17478.64062 0.168644
17479.42969 0.168908
17480.21094 0.169177
17480.99023 0.16946
17481.76953 0.169745
17482.55078 0.170029
17483.33008 0.170313
17484.10938 0.170596
17484.89062 0.17088
17485.66992 0.171152
17486.44922 0.171421
17487.23047 0.17169
17488.01953 0.171959
17488.80078 0.172228
17489.58008 0.172498
17490.35938 0.17277
17491.14062 0.173046
17491.91992 0.173322
17492.69922 0.173598
17493.48047 0.173874
17494.26953 0.17415
17495.05078 0.174427
17495.83008 0.174716
17496.60938 0.175006
17497.39062 0.175295
17498.16992 0.175585
17498.94922 0.175874
17499.74023 0.176165
17500.51953 0.17642
17501.30078 0.176658
17502.08008 0.176896
17502.85938 0.177134
17503.64062 0.177372
17504.42969 0.17761
17505.21094 0.177851
17505.99023 0.178104
17506.76953 0.178356
17507.55078 0.178609
17508.33984 0.178862
17509.11914 0.179114
17509.90039 0.179367
17510.67969 0.179599
17511.46094 0.179829
17512.25000 0.18006
17513.02930 0.180289
17513.81055 0.18052
17514.58984 0.18075
17515.36914 0.180979
17516.16016 0.181208
17516.93945 0.181436
17517.72070 0.181665
17518.50000 0.181893
17519.28906 0.182121
17520.07031 0.182351
17520.84961 0.182584
17521.63086 0.182818
17522.41992 0.183051
17523.19922 0.183285
17523.98047 0.183518
17524.76953 0.183752
17525.55078 0.183996
17526.33008 0.184245
17527.10938 0.184493
17527.90039 0.184742
17528.67969 0.184991
17529.46094 0.18524
17530.25000 0.185477
17531.02930 0.185689
17531.81055 0.185901
17532.58984 0.186113
17533.38086 0.186325
17534.16016 0.186537
17534.93945 0.186749
17535.73047 0.186947
17536.50977 0.187143
17537.28906 0.18734
17538.08008 0.187536
17538.85938 0.187733
17539.64062 0.187929
17540.42969 0.188131
17541.21094 0.188335
17541.99023 0.18854
17542.77930 0.188745
17543.56055 0.188949
17544.33984 0.189154
17545.13086 0.189356
17545.91016 0.189543
17546.69922 0.18973
17547.48047 0.189917
17548.25977 0.190104
17549.05078 0.190291
17549.83008 0.190478
17550.61914 0.190665
17551.40039 0.190851
17552.17969 0.191038
17552.97070 0.191225
17553.75000 0.191412
17554.53906 0.191599
17555.32031 0.191792
17556.09961 0.191995
17556.89062 0.192197
17557.66992 0.1924
17558.46094 0.192602
17559.24023 0.192805
17560.01953 0.193007
17560.81055 0.193196
17561.58984 0.193384
17562.38086 0.193573
17563.16016 0.193761
17563.94922 0.193949
17564.73047 0.194138
17565.51953 0.194327
17566.30078 0.194516
17567.08008 0.194705
17567.86914 0.194894
17568.65039 0.195083
17569.43945 0.195272
17570.22070 0.195454
17571.00977 0.195616
17571.78906 0.195778
17572.58008 0.19594
17573.35938 0.196103
17574.15039 0.196265
17574.92969 0.196428
17575.72070 0.196588
17576.50000 0.196747
17577.28906 0.196907
17578.07031 0.197067
17578.85938 0.197227
17579.64062 0.197387
17580.42969 0.197552
17581.21094 0.197721
17582.00000 0.19789
17582.77930 0.19806
17583.57031 0.198229
17584.34961 0.198398
17585.14062 0.198567
17585.92969 0.198737
17586.71094 0.198906
17587.50000 0.199075
17588.27930 0.199244
17589.07031 0.199413
17589.84961 0.199582
17590.64062 0.199747
17591.41992 0.199911
17592.21094 0.200074
17593.00000 0.200239
17593.77930 0.200402
17594.57031 0.200566
17595.34961 0.200732
17596.14062 0.200899
17596.92969 0.201067
17597.71094 0.201234
17598.50000 0.201401
17599.27930 0.201569
17600.07031 0.201734
17600.85938 0.201878
17601.64062 0.202021
17602.42969 0.202165
17603.21094 0.202308
17604.00000 0.202452
17604.78906 0.202595
17605.57031 0.202743
17606.35938 0.202893
17607.14062 0.203042
17607.92969 0.203191
17608.72070 0.203341
17609.50000 0.20349
17610.28906 0.20364
17611.08008 0.20379
17611.86914 0.203939
17612.65039 0.204089
17613.43945 0.204238
17614.22070 0.204388
17615.00977 0.204538
17615.80078 0.204689
17616.58008 0.204841
17617.36914 0.204993
17618.16016 0.205145
17618.94922 0.205297
17619.73047 0.205449
17620.51953 0.205608
17621.31055 0.205769
17622.08984 0.205931
17622.88086 0.206093
17623.66992 0.206255
17624.46094 0.206417
17625.24023 0.206574
17626.02930 0.206721
17626.82031 0.206868
17627.59961 0.207015
17628.39062 0.207162
17629.17969 0.207309
17629.97070 0.207456
17630.75000 0.207581
17631.53906 0.207705
17632.33008 0.207829
17633.11914 0.207952
17633.90039 0.208076
17634.68945 0.2082
17635.48047 0.208324
17636.26953 0.208449
17637.05078 0.208573
17637.83984 0.208697
17638.63086 0.208821
17639.41992 0.208945
17640.21094 0.209074
17640.99023 0.209216
17641.77930 0.209357
17642.57031 0.209499
17643.35938 0.20964
17644.15039 0.209782
17644.92969 0.209923
17645.72070 0.21006
17646.50977 0.210197
17647.30078 0.210334
17648.08984 0.210471
17648.88086 0.210608
17649.66016 0.210744
17650.44922 0.210878
17651.24023 0.211008
17652.02930 0.211138
17652.82031 0.211269
17653.60938 0.211399
17654.39062 0.21153
17655.17969 0.21166
17655.97070 0.211788
17656.75977 0.211917
17657.55078 0.212045
17658.33984 0.212174
17659.13086 0.212303
17659.91016 0.212431
17660.69922 0.212551
17661.49023 0.212669
17662.27930 0.212788
17663.07031 0.212906
17663.85938 0.213025
17664.65039 0.213143
17665.43945 0.213264
17666.22070 0.213386
17667.00977 0.213508
17667.80078 0.213631
17668.58984 0.213753
17669.38086 0.213875
17670.16992 0.213995
17670.96094 0.214103
17671.75000 0.214211
17672.53906 0.21432
17673.33008 0.214428
17674.11914 0.214537
17674.91016 0.214645
17675.69922 0.214753
17676.49023 0.214862
17677.27930 0.21497
17678.06055 0.215078
17678.85938 0.215186
17679.64062 0.215294
17680.42969 0.215417
17681.22070 0.215552
17682.00977 0.215686
17682.80078 0.215821
17683.58984 0.215956
17684.38086 0.21609
17685.16992 0.216218
17685.96094 0.216318
17686.75000 0.216418
17687.53906 0.216518
17688.33008 0.216617
17689.11914 0.216718
17689.91016 0.216818
17690.69922 0.216916
17691.49023 0.217014
17692.27930 0.217113
17693.07031 0.217211
17693.85938 0.217309
17694.65039 0.217408
17695.44922 0.217507
17696.23047 0.217606
17697.02930 0.217704
17697.82031 0.217804
17698.60938 0.217902
17699.40039 0.218001
17700.18945 0.2181
17700.98047 0.218199
17701.76953 0.218298
17702.56055 0.218396
17703.34961 0.218495
17704.14062 0.218594
17704.92969 0.218693
17705.72070 0.218793
17706.50977 0.218894
17707.30078 0.218994
17708.08984 0.219095
17708.88086 0.219195
17709.67969 0.219296
17710.47070 0.21939
17711.25977 0.219479
17712.05078 0.219567
17712.83984 0.219656
17713.63086 0.219745
17714.41992 0.219834
17715.21094 0.219922
17716.00977 0.220009
17716.80078 0.220097
17717.58984 0.220184
17718.38086 0.220271
17719.16992 0.220358
17719.96094 0.220445
17720.75000 0.220525
17721.53906 0.220604
17722.33984 0.220683
17723.13086 0.220762
17723.91992 0.220841
17724.71094 0.22092
17725.50000 0.221
17726.28906 0.221081
17727.08984 0.221162
17727.88086 0.221243
17728.66992 0.221324
17729.46094 0.221405
17730.25000 0.221478
17731.05078 0.221534
17731.83984 0.221591
17732.63086 0.221647
17733.41992 0.221703
17734.21094 0.221759
17735.00977 0.221815
17735.80078 0.221897
17736.58984 0.221979
17737.38086 0.222061
17738.17969 0.222144
17738.97070 0.222225
17739.75977 0.222308
17740.55078 0.222374
17741.33984 0.222433
17742.14062 0.222493
17742.92969 0.222552
17743.72070 0.222612
17744.50977 0.222671
17745.31055 0.22274
17746.09961 0.222823
17746.89062 0.222907
17747.68945 0.22299
17748.48047 0.223073
17749.26953 0.223157
17750.06055 0.223238
17750.85938 0.223295
17751.65039 0.223351
17752.43945 0.223408
17753.23047 0.223465
17754.02930 0.223522
17754.82031 0.223579
17755.60938 0.223641
17756.41016 0.223705
17757.19922 0.22377
17757.99023 0.223834
17758.78906 0.223898
17759.58008 0.223963
17760.36914 0.22402
17761.16992 0.22407
17761.96094 0.22412
17762.75000 0.22417
17763.53906 0.22422
17764.33984 0.224271
17765.13086 0.224322
17765.92969 0.224382
17766.72070 0.224442
17767.50977 0.224502
17768.31055 0.224562
17769.09961 0.224621
17769.89062 0.224681
17770.68945 0.224726
17771.48047 0.22477
17772.27930 0.224812
17773.07031 0.224855
17773.85938 0.224898
17774.66016 0.224941
17775.44922 0.22498
17776.24023 0.225016
17777.03906 0.225051
17777.83008 0.225087
17778.63086 0.225122
17779.41992 0.225158
17780.21094 0.225198
17781.00977 0.22525
17781.80078 0.225302
17782.59961 0.225354
17783.39062 0.225406
17784.18945 0.225458
17784.98047 0.22551
17785.77930 0.225545
17786.57031 0.225579
17787.35938 0.225613
17788.16016 0.225647
17788.94922 0.225681
17789.75000 0.225715
17790.53906 0.225736
17791.33984 0.225752
17792.13086 0.225768
17792.92969 0.225783
17793.72070 0.225799
17794.51953 0.225814
17795.31055 0.225839
17796.10938 0.225879
17796.90039 0.225918
17797.69922 0.225958
17798.49023 0.225997
17799.28906 0.226037
17800.08008 0.226074
17800.86914 0.226088
17801.66992 0.226103
17802.46094 0.226118
17803.25977 0.226132
17804.05078 0.226147
17804.84961 0.226162
17805.65039 0.22618
17806.43945 0.226198
17807.24023 0.226217
17808.02930 0.226236
17808.83008 0.226255
17809.61914 0.226273
17810.41992 0.226301
17811.21094 0.226337
17812.00977 0.226373
17812.80078 0.226408
17813.59961 0.226444
17814.40039 0.22648
17815.18945 0.226514
17815.99023 0.226545
17816.77930 0.226575
17817.58008 0.226605
17818.38086 0.226635
17819.16992 0.226665
17819.97070 0.226695
17820.75977 0.226688
17821.56055 0.22668
17822.34961 0.226672
17823.15039 0.226664
17823.94922 0.226656
17824.74023 0.226648
17825.53906 0.226657
17826.33984 0.226674
17827.13086 0.226692
17827.92969 0.226709
17828.72070 0.226727
17829.51953 0.226744
17830.32031 0.226749
17831.10938 0.226736
17831.91016 0.226722
17832.71094 0.226708
17833.50000 0.226694
17834.30078 0.22668
17835.09961 0.226668
17835.89062 0.226673
17836.68945 0.226678
17837.49023 0.226683
17838.27930 0.226688
17839.08008 0.226694
17839.86914 0.226699
17840.66992 0.226699
17841.47070 0.226699
17842.26953 0.226699
17843.06055 0.226699
17843.85938 0.2267
17844.66016 0.226699
17845.46094 0.226701
17846.25000 0.226703
17847.05078 0.226704
17847.84961 0.226706
17848.64062 0.226708
17849.43945 0.22671
17850.24023 0.226709
17851.03906 0.2267
17851.83008 0.226692
17852.63086 0.226683
17853.42969 0.226675
17854.22070 0.226666
17855.01953 0.226657
17855.82031 0.226636
17856.61914 0.226614
17857.41016 0.226593
17858.21094 0.226572
17859.00977 0.22655
17859.81055 0.226529
17860.60938 0.226518
17861.40039 0.22651
17862.19922 0.226502
17863.00000 0.226495
17863.80078 0.226487
17864.58984 0.22648
17865.39062 0.226463
17866.18945 0.226439
17866.99023 0.226414
17867.78906 0.226389
17868.58008 0.226364
17869.38086 0.22634
17870.17969 0.226316
17870.98047 0.226294
17871.77930 0.226273
17872.57031 0.226252
17873.36914 0.226231
17874.16992 0.226209
17874.97070 0.226188
17875.76953 0.226166
17876.57031 0.226145
17877.36914 0.226124
17878.16016 0.226102
17878.96094 0.22608
17879.75977 0.226059
17880.56055 0.226039
17881.35938 0.22602
17882.16016 0.226001
17882.96094 0.225982
17883.75000 0.225962
17884.55078 0.225943
17885.34961 0.225915
17886.15039 0.225876
17886.94922 0.225836
17887.75000 0.225796
17888.55078 0.225757
17889.34961 0.225717
17890.14062 0.225678
17890.94922 0.225638
17891.74023 0.225598
17892.53906 0.225559
17893.33984 0.225519
17894.14062 0.22548
17894.93945 0.22544
17895.74023 0.225414
17896.53906 0.225389
17897.33984 0.225365
17898.14062 0.22534
17898.93945 0.225315
17899.74023 0.225291
17900.53906 0.225258
17901.33984 0.225222
17902.13086 0.225187
17902.93945 0.225151
17903.73047 0.225115
17904.52930 0.225079
17905.33008 0.225035
17906.13086 0.22498
17906.92969 0.224925
17907.73047 0.22487
17908.52930 0.224814
17909.33008 0.224759
17910.13086 0.224705
17910.92969 0.224655
17911.73047 0.224606
17912.52930 0.224556
17913.33008 0.224506
17914.13086 0.224457
17914.92969 0.224407
17915.73047 0.224355
17916.52930 0.224302
17917.33008 0.224249
17918.13086 0.224196
17918.92969 0.224143
17919.73047 0.22409
17920.53906 0.224045
17921.33984 0.224004
17922.14062 0.223963
17922.93945 0.223922
17923.74023 0.223881
17924.53906 0.22384
17925.33984 0.2238
17926.14062 0.223762
17926.93945 0.223724
17927.74023 0.223687
17928.53906 0.223649
17929.33984 0.223611
17930.14062 0.22357
17930.93945 0.22351
17931.74023 0.223451
17932.53906 0.223392
17933.34961 0.223332
17934.15039 0.223273
17934.94922 0.223214
17935.75000 0.223157
17936.55078 0.223101
17937.34961 0.223044
17938.15039 0.222988
17938.94922 0.222931
17939.75977 0.222875
17940.56055 0.222824
17941.35938 0.222775
17942.16016 0.222726
17942.96094 0.222677
17943.75977 0.222629
17944.56055 0.22258
17945.36914 0.222525
17946.16992 0.222462
17946.97070 0.2224
17947.76953 0.222337
17948.57031 0.222275
17949.36914 0.222212
17950.16992 0.222152
17950.98047 0.2221
17951.77930 0.222048
17952.58008 0.221995
17953.38086 0.221943
17954.17969 0.221891
17954.99023 0.221838
17955.78906 0.221789
17956.58984 0.22174
17957.39062 0.221691
17958.18945 0.221642
17959.00000 0.221593
17959.80078 0.221544
17960.59961 0.221487
17961.40039 0.221428
17962.21094 0.221369
17963.00977 0.221309
17963.81055 0.22125
17964.60938 0.221191
17965.41016 0.221123
17966.22070 0.221046
17967.01953 0.220969
17967.82031 0.220892
17968.61914 0.220815
17969.42969 0.220739
17970.23047 0.220673
17971.02930 0.220637
17971.83008 0.2206
17972.64062 0.220563
17973.43945 0.220526
17974.24023 0.220489
17975.03906 0.22045
17975.84961 0.220379
17976.65039 0.220307
17977.46094 0.220235
17978.25977 0.220164
17979.06055 0.220092
17979.85938 0.220021
17980.66992 0.219966
17981.47070 0.219915
17982.26953 0.219864
17983.08008 0.219813
17983.88086 0.219762
17984.67969 0.219711
17985.49023 0.219656
17986.28906 0.219599
17987.08984 0.219541
17987.90039 0.219484
17988.69922 0.219426
17989.50000 0.219369
17990.31055 0.219312
17991.10938 0.219257
17991.91016 0.219201
17992.72070 0.219146
17993.51953 0.21909
17994.32031 0.219035
17995.13086 0.218977
17995.92969 0.218911
17996.74023 0.218845
17997.53906 0.218778
17998.33984 0.218712
17999.15039 0.218645
17999.94922 0.218579
18000.75977 0.218511
18001.56055 0.218443
18002.35938 0.218374
18003.16992 0.218306
18003.97070 0.218238
18004.77930 0.21817
18005.58008 0.218105
18006.38086 0.218041
18007.18945 0.217977
18007.99023 0.217913
18008.80078 0.217849
18009.59961 0.217785
18010.41016 0.21772
18011.21094 0.217655
18012.01953 0.21759
18012.82031 0.217525
18013.61914 0.21746
18014.42969 0.217395
18015.23047 0.217329
18016.03906 0.217259
18016.83984 0.217189
18017.65039 0.217119
18018.44922 0.217049
18019.25977 0.216979
18020.06055 0.216911
18020.86914 0.216861
18021.66992 0.21681
18022.48047 0.21676
18023.27930 0.21671
18024.08984 0.21666
18024.89062 0.21661
18025.69922 0.216528
18026.50000 0.216441
18027.31055 0.216354
18028.10938 0.216267
18028.91992 0.21618
18029.72070 0.216093
18030.52930 0.216027
18031.33008 0.215972
18032.14062 0.215917
18032.93945 0.215863
18033.75000 0.215808
18034.55078 0.215753
18035.35938 0.215697
18036.16992 0.215638
18036.97070 0.21558
18037.77930 0.215521
18038.58008 0.215463
18039.39062 0.215404
18040.18945 0.215347
18041.00000 0.215294
18041.80078 0.215241
18042.60938 0.215188
18043.41992 0.215135
18044.22070 0.215082
18045.02930 0.215028
18045.83984 0.214962
18046.64062 0.214897
18047.44922 0.214831
18048.25000 0.214765
18049.06055 0.214699
18049.86914 0.214634
18050.66992 0.214573
18051.48047 0.214513
18052.28906 0.214454
18053.08984 0.214395
18053.90039 0.214335
18054.69922 0.214276
18055.50977 0.214231
18056.32031 0.214195
18057.11914 0.214159
18057.92969 0.214122
18058.74023 0.214086
18059.53906 0.21405
18060.34961 0.213995
18061.16016 0.213916
18061.96094 0.213837
18062.76953 0.213758
18063.58008 0.213679
18064.38086 0.2136
18065.18945 0.213531
18066.00000 0.213491
18066.80078 0.213451
18067.60938 0.213411
18068.41992 0.213371
18069.22070 0.213331
18070.02930 0.21329
18070.83984 0.213241
18071.65039 0.213192
18072.44922 0.213143
18073.25977 0.213093
18074.07031 0.213044
18074.86914 0.212995
18075.67969 0.212946
18076.49023 0.212897
18077.30078 0.212848
18078.09961 0.212799
18078.91016 0.212751
18079.72070 0.212702
18080.52930 0.212663
18081.33008 0.21263
18082.14062 0.212596
18082.94922 0.212563
18083.75977 0.21253
18084.56055 0.212496
18085.36914 0.212461
18086.17969 0.212424
18086.99023 0.212387
18087.80078 0.212349
18088.59961 0.212312
18089.41016 0.212275
18090.22070 0.212232
18091.02930 0.212175
18091.83984 0.212117
18092.64062 0.21206
18093.44922 0.212002
18094.25977 0.211945
18095.07031 0.211888
18095.88086 0.211847
18096.68945 0.211806
18097.49023 0.211764
18098.30078 0.211723
18099.10938 0.211681
18099.91992 0.21164
18100.73047 0.211604
18101.53906 0.211569
18102.33984 0.211533
18103.15039 0.211498
18103.96094 0.211462
18104.76953 0.211427
18105.58008 0.211393
18106.39062 0.211359
18107.19922 0.211325
18108.00000 0.211291
18108.81055 0.211258
18109.61914 0.211224
18110.42969 0.211193
18111.24023 0.211166
18112.05078 0.211138
18112.85938 0.211111
18113.66992 0.211083
18114.48047 0.211055
18115.28906 0.211033
18116.08984 0.211019
18116.90039 0.211007
18117.71094 0.210994
18118.51953 0.21098
18119.33008 0.210968
18120.14062 0.210949
18120.94922 0.210901
18121.75977 0.210853
18122.57031 0.210805
18123.38086 0.210757
18124.18945 0.210709
18125.00000 0.210662
18125.81055 0.210643
18126.61914 0.210623
18127.42969 0.210604
18128.24023 0.210585
18129.03906 0.210566
18129.85938 0.210547
18130.66016 0.210536
18131.47070 0.210525
18132.28906 0.210515
18133.08984 0.210505
18133.90039 0.210494
18134.71094 0.210484
18135.51953 0.210463
18136.33008 0.210437
18137.14062 0.210411
18137.96094 0.210385
18138.75977 0.210359
18139.57031 0.210333
18140.38086 0.210319
18141.19922 0.210319
18142.00977 0.210319
18142.82031 0.210319
18143.63086 0.210319
18144.43945 0.210319
18145.25000 0.210313
18146.06055 0.210292
18146.86914 0.210271
18147.67969 0.21025
18148.49023 0.210229
18149.30078 0.210208
18150.10938 0.210189
18150.91992 0.210185
18151.73047 0.210181
18152.53906 0.210176
18153.34961 0.210172
18154.16016 0.210168
18154.97070 0.210164
18155.78906 0.210154
18156.59961 0.210143
18157.41016 0.210133
18158.22070 0.210122
18159.02930 0.210112
18159.83984 0.210102
18160.65039 0.210088
18161.46094 0.210074
18162.26953 0.21006
18163.08984 0.210046
18163.90039 0.210032
18164.71094 0.210018
18165.51953 0.210014
18166.33008 0.210016
18167.14062 0.210018
18167.94922 0.21002
18168.76953 0.210022
18169.58008 0.210024
18170.39062 0.21003
18171.19922 0.21004
18172.00977 0.21005
18172.82031 0.210061
18173.63086 0.210071
18174.44922 0.210081
18175.25977 0.210085
18176.07031 0.210075
18176.88086 0.210065
18177.68945 0.210055
18178.50977 0.210045
18179.32031 0.210036
18180.13086 0.210027
18180.93945 0.210023
18181.75000 0.210019
18182.57031 0.210016
18183.38086 0.210012
18184.18945 0.210008
18185.00000 0.210005
18185.81055 0.210024
18186.63086 0.210043
18187.43945 0.210062
18188.25000 0.210081
18189.06055 0.2101
18189.88086 0.210119
18190.68945 0.210123
18191.50000 0.210125
18192.31055 0.210127
18193.13086 0.21013
18193.93945 0.210132
18194.75000 0.210134
18195.56055 0.210134
18196.38086 0.210134
18197.18945 0.210134
18198.00000 0.210134
18198.82031 0.210134
18199.63086 0.210133
18200.43945 0.210132
18201.25000 0.210129
18202.07031 0.210126
18202.88086 0.210124
18203.68945 0.210121
18204.50977 0.210119
18205.32031 0.210121
18206.13086 0.210131
18206.94922 0.210142
18207.75977 0.210152
18208.57031 0.210162
18209.38086 0.210173
18210.19922 0.210185
18211.00977 0.210205
18211.83008 0.210225
18212.64062 0.210244
18213.44922 0.210264
18214.26953 0.210283
18215.08008 0.210302
18215.89062 0.210315
18216.71094 0.210329
18217.51953 0.210342
18218.33008 0.210355
18219.15039 0.210369
18219.96094 0.210382
18220.77930 0.210381
18221.58984 0.210379
18222.40039 0.210377
18223.22070 0.210376
18224.02930 0.210374
18224.84961 0.210372
18225.66016 0.210395
18226.47070 0.210424
18227.28906 0.210452
18228.09961 0.210481
18228.91992 0.210509
18229.73047 0.210538
18230.53906 0.210561
18231.35938 0.21058
18232.16992 0.2106
18232.99023 0.21062
18233.80078 0.21064
18234.61914 0.210659
18235.42969 0.21068
18236.24023 0.210701
18237.06055 0.210722
18237.86914 0.210744
18238.68945 0.210765
18239.50000 0.210786
18240.32031 0.210806
18241.13086 0.210824
18241.94922 0.210842
18242.75977 0.21086
18243.58008 0.210878
18244.39062 0.210896
18245.21094 0.210915
18246.01953 0.210934
18246.83984 0.210954
18247.65039 0.210974
18248.47070 0.210993
18249.27930 0.211013
18250.09961 0.211033
18250.91016 0.211057
18251.73047 0.211082
18252.53906 0.211106
18253.35938 0.21113
18254.16992 0.211154
18254.99023 0.211179
18255.80078 0.211213
18256.61914 0.211249
18257.42969 0.211283
18258.25000 0.211318
18259.06055 0.211353
18259.88086 0.211388
18260.69922 0.21143
18261.50977 0.211473
18262.33008 0.211515
18263.14062 0.211558
18263.96094 0.211601
18264.77930 0.211644
18265.58984 0.211664
18266.41016 0.211676
18267.22070 0.211689
18268.03906 0.211701
18268.84961 0.211713
18269.66992 0.211725
18270.49023 0.211745
18271.30078 0.211769
18272.11914 0.211793
18272.92969 0.211817
18273.75000 0.211841
18274.57031 0.211866
18275.38086 0.211894
18276.19922 0.211927
18277.01953 0.21196
18277.83008 0.211993
18278.65039 0.212026
18279.46094 0.212058
18280.27930 0.21209
18281.09961 0.21212
18281.91016 0.212149
18282.73047 0.212179
18283.55078 0.212208
18284.35938 0.212238
18285.17969 0.212272
18286.00000 0.212324
18286.81055 0.212376
18287.63086 0.212427
18288.44922 0.212479
18289.26953 0.212531
18290.08008 0.212582
18290.90039 0.212628
18291.71094 0.212674
18292.52930 0.21272
18293.34961 0.212766
18294.16992 0.212812
18294.98047 0.212859
18295.80078 0.212878
18296.61914 0.212898
18297.43945 0.212917
18298.25000 0.212936
18299.07031 0.212955
18299.89062 0.212975
18300.71094 0.213017
18301.51953 0.213064
18302.33984 0.21311
18303.16016 0.213157
18303.97070 0.213203
18304.78906 0.21325
18305.60938 0.213305
18306.42969 0.213364
18307.24023 0.213422
18308.06055 0.213481
18308.88086 0.21354
18309.69922 0.213598
18310.51953 0.213655
18311.33008 0.213712
18312.15039 0.213769
18312.97070 0.213825
18313.78906 0.213882
18314.60938 0.213939
18315.41992 0.213994
18316.24023 0.214047
18317.06055 0.2141
18317.88086 0.214153
18318.69922 0.214206
18319.50977 0.214259
18320.33008 0.214314
18321.15039 0.214372
18321.97070 0.21443
18322.78906 0.214488
18323.60938 0.214547
18324.41992 0.214605
18325.24023 0.214661
18326.06055 0.214713
18326.88086 0.214765
18327.69922 0.214818
18328.51953 0.21487
18329.33984 0.214922
18330.15039 0.214976
18330.97070 0.215041
18331.78906 0.215105
18332.60938 0.21517
18333.42969 0.215235
18334.25000 0.215299
18335.07031 0.215362
18335.89062 0.215406
18336.71094 0.215449
18337.51953 0.215493
18338.33984 0.215537
18339.16016 0.21558
18339.98047 0.215624
18340.80078 0.215673
18341.61914 0.215722
18342.43945 0.215771
18343.25977 0.21582
18344.08008 0.21587
18344.90039 0.215919
18345.72070 0.215963
18346.53906 0.216006
18347.35938 0.216049
18348.16992 0.216092
18348.99023 0.216136
18349.81055 0.216179
18350.63086 0.216237
18351.44922 0.216299
18352.26953 0.216362
18353.08984 0.216424
18353.91016 0.216487
18354.73047 0.216549
18355.55078 0.216629
18356.36914 0.216718
18357.18945 0.216806
18358.00977 0.216895
18358.83008 0.216983
18359.65039 0.217072
18360.47070 0.217136
18361.28906 0.217182
18362.10938 0.217228
18362.92969 0.217274
18363.75000 0.21732
18364.57031 0.217366
18365.39062 0.217421
18366.21094 0.217485
18367.02930 0.217549
18367.84961 0.217613
18368.66992 0.217677
18369.49023 0.217742
18370.31055 0.217809
18371.13086 0.217883
18371.96094 0.217956
18372.77930 0.21803
18373.59961 0.218104
18374.41992 0.218177
18375.24023 0.21824
18376.06055 0.218277
18376.88086 0.218314
18377.69922 0.218351
18378.51953 0.218388
18379.33984 0.218424
18380.16016 0.218464
18380.98047 0.218518
18381.80078 0.218571
18382.63086 0.218625
18383.44922 0.218678
18384.26953 0.218732
18385.08984 0.218787
18385.91016 0.218856
18386.73047 0.218925
18387.55078 0.218993
18388.38086 0.219062
18389.19922 0.219131
18390.01953 0.219198
18390.83984 0.219222
18391.66016 0.219245
18392.48047 0.219269
18393.30078 0.219292
18394.13086 0.219316
18394.94922 0.219339
18395.76953 0.21941
18396.58984 0.219485
18397.41016 0.219559
18398.23047 0.219634
18399.05078 0.219708
18399.88086 0.219782
18400.69922 0.219853
18401.51953 0.219923
18402.33984 0.219994
18403.16016 0.220064
18403.99023 0.220135
18404.81055 0.220205
18405.63086 0.220253
18406.44922 0.220294
18407.27930 0.220335
18408.09961 0.220376
18408.91992 0.220417
18409.74023 0.220459
18410.56055 0.220501
18411.39062 0.220543
18412.21094 0.220586
18413.02930 0.220629
18413.84961 0.220671
18414.67969 0.220714
18415.50000 0.220785
18416.32031 0.220876
18417.14062 0.220967
18417.96094 0.221057
18418.78906 0.221148
18419.60938 0.221239
18420.42969 0.221294
18421.25977 0.221317
18422.08008 0.22134
18422.90039 0.221363
18423.72070 0.221386
18424.55078 0.221409
18425.36914 0.221444
18426.18945 0.221493
18427.01953 0.221541
18427.83984 0.22159
18428.66016 0.221638
18429.49023 0.221687
18430.31055 0.221732
18431.13086 0.22177
18431.96094 0.221809
18432.77930 0.221847
18433.59961 0.221886
18434.42969 0.221924
18435.25000 0.221963
18436.07031 0.222003
18436.90039 0.222044
18437.72070 0.222084
18438.53906 0.222125
18439.36914 0.222165
18440.18945 0.222207
18441.00977 0.22225
18441.83984 0.222294
18442.66016 0.222337
18443.48047 0.222381
18444.31055 0.222424
18445.13086 0.222465
18445.96094 0.222494
18446.77930 0.222522
18447.59961 0.22255
18448.42969 0.222579
18449.25000 0.222607
18450.08008 0.222635
18450.90039 0.222661
18451.72070 0.222686
18452.55078 0.222711
18453.36914 0.222737
18454.19922 0.222762
18455.01953 0.222788
18455.84961 0.22283
18456.66992 0.222872
18457.49023 0.222914
18458.32031 0.222956
18459.14062 0.222998
18459.97070 0.22304
18460.78906 0.223086
18461.61914 0.223132
18462.43945 0.223178
18463.26953 0.223224
18464.08984 0.223271
18464.91992 0.223317
18465.74023 0.223361
18466.56055 0.223404
18467.39062 0.223448
18468.21094 0.223491
18469.03906 0.223535
18469.85938 0.223578
18470.68945 0.223596
18471.50977 0.223609
18472.33984 0.223622
18473.16016 0.223634
18473.99023 0.223647
18474.81055 0.22366
18475.64062 0.223701
18476.46094 0.22375
18477.28906 0.2238
18478.11914 0.223849
18478.93945 0.223899
18479.76953 0.223948
18480.58984 0.22399
18481.41992 0.224027
18482.24023 0.224065
18483.07031 0.224103
18483.89062 0.224141
18484.72070 0.224179
18485.53906 0.224203
18486.36914 0.224219
18487.19922 0.224235
18488.01953 0.224251
18488.84961 0.224268
18489.66992 0.224284
18490.50000 0.224312
18491.33008 0.224347
18492.15039 0.224383
18492.98047 0.224418
18493.80078 0.224454
18494.63086 0.224489
18495.46094 0.224522
18496.27930 0.224551
18497.10938 0.224581
18497.92969 0.224611
18498.75977 0.224641
18499.58984 0.224671
18500.41016 0.224698
18501.24023 0.224721
18502.06055 0.224744
18502.89062 0.224767
18503.72070 0.22479
18504.53906 0.224813
18505.36914 0.224839
18506.19922 0.22487
18507.01953 0.2249
18507.84961 0.224931
18508.67969 0.224961
18509.50000 0.224992
18510.33008 0.225024
18511.16016 0.22506
18511.98047 0.225095
18512.81055 0.22513
18513.64062 0.225165
18514.46094 0.225201
18515.28906 0.225226
18516.11914 0.225232
18516.94922 0.225238
18517.76953 0.225244
18518.59961 0.22525
18519.42969 0.225256
18520.25000 0.225258
18521.08008 0.225251
18521.91016 0.225243
18522.74023 0.225236
18523.56055 0.225228
18524.39062 0.225221
18525.22070 0.22523
18526.03906 0.225283
18526.86914 0.225336
18527.69922 0.22539
18528.52930 0.225443
18529.35938 0.225497
18530.17969 0.225535
18531.00977 0.225519
18531.83984 0.225503
18532.66992 0.225487
18533.49023 0.225471
18534.32031 0.225456
18535.15039 0.225443
18535.98047 0.225447
18536.81055 0.22545
18537.63086 0.225454
18538.46094 0.225458
18539.28906 0.225461
18540.11914 0.225465
18540.94922 0.225472
18541.76953 0.225478
18542.59961 0.225485
18543.42969 0.225492
18544.25977 0.225498
18545.08984 0.225504
18545.91992 0.225507
18546.74023 0.22551
18547.57031 0.225513
18548.40039 0.225516
18549.23047 0.225518
18550.06055 0.225521
18550.89062 0.225523
18551.71094 0.225526
18552.53906 0.225528
18553.36914 0.22553
18554.19922 0.225533
18555.02930 0.225536
18555.85938 0.225556
18556.68945 0.225577
18557.51953 0.225598
18558.34961 0.225619
18559.16992 0.22564
18560.00000 0.225661
18560.83008 0.225666
18561.66016 0.225671
18562.49023 0.225677
18563.32031 0.225682
18564.15039 0.225687
18564.98047 0.225692
18565.81055 0.225671
18566.63086 0.225648
18567.46094 0.225626
18568.28906 0.225604
18569.11914 0.225581
18569.94922 0.225559
18570.77930 0.225574
18571.60938 0.225592
18572.43945 0.22561
18573.26953 0.225627
18574.09961 0.225645
18574.92969 0.225662
18575.75977 0.22565
18576.58984 0.225635
18577.41992 0.225621
18578.25000 0.225606
18579.08008 0.225591
18579.91016 0.225576
18580.74023 0.225587
18581.57031 0.225602
18582.40039 0.225617
18583.23047 0.225632
18584.06055 0.225646
18584.89062 0.225661
18585.72070 0.225655
18586.55078 0.225645
18587.38086 0.225636
18588.21094 0.225626
18589.03906 0.225617
18589.86914 0.225607
18590.69922 0.22559
18591.52930 0.225572
18592.35938 0.225554
18593.18945 0.225535
18594.01953 0.225517
18594.84961 0.225499
18595.67969 0.225474
18596.50977 0.225449
18597.33984 0.225424
18598.16992 0.225398
18599.00977 0.225373
18599.83984 0.225348
18600.66992 0.225308
18601.50000 0.225264
18602.33008 0.225221
18603.16016 0.225177
18603.99023 0.225133
18604.82031 0.22509
18605.65039 0.225096
18606.48047 0.225114
18607.31055 0.225133
18608.14062 0.225152
18608.98047 0.225171
18609.81055 0.22519
18610.64062 0.225182
18611.47070 0.225165
18612.30078 0.225149
18613.13086 0.225132
18613.96094 0.225116
18614.78906 0.225099
18615.63086 0.22508
18616.46094 0.225061
18617.28906 0.225041
18618.11914 0.225022
18618.94922 0.225002
18619.78906 0.224982
18620.61914 0.224967
18621.44922 0.224954
18622.27930 0.22494
18623.10938 0.224926
18623.93945 0.224913
18624.77930 0.224899
18625.60938 0.224898
18626.43945 0.224901
18627.26953 0.224904
18628.09961 0.224908
18628.93945 0.224911
18629.76953 0.224914
18630.59961 0.224878
18631.42969 0.224827
18632.25977 0.224776
18633.09961 0.224724
18633.92969 0.224673
18634.75977 0.224622
18635.58984 0.224572
18636.42969 0.224522
18637.25977 0.224473
18638.08984 0.224423
18638.91992 0.224374
18639.75000 0.224324
18640.58984 0.224294
18641.41992 0.224271
18642.25000 0.224248
18643.08984 0.224225
18643.91992 0.224202
18644.75000 0.22418
18645.58008 0.22416
18646.41992 0.22414
18647.25000 0.224121
18648.08008 0.224102
18648.91016 0.224083
18649.75000 0.224064
18650.58008 0.224038
18651.41016 0.224009
18652.25000 0.223979
18653.08008 0.22395
18653.91016 0.223921
18654.75000 0.223892
18655.58008 0.22387
18656.41016 0.22385
18657.25000 0.223831
18658.08008 0.223812
18658.91016 0.223793
18659.75000 0.223773
18660.58008 0.223757
18661.41016 0.223743
18662.25000 0.223728
18663.08008 0.223713
18663.91016 0.223698
18664.75000 0.223683
18665.58008 0.223638
18666.41016 0.22358
18667.25000 0.223521
18668.08008 0.223463
18668.91992 0.223405
18669.75000 0.223346
18670.58008 0.223287
18671.41992 0.223228
18672.25000 0.223169
18673.08984 0.22311
18673.91992 0.223051
18674.75000 0.222991
18675.58984 0.222962
18676.41992 0.222945
18677.25977 0.222928
18678.08984 0.222911
18678.92969 0.222894
18679.75977 0.222877
18680.58984 0.222828
18681.42969 0.222767
18682.25977 0.222705
18683.09961 0.222643
18683.92969 0.222581
18684.76953 0.222519
18685.59961 0.222483
18686.43945 0.222457
18687.26953 0.222431
18688.09961 0.222405
18688.93945 0.222379
18689.76953 0.222353
18690.60938 0.222339
18691.43945 0.22233
18692.27930 0.222322
18693.10938 0.222313
18693.94922 0.222304
18694.77930 0.222295
18695.61914 0.222253
18696.44922 0.2222
18697.28906 0.222147
18698.11914 0.222094
18698.96094 0.222041
18699.78906 0.221988
18700.63086 0.221924
18701.46094 0.221855
18702.30078 0.221787
18703.13086 0.221719
18703.97070 0.221651
18704.81055 0.221583
18705.64062 0.221571
18706.48047 0.221575
18707.31055 0.22158
18708.15039 0.221584
18708.98047 0.221588
18709.82031 0.221593
18710.65039 0.221567
18711.49023 0.221533
18712.33008 0.221498
18713.16016 0.221464
18714.00000 0.22143
18714.83008 0.221395
18715.66992 0.221365
18716.50977 0.221335
18717.33984 0.221304
18718.17969 0.221275
18719.00977 0.221245
18719.84961 0.221215
18720.68945 0.221114
18721.51953 0.220999
18722.35938 0.220883
18723.19922 0.220768
18724.02930 0.220652
18724.86914 0.220537
18725.69922 0.220504
18726.53906 0.220487
18727.38086 0.220471
18728.21094 0.220454
18729.05078 0.220437
18729.89062 0.22042
18730.72070 0.220413
18731.56055 0.220407
18732.40039 0.220401
18733.23047 0.220395
18734.07031 0.220389
18734.91016 0.220383
18735.74023 0.220328
18736.58008 0.220266
18737.41992 0.220204
18738.25000 0.220143
18739.08984 0.220081
18739.92969 0.220019
18740.75977 0.220014
18741.59961 0.220014
18742.43945 0.220014
18743.27930 0.220014
18744.10938 0.220015
18744.94922 0.220015
18745.78906 0.219954
18746.63086 0.219889
18747.46094 0.219824
18748.30078 0.219759
18749.14062 0.219694
18749.97070 0.219629
18750.81055 0.219608
18751.65039 0.219588
18752.49023 0.219568
18753.32031 0.219548
18754.16016 0.219528
18755.00000 0.219508
18755.83984 0.219478
18756.67969 0.219448
18757.50977 0.219419
18758.34961 0.219389
18759.18945 0.21936
18760.02930 0.219329
18760.85938 0.219266
18761.69922 0.219203
18762.53906 0.21914
18763.38086 0.219077
18764.22070 0.219014
18765.05078 0.218952
18765.89062 0.218905
18766.73047 0.218858
18767.57031 0.21881
18768.41016 0.218763
18769.25000 0.218716
18770.08008 0.218674
18770.91992 0.218678
18771.75977 0.218682
18772.59961 0.218686
18773.43945 0.21869
18774.27930 0.218693
18775.11914 0.21869
18775.94922 0.218638
18776.78906 0.218585
18777.63086 0.218533
18778.47070 0.218481
18779.31055 0.218428
18780.15039 0.218374
18780.99023 0.218311
18781.82031 0.218248
18782.66016 0.218185
18783.50000 0.218122
18784.33984 0.218059
18785.17969 0.218008
18786.01953 0.218
18786.85938 0.217993
18787.69922 0.217985
18788.53906 0.217978
18789.36914 0.217971
18790.21094 0.21796
18791.05078 0.217942
18791.89062 0.217924
18792.73047 0.217905
18793.57031 0.217887
18794.41016 0.217868
18795.25000 0.217836
18796.08984 0.217772
18796.92969 0.217708
18797.76953 0.217644
18798.60938 0.21758
18799.44922 0.217515
18800.28906 0.217474
18801.13086 0.217477
18801.97070 0.217479
18802.81055 0.217482
18803.65039 0.217484
18804.49023 0.217487
18805.33008 0.217462
18806.16992 0.217393
18807.00977 0.217325
18807.84961 0.217257
18808.68945 0.217188
18809.52930 0.21712
18810.36914 0.21707
18811.21094 0.217046
18812.05078 0.217022
18812.89062 0.216997
18813.73047 0.216972
18814.57031 0.216948
18815.41016 0.216926
18816.25000 0.216907
18817.08984 0.216888
18817.92969 0.216869
18818.76953 0.216851
18819.60938 0.216832
18820.44922 0.216801
18821.28906 0.216759
18822.13086 0.216717
18822.97070 0.216675
18823.81055 0.216633
18824.66016 0.216591
18825.50000 0.216562
18826.33984 0.216541
18827.17969 0.21652
18828.01953 0.216499
18828.85938 0.216478
18829.69922 0.216458
18830.53906 0.216426
18831.38086 0.216389
18832.22070 0.216351
18833.07031 0.216314
18833.91016 0.216276
18834.75000 0.216239
18835.58984 0.216196
18836.42969 0.216151
18837.26953 0.216106
18838.10938 0.216061
18838.96094 0.216016
18839.80078 0.215971
18840.64062 0.215947
18841.48047 0.21593
18842.32031 0.215913
18843.16016 0.215897
18844.00000 0.21588
18844.84961 0.215863
18845.68945 0.215834
18846.52930 0.215803
18847.36914 0.215772
18848.21094 0.215741
18849.05078 0.21571
18849.90039 0.215679
18850.74023 0.215642
18851.58008 0.215605
18852.41992 0.215568
18853.26953 0.21553
18854.10938 0.215493
18854.94922 0.215456
18855.78906 0.215448
18856.63086 0.215443
18857.48047 0.215437
18858.32031 0.215431
18859.16016 0.215426
18860.00000 0.21542
18860.84961 0.215391
18861.68945 0.215362
18862.52930 0.215332
18863.36914 0.215303
18864.21094 0.215274
18865.06055 0.215245
18865.90039 0.215222
18866.74023 0.215199
18867.58984 0.215176
18868.42969 0.215153
18869.26953 0.21513
18870.10938 0.215113
18870.96094 0.215129
18871.80078 0.215146
18872.64062 0.215163
18873.48047 0.215179
18874.33008 0.215196
18875.16992 0.215201
18876.00977 0.215163
18876.85938 0.215124
18877.69922 0.215085
18878.53906 0.215047
18879.39062 0.215008
18880.23047 0.214972
18881.07031 0.214942
18881.91992 0.214912
18882.75977 0.214882
18883.59961 0.214852
18884.44922 0.214821
18885.28906 0.214792
18886.13086 0.214764
18886.98047 0.214736
18887.82031 0.214708
18888.66016 0.214681
18889.50977 0.214653
18890.34961 0.21463
18891.19922 0.214613
18892.03906 0.214597
18892.88086 0.21458
18893.73047 0.214564
18894.57031 0.214547
18895.41992 0.214529
18896.25977 0.214507
18897.09961 0.214486
18897.94922 0.214465
18898.78906 0.214444
18899.63086 0.214422
18900.48047 0.21442
18901.32031 0.214431
18902.16992 0.214443
18903.00977 0.214454
18903.85938 0.214466
18904.69922 0.214477
18905.53906 0.214455
18906.39062 0.214414
18907.23047 0.214373
18908.08008 0.214333
18908.91992 0.214292
18909.76953 0.214252
18910.60938 0.214222
18911.46094 0.214197
18912.30078 0.214172
18913.15039 0.214147
18913.99023 0.214122
18914.83984 0.214097
18915.67969 0.214083
18916.52930 0.214071
18917.36914 0.21406
18918.22070 0.214048
18919.06055 0.214036
18919.91016 0.214025
18920.75000 0.214016
18921.59961 0.214008
18922.43945 0.214
18923.28906 0.213992
18924.13086 0.213983
18924.98047 0.213975
18925.82031 0.213961
18926.66992 0.213947
18927.50977 0.213933
18928.35938 0.213919
18929.19922 0.213905
18930.05078 0.213892
18930.89062 0.213885
18931.74023 0.213879
18932.58984 0.213872
18933.42969 0.213866
18934.27930 0.213859
18935.11914 0.213852
18935.97070 0.21384
18936.81055 0.213828
18937.66016 0.213816
18938.50977 0.213804
18939.34961 0.213792
18940.19922 0.213779
18941.03906 0.213763
18941.89062 0.213746
18942.74023 0.213729
18943.58008 0.213713
18944.42969 0.213696
18945.26953 0.213679
18946.11914 0.213661
18946.97070 0.213643
18947.81055 0.213625
18948.66016 0.213607
18949.50977 0.213589
18950.34961 0.213589
18951.19922 0.213615
18952.03906 0.21364
18952.89062 0.213666
18953.74023 0.213691
18954.58008 0.213717
18955.42969 0.213719
18956.27930 0.213698
18957.13086 0.213678
18957.97070 0.213657
18958.82031 0.213637
18959.66016 0.213616
18960.50977 0.213606
18961.35938 0.213601
18962.21094 0.213596
18963.05078 0.213591
18963.90039 0.213587
18964.75000 0.213582
18965.58984 0.21358
18966.43945 0.213578
18967.28906 0.213577
18968.13086 0.213575
18968.98047 0.213574
18969.83008 0.213572
18970.67969 0.213564
18971.51953 0.213553
18972.36914 0.213543
18973.22070 0.213533
18974.07031 0.213523
18974.91016 0.213512
18975.75977 0.213513
18976.60938 0.213514
18977.46094 0.213515
18978.30078 0.213517
18979.15039 0.213518
18980.00000 0.213519
18980.84961 0.21352
18981.69922 0.21352
18982.53906 0.213521
18983.39062 0.213521
18984.24023 0.213522
18985.08984 0.213522
18985.92969 0.213522
18986.77930 0.213523
18987.63086 0.213523
18988.48047 0.213523
18989.33008 0.213524
18990.17969 0.213523
18991.01953 0.21352
18991.86914 0.213516
18992.72070 0.213512
18993.57031 0.213509
18994.41992 0.213505
18995.26953 0.213494
18996.10938 0.213463
18996.96094 0.213433
18997.81055 0.213403
18998.66016 0.213372
18999.50977 0.213342
19000.35938 0.213344
19001.21094 0.213391
19002.05078 0.213437
19002.90039 0.213484
19003.75000 0.21353
19004.59961 0.213577
19005.44922 0.213607
19006.30078 0.213622
19007.15039 0.213637
19008.00000 0.213653
19008.83984 0.213668
19009.68945 0.213683
19010.53906 0.2137
19011.39062 0.213718
19012.24023 0.213736
19013.08984 0.213755
19013.93945 0.213773
19014.78906 0.213791
19015.64062 0.213804
19016.49023 0.213816
19017.33984 0.213827
19018.18945 0.213839
19019.03906 0.21385
19019.88086 0.213862
19020.73047 0.213854
19021.58008 0.213844
19022.42969 0.213833
19023.27930 0.213822
19024.13086 0.213812
19024.98047 0.213801
19025.83008 0.213844
19026.67969 0.213889
19027.52930 0.213934
19028.38086 0.213979
19029.23047 0.214023
19030.08008 0.214067
19030.92969 0.214096
19031.77930 0.214125
19032.63086 0.214155
19033.48047 0.214184
19034.33008 0.214214
19035.17969 0.214239
19036.02930 0.214251
19036.88086 0.214262
19037.73047 0.214274
19038.58008 0.214285
19039.42969 0.214297
19040.27930 0.214318
19041.13086 0.214359
19041.98047 0.2144
19042.83984 0.214442
19043.68945 0.214482
19044.53906 0.214524
19045.39062 0.21454
19046.24023 0.214525
19047.08984 0.214511
19047.93945 0.214496
19048.78906 0.214482
19049.64062 0.214468
19050.49023 0.214478
19051.33984 0.214506
19052.18945 0.214535
19053.03906 0.214564
19053.90039 0.214592
19054.75000 0.214621
19055.59961 0.214652
19056.44922 0.214685
19057.30078 0.214718
19058.15039 0.21475
19059.00000 0.214783
19059.84961 0.214816
19060.71094 0.21484
19061.56055 0.214864
19062.41016 0.214886
19063.25977 0.214909
19064.10938 0.214932
19064.96094 0.214955
19065.81055 0.214993
19066.66992 0.215032
19067.51953 0.21507
19068.36914 0.215108
19069.22070 0.215147
19070.07031 0.215185
19070.91992 0.215219
19071.77930 0.215253
19072.63086 0.215287
19073.48047 0.215321
19074.33008 0.215355
19075.17969 0.215385
19076.03906 0.215399
19076.89062 0.215413
19077.74023 0.215428
19078.58984 0.215442
19079.43945 0.215456
19080.28906 0.215482
19081.15039 0.215529
19082.00000 0.215576
19082.84961 0.215623
19083.71094 0.215671
19084.56055 0.215718
19085.41016 0.215761
19086.25977 0.215799
19087.11914 0.215836
19087.97070 0.215874
19088.82031 0.215912
19089.66992 0.21595
19090.52930 0.215965
19091.38086 0.215965
19092.23047 0.215966
19093.08008 0.215966
19093.93945 0.215966
19094.78906 0.215967
19095.64062 0.216007
19096.49023 0.216062
19097.34961 0.216116
19098.19922 0.21617
19099.05078 0.216225
19099.91016 0.216279
19100.75977 0.216322
19101.60938 0.216363
19102.47070 0.216404
19103.32031 0.216446
19104.16992 0.216487
19105.02930 0.216529
19105.88086 0.216569
19106.73047 0.21661
19107.58984 0.21665
19108.43945 0.21669
19109.28906 0.216731
19110.15039 0.21677
19111.00000 0.2168
19111.84961 0.21683
19112.71094 0.216861
19113.56055 0.216891
19114.41016 0.216921
19115.26953 0.21696
19116.11914 0.217018
19116.98047 0.217076
19117.83008 0.217134
19118.67969 0.217193
19119.53906 0.217251
19120.39062 0.217298
19121.25000 0.217331
19122.09961 0.217365
19122.94922 0.217399
19123.81055 0.217433
19124.66016 0.217467
19125.51953 0.217505
19126.36914 0.217547
19127.22070 0.217589
19128.08008 0.21763
19128.92969 0.217672
19129.78906 0.217713
19130.64062 0.217751
19131.50000 0.217788
19132.34961 0.217825
19133.21094 0.217862
19134.06055 0.217899
19134.91992 0.217936
19135.76953 0.218001
19136.61914 0.218069
19137.48047 0.218136
19138.33008 0.218204
19139.18945 0.218272
19140.03906 0.218338
19140.90039 0.218384
19141.75000 0.21843
19142.60938 0.218476
19143.46094 0.218522
19144.32031 0.218568
19145.16992 0.218617
19146.02930 0.218677
19146.88086 0.218737
19147.74023 0.218797
19148.58984 0.218856
19149.44922 0.218916
19150.30078 0.218972
19151.16016 0.21902
19152.01953 0.219068
19152.86914 0.219116
19153.73047 0.219164
19154.58008 0.219212
19155.43945 0.219251
19156.28906 0.21928
19157.15039 0.219309
19158.00977 0.219338
19158.85938 0.219368
19159.72070 0.219397
19160.57031 0.219463
19161.42969 0.219546
19162.27930 0.21963
19163.14062 0.219713
19164.00000 0.219797
19164.84961 0.219881
19165.71094 0.219939
19166.56055 0.219992
19167.41992 0.220046
19168.27930 0.220099
19169.13086 0.220152
19169.99023 0.220205
19170.83984 0.220252
19171.69922 0.2203
19172.56055 0.220346
19173.41016 0.220393
19174.26953 0.22044
19175.13086 0.220484
19175.98047 0.220508
19176.83984 0.220533
19177.69922 0.220557
19178.55078 0.220581
19179.41016 0.220605
19180.26953 0.220645
19181.11914 0.220721
19181.98047 0.220797
19182.83984 0.220873
19183.68945 0.220948
19184.55078 0.221024
19185.41016 0.221085
19186.25977 0.221129
19187.11914 0.221172
19187.98047 0.221216
19188.83008 0.22126
19189.68945 0.221303
19190.55078 0.221335
19191.41016 0.221361
19192.25977 0.221387
19193.11914 0.221412
19193.98047 0.221438
19194.83008 0.221463
19195.68945 0.221531
19196.55078 0.221609
19197.41016 0.221687
19198.25977 0.221765
19199.11914 0.221843
19199.98047 0.221921
19200.83984 0.221968
19201.69922 0.222014
19202.55078 0.22206
19203.41016 0.222106
19204.26953 0.222151
19205.13086 0.222201
19205.98047 0.222271
19206.83984 0.222342
19207.69922 0.222412
19208.56055 0.222482
19209.41016 0.222553
19210.26953 0.222607
19211.13086 0.222625
19211.99023 0.222643
19212.84961 0.222661
19213.71094 0.222679
19214.56055 0.222697
19215.41992 0.222729
19216.27930 0.222775
19217.14062 0.222822
19218.00000 0.222869
19218.85938 0.222915
19219.71094 0.222962
19220.57031 0.223004
19221.42969 0.223043
19222.28906 0.223082
19223.15039 0.223121
19224.00977 0.22316
19224.86914 0.223199
19225.72070 0.223237
19226.58008 0.223274
19227.43945 0.223311
19228.30078 0.223349
19229.16016 0.223386
19230.01953 0.223424
19230.88086 0.223481
19231.73047 0.223538
19232.58984 0.223595
19233.44922 0.223652
19234.31055 0.223709
19235.16992 0.223761
19236.02930 0.223793
19236.89062 0.223824
19237.75000 0.223856
19238.60938 0.223888
19239.47070 0.22392
19240.33008 0.22396
19241.18945 0.224014
19242.03906 0.224067
19242.90039 0.224121
19243.75977 0.224174
19244.61914 0.224228
19245.48047 0.224278
19246.33984 0.224326
19247.19922 0.224375
19248.06055 0.224423
19248.91992 0.224471
19249.77930 0.224519
19250.64062 0.22456
19251.50000 0.224599
19252.35938 0.224638
19253.22070 0.224677
19254.08008 0.224716
19254.93945 0.224755
19255.80078 0.224795
19256.66016 0.224836
19257.51953 0.224876
19258.38086 0.224916
19259.24023 0.224957
19260.09961 0.224997
19260.96094 0.225037
19261.82031 0.225076
19262.67969 0.225116
19263.53906 0.225155
19264.40039 0.225195
19265.25977 0.225236
19266.11914 0.225279
19266.98047 0.225322
19267.84961 0.225366
19268.71094 0.225409
19269.57031 0.225453
19270.42969 0.225498
19271.28906 0.225545
19272.15039 0.225591
19273.00977 0.225638
19273.86914 0.225685
19274.73047 0.225732
19275.58984 0.225782
19276.44922 0.225835
19277.31055 0.225887
19278.17969 0.22594
19279.03906 0.225992
19279.90039 0.226045
19280.75977 0.2261
19281.61914 0.226156
19282.48047 0.226212
19283.33984 0.226267
19284.19922 0.226323
19285.06055 0.226376
19285.92969 0.226398
19286.78906 0.226419
19287.65039 0.22644
19288.50977 0.226462
19289.36914 0.226483
19290.23047 0.226509
19291.09961 0.226549
19291.96094 0.226588
19292.82031 0.226628
19293.67969 0.226667
19294.53906 0.226706
19295.40039 0.226759
19296.26953 0.226827
19297.13086 0.226895
19297.99023 0.226964
19298.84961 0.227032
19299.71094 0.2271
19300.58008 0.227161
19301.43945 0.227219
19302.30078 0.227277
19303.16016 0.227335
19304.02930 0.227393
19304.89062 0.227451
19305.75000 0.227491
19306.60938 0.227529
19307.47070 0.227566
19308.33984 0.227604
19309.19922 0.227642
19310.06055 0.22768
19310.91992 0.227723
19311.78906 0.227767
19312.65039 0.227811
19313.50977 0.227854
19314.36914 0.227898
19315.24023 0.22793
19316.09961 0.227931
19316.96094 0.227932
19317.82031 0.227933
19318.68945 0.227935
19319.55078 0.227936
19320.41016 0.227976
19321.27930 0.228057
19322.14062 0.228139
19323.00000 0.228221
19323.86914 0.228303
19324.73047 0.228385
19325.58984 0.228433
19326.46094 0.228467
19327.32031 0.2285
19328.17969 0.228534
19329.03906 0.228568
19329.91016 0.228601
19330.76953 0.228646
19331.63086 0.228692
19332.50000 0.228738
19333.35938 0.228784
19334.22070 0.22883
19335.08984 0.228874
19335.94922 0.228898
19336.82031 0.228923
19337.67969 0.228948
19338.53906 0.228973
19339.41016 0.228998
19340.26953 0.229033
19341.13086 0.229092
19342.00000 0.22915
19342.85938 0.229209
19343.73047 0.229267
19344.58984 0.229326
19345.46094 0.229369
19346.32031 0.229399
19347.17969 0.229429
19348.05078 0.229459
19348.91016 0.229489
19349.77930 0.229518
19350.64062 0.229555
19351.50000 0.229593
19352.36914 0.229632
19353.23047 0.229671
19354.09961 0.22971
19354.96094 0.229748
19355.83008 0.229792
19356.68945 0.229835
19357.55078 0.229879
19358.41992 0.229922
19359.28906 0.229965
19360.15039 0.230011
19361.00977 0.230065
19361.88086 0.23012
19362.74023 0.230174
19363.60938 0.230228
19364.47070 0.230283
19365.33984 0.230324
19366.19922 0.230344
19367.07031 0.230363
19367.92969 0.230383
19368.80078 0.230404
19369.66016 0.230424
19370.52930 0.230453
19371.39062 0.230488
19372.25977 0.230523
19373.11914 0.230558
19373.99023 0.230593
19374.85938 0.230629
19375.72070 0.230662
19376.58984 0.230695
19377.44922 0.230728
19378.32031 0.230761
19379.17969 0.230794
19380.05078 0.230829
19380.91016 0.23089
19381.77930 0.230951
19382.64062 0.231013
19383.50977 0.231074
19384.38086 0.231135
19385.24023 0.231187
19386.10938 0.231215
19386.97070 0.231244
19387.83984 0.231272
19388.71094 0.2313
19389.57031 0.231328
19390.43945 0.231358
19391.30078 0.231391
19392.16992 0.231423
19393.03906 0.231455
19393.90039 0.231487
19394.76953 0.231519
19395.63086 0.231558
19396.50000 0.231599
19397.36914 0.231639
19398.23047 0.23168
19399.09961 0.231721
19399.97070 0.231762
19400.83008 0.231794
19401.69922 0.231826
19402.57031 0.231858
19403.42969 0.23189
19404.30078 0.231922
19405.16992 0.23196
19406.02930 0.232022
19406.90039 0.232085
19407.76953 0.232148
19408.63086 0.232211
19409.50000 0.232274
19410.36914 0.232331
19411.23047 0.232379
19412.09961 0.232427
19412.97070 0.232475
19413.83984 0.232524
19414.69922 0.232572
19415.57031 0.232608
19416.43945 0.232637
19417.30078 0.232666
19418.16992 0.232696
19419.03906 0.232725
19419.91016 0.232755
19420.76953 0.232782
19421.64062 0.23281
19422.50977 0.232837
19423.38086 0.232865
19424.24023 0.232892
19425.10938 0.232923
19425.98047 0.232974
19426.84961 0.233026
19427.71094 0.233078
19428.58008 0.233129
19429.44922 0.233181
19430.32031 0.233224
19431.18945 0.23325
19432.05078 0.233276
19432.91992 0.233302
19433.78906 0.233329
19434.66016 0.233355
19435.52930 0.23339
19436.39062 0.23343
19437.25977 0.23347
19438.13086 0.233511
19439.00000 0.233551
19439.86914 0.233591
19440.73047 0.233633
19441.59961 0.233675
19442.47070 0.233717
19443.33984 0.23376
19444.21094 0.233802
19445.08008 0.233843
19445.94922 0.233881
19446.81055 0.233918
19447.67969 0.233955
19448.55078 0.233992
19449.41992 0.23403
19450.28906 0.234063
19451.16016 0.23409
19452.02930 0.234116
19452.89062 0.234142
19453.75977 0.234169
19454.63086 0.234195
19455.50000 0.234225
19456.36914 0.234256
19457.24023 0.234288
19458.10938 0.234319
19458.98047 0.234351
19459.84961 0.234383
19460.72070 0.234454
19461.58984 0.234534
19462.46094 0.234614
19463.32031 0.234693
19464.18945 0.234773
19465.06055 0.234848
19465.92969 0.234871
19466.80078 0.234893
19467.66992 0.234916
19468.53906 0.234938
19469.41016 0.23496
19470.27930 0.234975
19471.15039 0.234974
19472.01953 0.234974
19472.89062 0.234973
19473.75977 0.234972
19474.63086 0.234971
19475.50000 0.234996
19476.36914 0.235041
19477.24023 0.235085
19478.10938 0.235129
19478.98047 0.235174
19479.84961 0.235218
19480.72070 0.235242
19481.58984 0.235261
19482.46094 0.23528
19483.33008 0.2353
19484.19922 0.235319
19485.07031 0.23534
19485.93945 0.235381
19486.81055 0.235422
19487.67969 0.235463
19488.55078 0.235504
19489.41992 0.235545
19490.28906 0.235579
19491.16016 0.235599
19492.02930 0.235619
19492.90039 0.235639
19493.76953 0.235659
19494.64062 0.235679
19495.51953 0.235704
19496.39062 0.235734
19497.25977 0.235763
19498.13086 0.235793
19499.00000 0.235823
19499.86914 0.235852
19500.74023 0.235888
19501.60938 0.235924
19502.48047 0.23596
19503.34961 0.235997
19504.22070 0.236033
19505.09961 0.236069
19505.97070 0.236103
19506.83984 0.236137
19507.71094 0.236172
19508.58008 0.236206
19509.44922 0.23624
19510.32031 0.236258
19511.19922 0.236247
19512.07031 0.236237
19512.93945 0.236227
19513.81055 0.236216
19514.67969 0.236206
19515.55078 0.236233
19516.41992 0.23628
19517.30078 0.236328
19518.16992 0.236376
19519.03906 0.236424
19519.91016 0.236472
19520.77930 0.236496
19521.66016 0.236519
19522.52930 0.236541
19523.40039 0.236563
19524.26953 0.236585
19525.14062 0.236606
19526.01953 0.236619
19526.89062 0.236632
19527.75977 0.236646
19528.63086 0.236659
19529.50000 0.236672
19530.38086 0.2367
19531.25000 0.236748
19532.11914 0.236797
19532.99023 0.236845
19533.86914 0.236893
19534.74023 0.236941
19535.60938 0.236956
19536.48047 0.236956
19537.35938 0.236956
19538.23047 0.236956
19539.09961 0.236956
19539.97070 0.236955
19540.84961 0.236987
19541.72070 0.23702
19542.58984 0.237052
19543.46094 0.237085
19544.33984 0.237118
19545.21094 0.237152
19546.08008 0.237189
19546.96094 0.237226
19547.83008 0.237263
19548.69922 0.237301
19549.58008 0.237338
19550.44922 0.237354
19551.32031 0.237349
19552.19922 0.237345
19553.07031 0.23734
19553.93945 0.237335
19554.82031 0.237331
19555.68945 0.237365
19556.56055 0.23741
19557.43945 0.237455
19558.31055 0.2375
19559.17969 0.237545
19560.06055 0.237584
19560.92969 0.237536
19561.80078 0.237488
19562.67969 0.23744
19563.55078 0.237392
19564.42969 0.237344
19565.30078 0.237328
19566.16992 0.237374
19567.05078 0.23742
19567.91992 0.237466
19568.80078 0.237512
19569.66992 0.237557
19570.53906 0.23759
19571.41992 0.237616
19572.28906 0.237641
19573.16992 0.237667
19574.03906 0.237692
19574.91992 0.237717
19575.78906 0.237698
19576.66016 0.237673
19577.53906 0.237648
19578.41016 0.237623
19579.28906 0.237598
19580.16016 0.237586
19581.03906 0.237627
19581.91016 0.237668
19582.78906 0.237709
19583.66016 0.237751
19584.53906 0.237792
19585.41016 0.237813
19586.28906 0.237812
19587.16016 0.23781
19588.02930 0.237808
19588.91016 0.237807
19589.77930 0.237805
19590.66016 0.237796
19591.52930 0.237784
19592.41016 0.237772
19593.27930 0.237761
19594.16016 0.237749
19595.03906 0.23774
19595.91016 0.237803
19596.78906 0.237867
19597.66016 0.23793
19598.53906 0.237993
19599.41016 0.238057
19600.28906 0.238083
19601.16016 0.238033
19602.03906 0.237982
19602.91016 0.237932
19603.78906 0.237882
19604.66016 0.237832
19605.53906 0.237835
19606.41992 0.237872
19607.28906 0.237909
19608.16992 0.237946
19609.03906 0.237983
19609.91992 0.23802
19610.78906 0.23803
19611.66992 0.238038
19612.55078 0.238045
19613.41992 0.238052
19614.30078 0.238059
19615.16992 0.238062
19616.05078 0.238045
19616.92969 0.238028
19617.80078 0.238011
19618.67969 0.237994
19619.55078 0.237977
19620.42969 0.237963
19621.31055 0.237951
19622.17969 0.23794
19623.06055 0.237929
19623.93945 0.237917
19624.81055 0.237906
19625.68945 0.237912
19626.57031 0.237924
19627.43945 0.237935
19628.32031 0.237947
19629.19922 0.237958
19630.07031 0.237966
19630.94922 0.237941
19631.83008 0.237917
19632.71094 0.237892
19633.58008 0.237867
19634.46094 0.237842
19635.33984 0.237825
19636.21094 0.237821
19637.08984 0.237817
19637.97070 0.237813
19638.83984 0.237809
19639.72070 0.237805
19640.59961 0.237806
19641.47070 0.23781
19642.34961 0.237814
19643.23047 0.237819
19644.10938 0.237823
19644.98047 0.237827
19645.85938 0.23782
19646.74023 0.237813
19647.61914 0.237805
19648.49023 0.237798
19649.36914 0.237791
19650.25000 0.237786
19651.13086 0.237788
19652.00977 0.237791
19652.88086 0.237793
19653.75977 0.237795
19654.64062 0.237797
19655.51953 0.237799
19656.39062 0.2378
19657.26953 0.237801
19658.15039 0.237802
19659.02930 0.237804
19659.91016 0.237805
19660.78906 0.237778
19661.66016 0.237747
19662.53906 0.237717
19663.41992 0.237687
19664.30078 0.237656
19665.17969 0.237633
19666.05078 0.237641
19666.92969 0.237648
19667.81055 0.237655
19668.68945 0.237662
19669.57031 0.237669
19670.44922 0.237664
19671.32031 0.237647
19672.19922 0.237629
19673.08008 0.237612
19673.96094 0.237595
19674.83984 0.237578
19675.72070 0.237561
19676.59961 0.237544
19677.48047 0.237527
19678.35938 0.23751
19679.23047 0.237493
19680.10938 0.237475
19680.99023 0.237449
19681.86914 0.237423
19682.75000 0.237397
19683.63086 0.237372
19684.50977 0.237346
19685.39062 0.237325
19686.26953 0.237311
19687.15039 0.237296
19688.02930 0.237282
19688.90039 0.237268
19689.78906 0.237254
19690.66016 0.237242
19691.53906 0.237231
19692.41992 0.237221
19693.30078 0.23721
19694.17969 0.237199
19695.06055 0.23719
19695.93945 0.237208
19696.82031 0.237225
19697.69922 0.237242
19698.58008 0.237259
19699.46094 0.237277
19700.33984 0.237269
19701.22070 0.237224
19702.09961 0.237178
19702.98047 0.237132
19703.85938 0.237087
19704.74023 0.237041
19705.61914 0.237015
19706.50000 0.236996
19707.38086 0.236977
19708.25977 0.236958
19709.14062 0.236939
19710.01953 0.23692
19710.90039 0.236866
19711.77930 0.236812
19712.66016 0.236758
19713.53906 0.236704
19714.41992 0.23665
19715.30078 0.236616
19716.18945 0.236622
19717.07031 0.236628
19717.94922 0.236634
19718.83008 0.23664
19719.71094 0.236646
19720.58984 0.236611
19721.47070 0.236555
19722.34961 0.236499
19723.23047 0.236442
19724.10938 0.236386
19724.99023 0.23633
19725.88086 0.236361
19726.75977 0.236392
19727.64062 0.236423
19728.51953 0.236454
19729.40039 0.236485
19730.27930 0.236483
19731.16016 0.236407
19732.03906 0.236332
19732.91992 0.236256
19733.80078 0.236181
19734.68945 0.236105
19735.57031 0.236077
19736.44922 0.236074
19737.33008 0.236071
19738.21094 0.236069
19739.08984 0.236066
19739.98047 0.236063
19740.85938 0.23602
19741.74023 0.235976
19742.61914 0.235932
19743.50000 0.235887
19744.38086 0.235843
19745.26953 0.235796
19746.15039 0.235742
19747.02930 0.235687
19747.91016 0.235633
19748.78906 0.235579
19749.67969 0.235525
19750.56055 0.235501
19751.43945 0.235495
19752.32031 0.235489
19753.21094 0.235483
19754.08984 0.235477
19754.97070 0.23547
19755.84961 0.235447
19756.73047 0.235422
19757.61914 0.235398
19758.50000 0.235374
19759.38086 0.235349
19760.26953 0.235334
19761.15039 0.23534
19762.02930 0.235346
19762.91016 0.235352
19763.78906 0.235358
19764.67969 0.235365
19765.56055 0.235338
19766.43945 0.235292
19767.33008 0.235246
19768.21094 0.2352
19769.08984 0.235155
19769.98047 0.235109
19770.85938 0.235063
19771.74023 0.235017
19772.61914 0.234971
19773.50977 0.234926
19774.39062 0.23488
19775.27930 0.234838
19776.16016 0.234806
19777.03906 0.234773
19777.91992 0.234741
19778.81055 0.234708
19779.68945 0.234676
19780.57031 0.234638
19781.46094 0.234597
19782.33984 0.234556
19783.23047 0.234515
19784.10938 0.234474
19784.99023 0.234433
19785.88086 0.23443
19786.75977 0.234426
19787.64062 0.234423
19788.52930 0.23442
19789.41016 0.234416
19790.28906 0.234399
19791.17969 0.234356
19792.06055 0.234312
19792.94922 0.234268
19793.83008 0.234224
19794.72070 0.234181
19795.59961 0.234147
19796.48047 0.234119
19797.36914 0.23409
19798.25000 0.234062
19799.14062 0.234033
19800.01953 0.234005
19800.91016 0.233978
19801.78906 0.233951
19802.66992 0.233924
19803.56055 0.233897
19804.43945 0.23387
19805.33008 0.233846
19806.21094 0.233825
19807.09961 0.233805
19807.98047 0.233785
19808.86914 0.233764
19809.75000 0.233744
19810.64062 0.233706
19811.51953 0.233661
19812.41016 0.233617
19813.28906 0.233572
19814.17969 0.233528
19815.06055 0.233483
19815.94922 0.23344
19816.83008 0.233397
19817.72070 0.233354
19818.59961 0.23331
19819.49023 0.233267
19820.36914 0.233232
19821.25977 0.233209
19822.14062 0.233185
19823.02930 0.233161
19823.91016 0.233137
19824.80078 0.233114
19825.67969 0.233112
19826.57031 0.233118
19827.46094 0.233124
19828.33984 0.233129
19829.23047 0.233135
19830.10938 0.23313
19831.00000 0.233053
19831.88086 0.232976
19832.76953 0.232899
19833.66016 0.232822
19834.53906 0.232745
19835.42969 0.232685
19836.31055 0.232642
19837.19922 0.232599
19838.08984 0.232555
19838.97070 0.232513
19839.85938 0.232469
19840.74023 0.232482
19841.63086 0.232504
19842.51953 0.232527
19843.40039 0.232549
19844.28906 0.232572
19845.17969 0.232579
19846.06055 0.232524
19846.94922 0.232469
19847.83008 0.232413
19848.72070 0.232358
19849.60938 0.232302
19850.49023 0.232259
19851.38086 0.232224
19852.26953 0.23219
19853.15039 0.232156
19854.03906 0.232122
19854.92969 0.232087
19855.81055 0.232072
19856.69922 0.232058
19857.58984 0.232045
19858.47070 0.232031
19859.35938 0.232017
19860.25000 0.232
19861.14062 0.231971
19862.01953 0.231943
19862.91016 0.231914
19863.80078 0.231886
19864.68945 0.231857
19865.57031 0.231817
19866.46094 0.231769
19867.34961 0.231722
19868.23047 0.231674
19869.11914 0.231627
19870.00977 0.231579
19870.90039 0.23155
19871.77930 0.23152
19872.66992 0.23149
19873.56055 0.231461
19874.44922 0.231431
19875.33008 0.231405
19876.22070 0.231386
19877.10938 0.231367
19878.00000 0.231348
19878.88086 0.231329
19879.76953 0.23131
19880.66016 0.231276
19881.55078 0.231238
19882.43945 0.2312
19883.33008 0.231162
19884.21094 0.231124
19885.09961 0.231089
19885.99023 0.231069
19886.88086 0.23105
19887.76953 0.23103
19888.65039 0.231011
19889.53906 0.230992
19890.42969 0.230968
19891.32031 0.230942
19892.21094 0.230915
19893.09961 0.230888
19893.99023 0.230861
19894.86914 0.230834
19895.75977 0.230802
19896.65039 0.230769
19897.53906 0.230736
19898.42969 0.230703
19899.32031 0.23067
19900.21094 0.230643
19901.09961 0.230635
19901.98047 0.230628
19902.86914 0.23062
19903.75977 0.230613
19904.65039 0.230605
19905.53906 0.23057
19906.42969 0.230516
19907.32031 0.230463
19908.21094 0.230409
19909.09961 0.230355
19909.99023 0.230302
19910.88086 0.230267
19911.75977 0.230232
19912.65039 0.230197
19913.53906 0.230163
19914.42969 0.230128
19915.32031 0.230101
19916.21094 0.230087
19917.09961 0.230074
19917.99023 0.23006
19918.88086 0.230046
19919.76953 0.230033
19920.66016 0.23
19921.55078 0.229959
19922.43945 0.229919
19923.33008 0.229879
19924.22070 0.229838
19925.10938 0.229802
19926.00000 0.229791
19926.89062 0.229781
19927.77930 0.229771
19928.66992 0.229761
19929.56055 0.229751
19930.44922 0.22973
19931.33984 0.2297
19932.23047 0.229669
19933.11914 0.229638
19934.00977 0.229608
19934.90039 0.229577
19935.78906 0.229558
19936.67969 0.229541
19937.57031 0.229524
19938.46094 0.229507
19939.34961 0.22949
19940.24023 0.229473
19941.13086 0.229456
19942.02930 0.229439
19942.91992 0.229423
19943.81055 0.229406
19944.69922 0.229389
19945.58984 0.22937
19946.48047 0.229349
19947.36914 0.229329
19948.25977 0.229308
19949.15039 0.229288
19950.03906 0.229267
19950.92969 0.229241
19951.83008 0.229214
19952.72070 0.229187
19953.60938 0.22916
19954.50000 0.229133
19955.39062 0.229097
19956.27930 0.229049
19957.16992 0.229001
19958.06055 0.228953
19958.96094 0.228905
19959.84961 0.228857
19960.74023 0.228825
19961.63086 0.228796
19962.51953 0.228768
19963.41016 0.228739
19964.30078 0.22871
19965.19922 0.228686
19966.08984 0.228678
19966.98047 0.228669
19967.86914 0.22866
19968.75977 0.228652
19969.66016 0.228643
19970.55078 0.228624
19971.43945 0.228598
19972.33008 0.228572
19973.22070 0.228546
19974.11914 0.228519
19975.00977 0.228493
19975.90039 0.228484
19976.78906 0.228474
19977.68945 0.228464
19978.58008 0.228454
19979.47070 0.228444
19980.35938 0.228427
19981.25000 0.228401
19982.15039 0.228375
19983.03906 0.228349
19983.92969 0.228323
19984.82031 0.228297
19985.72070 0.228295
19986.60938 0.2283
19987.50000 0.228304
19988.39062 0.228308
19989.28906 0.228313
19990.17969 0.228311
19991.07031 0.228282
19991.97070 0.228253
19992.85938 0.228224
19993.75000 0.228195
19994.65039 0.228166
19995.53906 0.228147
19996.42969 0.228135
19997.32031 0.228122
19998.22070 0.228109
19999.10938 0.228097
20000.00000 0.228085
20000.90039 0.228135
20001.78906 0.228185
20002.68945 0.228234
20003.58008 0.228284
20004.47070 0.228334
20005.36914 0.228376
20006.25977 0.228405
20007.15039 0.228434
20008.05078 0.228464
20008.93945 0.228493
20009.83008 0.228522
20010.73047 0.22857
20011.61914 0.228622
20012.51953 0.228674
20013.41016 0.228726
20014.30078 0.228778
20015.19922 0.228828
20016.08984 0.22887
20016.98047 0.228912
20017.88086 0.228955
20018.76953 0.228997
20019.66992 0.229039
20020.56055 0.229069
20021.46094 0.229091
20022.34961 0.229113
20023.24023 0.229136
20024.14062 0.229158
20025.02930 0.229181
20025.92969 0.229229
20026.82031 0.229276
20027.72070 0.229324
20028.60938 0.229372
20029.50977 0.229419
20030.40039 0.229461
20031.28906 0.229495
20032.18945 0.229529
20033.08008 0.229564
20033.98047 0.229598
20034.86914 0.229632
20035.76953 0.229688
20036.66016 0.229747
20037.56055 0.229805
20038.44922 0.229864
20039.34961 0.229923
20040.24023 0.229973
20041.14062 0.229998
20042.02930 0.230023
20042.92969 0.230049
20043.82031 0.230074
20044.72070 0.230099
20045.61914 0.230156
20046.50977 0.230227
20047.41016 0.230297
20048.30078 0.230368
20049.19922 0.230439
20050.08984 0.230504
20050.99023 0.230517
20051.88086 0.23053
20052.77930 0.230544
20053.66992 0.230557
20054.57031 0.23057
20055.46094 0.230617
20056.35938 0.230695
20057.25977 0.230772
20058.15039 0.23085
20059.05078 0.230928
20059.94922 0.231006
20060.83984 0.231044
20061.74023 0.231079
20062.63086 0.231114
20063.52930 0.23115
20064.42969 0.231185
20065.32031 0.231229
20066.22070 0.231287
20067.10938 0.231345
20068.00977 0.231404
20068.91016 0.231462
20069.80078 0.231521
20070.69922 0.231584
20071.59961 0.231648
20072.49023 0.231713
20073.39062 0.231777
20074.28906 0.231841
20075.17969 0.231897
20076.08008 0.23192
20076.97070 0.231944
20077.86914 0.231967
20078.76953 0.23199
20079.66992 0.232013
20080.56055 0.232071
20081.46094 0.23215
20082.35938 0.232228
20083.25000 0.232307
20084.15039 0.232385
20085.05078 0.23246
20085.94922 0.232475
20086.83984 0.232489
20087.74023 0.232504
20088.64062 0.232518
20089.52930 0.232532
20090.42969 0.232577
20091.33008 0.232656
20092.23047 0.232735
20093.11914 0.232814
20094.01953 0.232893
20094.91992 0.232972
20095.82031 0.233042
20096.71094 0.233111
20097.60938 0.23318
20098.50977 0.233249
20099.41016 0.233318
20100.30078 0.233385
20101.19922 0.233446
20102.09961 0.233508
20103.00000 0.23357
20103.89062 0.233631
20104.78906 0.233693
20105.68945 0.23375
20106.58984 0.233807
20107.49023 0.233864
20108.38086 0.233921
20109.27930 0.233978
20110.17969 0.234038
20111.08008 0.234112
20111.98047 0.234185
20112.88086 0.234259
20113.77930 0.234332
20114.66992 0.234406
20115.57031 0.234454
20116.47070 0.234488
20117.36914 0.234522
20118.26953 0.234556
20119.16992 0.234589
20120.06055 0.234627
20120.96094 0.234708
20121.85938 0.234789
20122.75977 0.234871
20123.66016 0.234952
20124.56055 0.235034
20125.46094 0.235109
20126.35938 0.23518
20127.25977 0.23525
20128.15039 0.23532
20129.05078 0.235391
20129.94922 0.235461
20130.84961 0.235532
20131.75000 0.235603
20132.65039 0.235674
20133.55078 0.235744
20134.44922 0.235815
20135.34961 0.235885
20136.25000 0.235952
20137.15039 0.236019
20138.03906 0.236087
20138.94922 0.236154
20139.83984 0.236221
20140.74023 0.23631
20141.64062 0.236404
20142.53906 0.236497
20143.43945 0.236591
20144.33984 0.236685
20145.24023 0.236778
20146.14062 0.236869
20147.03906 0.236961
20147.93945 0.237052
20148.83984 0.237144
20149.74023 0.237235
20150.64062 0.237286
20151.53906 0.23732
20152.43945 0.237354
20153.33984 0.237388
20154.24023 0.237422
20155.14062 0.237461
20156.03906 0.237528
20156.93945 0.237594
20157.83984 0.237661
20158.74023 0.237728
20159.64062 0.237795
20160.53906 0.237876
20161.44922 0.237966
20162.34961 0.238057
20163.25000 0.238147
20164.15039 0.238238
20165.05078 0.238328
20165.94922 0.238409
20166.84961 0.23849
20167.75000 0.238571
20168.65039 0.238652
20169.55078 0.238734
20170.44922 0.238829
20171.34961 0.238939
20172.25000 0.239049
20173.15039 0.239158
20174.06055 0.239269
20174.96094 0.239378
20175.85938 0.239425
20176.75977 0.239469
20177.66016 0.239512
20178.56055 0.239556
20179.46094 0.2396
20180.36914 0.239664
20181.26953 0.239759
20182.16992 0.239853
20183.07031 0.239948
20183.97070 0.240043
20184.86914 0.240138
20185.76953 0.240236
20186.67969 0.240334
20187.58008 0.240433
20188.48047 0.240531
20189.38086 0.24063
20190.27930 0.240709
20191.17969 0.240747
20192.08984 0.240785
20192.99023 0.240822
20193.89062 0.24086
20194.78906 0.240897
20195.68945 0.240998
20196.59961 0.241117
20197.50000 0.241237
20198.40039 0.241356
20199.30078 0.241475
20200.19922 0.241585
20201.10938 0.241661
20202.00977 0.241736
20202.91016 0.241812
20203.81055 0.241888
20204.71094 0.241963
20205.61914 0.242055
20206.51953 0.242154
20207.41992 0.242252
20208.33008 0.242351
20209.23047 0.24245
20210.13086 0.242547
20211.02930 0.242632
20211.93945 0.242718
20212.83984 0.242803
20213.74023 0.242889
20214.64062 0.242974
20215.55078 0.243046
20216.44922 0.243109
20217.34961 0.243173
20218.25977 0.243236
20219.16016 0.243299
20220.06055 0.243364
20220.96094 0.243456
20221.86914 0.243548
20222.76953 0.24364
20223.67969 0.243732
20224.58008 0.243824
20225.48047 0.24392
20226.38086 0.24402
20227.28906 0.244119
20228.18945 0.244219
20229.09961 0.244318
20230.00000 0.244418
20230.90039 0.244475
20231.81055 0.244533
20232.71094 0.24459
20233.60938 0.244647
20234.51953 0.244705
20235.41992 0.244793
20236.33008 0.244917
20237.23047 0.24504
20238.13086 0.245164
20239.03906 0.245287
20239.93945 0.245411
20240.84961 0.24549
20241.75000 0.245566
20242.65039 0.245641
20243.56055 0.245717
20244.46094 0.245793
20245.36914 0.245874
20246.26953 0.245964
20247.16992 0.246054
20248.08008 0.246144
20248.98047 0.246234
20249.89062 0.246324
20250.78906 0.246432
20251.69922 0.246544
20252.59961 0.246656
20253.50977 0.246768
20254.41016 0.24688
20255.31055 0.246985
20256.22070 0.24708
20257.13086 0.247174
20258.02930 0.247269
20258.92969 0.247363
20259.83984 0.247458
20260.74023 0.247538
20261.65039 0.247614
20262.55078 0.247691
20263.46094 0.247768
20264.35938 0.247845
20265.26953 0.247936
20266.16992 0.248057
20267.08008 0.248179
20267.98047 0.248301
20268.89062 0.248423
20269.78906 0.248545
20270.69922 0.24865
20271.60938 0.248751
20272.50977 0.248852
20273.41992 0.248953
20274.32031 0.249054
20275.23047 0.249147
20276.13086 0.249218
20277.03906 0.249289
20277.94922 0.24936
20278.84961 0.249431
20279.75977 0.249502
20280.66016 0.249595
20281.57031 0.249695
20282.47070 0.249796
20283.38086 0.249896
20284.28906 0.249997
20285.18945 0.2501
20286.09961 0.250212
20287.00000 0.250325
20287.91016 0.250438
20288.82031 0.250551
20289.72070 0.250664
20290.63086 0.250766
20291.53906 0.250865
20292.43945 0.250963
20293.34961 0.251061
20294.25000 0.25116
20295.16016 0.251259
20296.07031 0.251358
20296.97070 0.251458
20297.88086 0.251558
20298.78906 0.251658
20299.68945 0.251758
20300.59961 0.251855
20301.50977 0.251951
20302.41016 0.252047
20303.32031 0.252143
20304.23047 0.252239
20305.13086 0.252337
20306.03906 0.25245
20306.94922 0.252563
20307.85938 0.252677
20308.75977 0.25279
20309.66992 0.252903
20310.58008 0.253
20311.48047 0.253088
20312.39062 0.253175
20313.30078 0.253263
20314.21094 0.25335
20315.10938 0.253439
20316.01953 0.253537
20316.92969 0.253635
20317.83984 0.253733
20318.74023 0.253831
20319.65039 0.253929
20320.56055 0.254043
20321.46094 0.254168
20322.36914 0.254293
20323.27930 0.254418
20324.18945 0.254542
20325.09961 0.254662
20326.00000 0.254743
20326.91016 0.254825
20327.82031 0.254906
20328.73047 0.254987
20329.63086 0.255067
20330.53906 0.255122
20331.44922 0.255159
20332.35938 0.255195
20333.26953 0.255232
20334.17969 0.255268
20335.08008 0.255317
20335.99023 0.255478
20336.90039 0.255641
20337.81055 0.255803
20338.72070 0.255965
20339.63086 0.256127
20340.53906 0.256236
20341.43945 0.256306
20342.34961 0.256377
20343.25977 0.256447
20344.16992 0.256518
20345.08008 0.256593
20345.99023 0.256715
20346.89062 0.256836
20347.80078 0.256958
20348.71094 0.25708
20349.61914 0.257202
20350.52930 0.257293
20351.43945 0.257363
20352.34961 0.257433
20353.25977 0.257503
20354.16992 0.257574
20355.08008 0.257645
20355.98047 0.257732
20356.89062 0.25782
20357.80078 0.257907
20358.71094 0.257995
20359.61914 0.258082
20360.52930 0.258179
20361.43945 0.258281
20362.34961 0.258384
20363.25977 0.258487
20364.16992 0.25859
20365.08008 0.258694
20365.99023 0.258822
20366.90039 0.258949
20367.81055 0.259076
20368.72070 0.259203
20369.63086 0.259331
20370.53906 0.259431
20371.44922 0.259512
20372.35938 0.259594
20373.26953 0.259675
20374.17969 0.259756
20375.08984 0.259841
20376.00000 0.259957
20376.91016 0.260073
20377.82031 0.260189
20378.73047 0.260305
20379.64062 0.260421
20380.55078 0.260533
20381.46094 0.260642
20382.36914 0.260751
20383.27930 0.26086
20384.18945 0.260969
20385.09961 0.261079
20386.00977 0.261198
20386.91992 0.261317
20387.83008 0.261437
20388.74023 0.261556
20389.65039 0.261675
20390.56055 0.261755
20391.47070 0.261811
20392.38086 0.261867
20393.30078 0.261923
20394.21094 0.261979
20395.11914 0.262044
20396.02930 0.26217
20396.93945 0.262297
20397.84961 0.262423
20398.75977 0.262549
20399.66992 0.262676
20400.58008 0.262807
20401.50000 0.262941
20402.41016 0.263074
20403.32031 0.263209
20404.23047 0.263342
20405.14062 0.263474
20406.05078 0.263596
20406.96094 0.263717
20407.86914 0.263839
20408.78906 0.263961
20409.69922 0.264082
20410.60938 0.264189
20411.51953 0.264289
20412.42969 0.264388
20413.33984 0.264488
20414.25977 0.264588
20415.16992 0.264685
20416.08008 0.264771
20416.99023 0.264857
20417.90039 0.264943
20418.82031 0.265029
20419.73047 0.265114
20420.64062 0.265229
20421.55078 0.265357
20422.46094 0.265484
20423.38086 0.265611
20424.28906 0.265738
20425.19922 0.265859
20426.10938 0.265958
20427.02930 0.266057
20427.93945 0.266156
20428.84961 0.266254
20429.75977 0.266354
20430.67969 0.266465
20431.58984 0.26658
20432.50000 0.266696
20433.41016 0.266812
20434.33008 0.266927
20435.24023 0.267042
20436.15039 0.267154
20437.06055 0.267266
20437.98047 0.267378
20438.89062 0.267491
20439.80078 0.267603
20440.71094 0.267717
20441.63086 0.267833
20442.53906 0.267948
20443.46094 0.268064
20444.36914 0.26818
20445.27930 0.268294
20446.18945 0.268407
20447.10938 0.26852
20448.01953 0.268633
20448.92969 0.268746
20449.84961 0.268859
20450.75977 0.268973
20451.66992 0.269086
20452.58984 0.2692
20453.50000 0.269313
20454.41016 0.269427
20455.33008 0.269529
20456.24023 0.269611
20457.16016 0.269693
20458.07031 0.269774
20458.98047 0.269856
20459.90039 0.269938
20460.81055 0.270026
20461.72070 0.270114
20462.64062 0.270203
20463.55078 0.270291
20464.47070 0.27038
20465.38086 0.27049
20466.28906 0.270631
20467.21094 0.270772
20468.11914 0.270913
20469.03906 0.271054
20469.94922 0.271195
20470.86914 0.2713
20471.77930 0.271403
20472.69922 0.271507
20473.60938 0.27161
20474.51953 0.271714
20475.43945 0.271826
20476.34961 0.271949
20477.26953 0.272071
20478.17969 0.272194
20479.09961 0.272316
20480.00977 0.272438
20480.92969 0.272518
20481.83984 0.272598
20482.75977 0.272678
20483.66992 0.272758
20484.58984 0.272838
20485.50000 0.272944
20486.41992 0.273074
20487.33008 0.273203
20488.25000 0.273332
20489.16016 0.273461
20490.08008 0.273586
20490.99023 0.273663
20491.91016 0.273741
20492.82031 0.273819
20493.74023 0.273896
20494.65039 0.273974
20495.57031 0.274057
20496.48047 0.274144
20497.40039 0.274231
20498.31055 0.274318
20499.23047 0.274405
20500.14062 0.274496
20501.06055 0.274608
20501.98047 0.27472
20502.89062 0.274831
20503.81055 0.274943
20504.72070 0.275055
20505.64062 0.275137
20506.55078 0.275207
20507.47070 0.275278
20508.39062 0.275348
20509.30078 0.275418
20510.22070 0.275496
20511.13086 0.275599
20512.05078 0.275702
20512.97070 0.275805
20513.88086 0.275908
20514.80078 0.276011
20515.72070 0.276122
20516.63086 0.276235
20517.55078 0.276348
20518.47070 0.276461
20519.38086 0.276574
20520.30078 0.276695
20521.21094 0.27683
20522.13086 0.276966
20523.05078 0.277102
20523.96094 0.277238
20524.88086 0.277374
20525.80078 0.277461
20526.71094 0.277541
20527.63086 0.277621
20528.55078 0.277702
20529.47070 0.277782
20530.38086 0.277867
20531.30078 0.27796
20532.22070 0.278054
20533.13086 0.278147
20534.05078 0.27824
20534.97070 0.278333
20535.88086 0.278411
20536.80078 0.278488
20537.72070 0.278565
20538.64062 0.278642
20539.55078 0.27872
20540.47070 0.278815
20541.39062 0.278928
20542.31055 0.27904
20543.22070 0.279153
20544.14062 0.279265
20545.06055 0.279376
20545.98047 0.279461
20546.89062 0.279546
20547.81055 0.27963
20548.73047 0.279715
20549.65039 0.2798
20550.57031 0.279874
20551.48047 0.279941
20552.40039 0.280008
20553.32031 0.280076
20554.24023 0.280143
20555.16016 0.280213
20556.07031 0.280298
20556.99023 0.280382
20557.91016 0.280467
20558.83008 0.280552
20559.75000 0.280637
20560.66992 0.280751
20561.58008 0.280876
20562.50000 0.281001
20563.41992 0.281126
20564.33984 0.281251
20565.25977 0.281367
20566.17969 0.281459
20567.09961 0.281552
20568.00977 0.281644
20568.92969 0.281736
20569.84961 0.281828
20570.76953 0.281889
20571.68945 0.281943
20572.60938 0.281997
20573.52930 0.282051
20574.44922 0.282105
20575.35938 0.282175
20576.27930 0.28227
20577.19922 0.282365
20578.11914 0.282461
20579.03906 0.282556
20579.96094 0.282651
20580.88086 0.282713
20581.80078 0.282774
20582.72070 0.282834
20583.64062 0.282895
20584.56055 0.282955
20585.48047 0.283057
20586.39062 0.283196
20587.31055 0.283335
20588.23047 0.283474
20589.15039 0.283614
20590.07031 0.283747
20590.99023 0.283817
20591.91016 0.283887
20592.83008 0.283957
20593.75000 0.284027
20594.66992 0.284097
20595.58984 0.284158
20596.50977 0.284215
20597.42969 0.284271
20598.34961 0.284328
20599.26953 0.284384
20600.18945 0.284448
20601.10938 0.28454
20602.02930 0.284631
20602.94922 0.284723
20603.86914 0.284814
20604.78906 0.284906
20605.71094 0.285021
20606.63086 0.285143
20607.55078 0.285265
20608.47070 0.285387
20609.39062 0.285509
20610.31055 0.285592
20611.24023 0.2856
20612.16016 0.285607
20613.08008 0.285615
20614.00000 0.285622
20614.91992 0.28563
20615.83984 0.285725
20616.75977 0.285828
20617.67969 0.285932
20618.59961 0.286035
20619.51953 0.286138
20620.43945 0.286221
20621.36914 0.286282
20622.28906 0.286342
20623.21094 0.286403
20624.13086 0.286463
20625.05078 0.286527
20625.97070 0.286655
20626.89062 0.286782
20627.81055 0.286909
20628.73047 0.287037
20629.66016 0.287165
20630.58008 0.287272
20631.50000 0.287367
20632.41992 0.287463
20633.33984 0.287558
20634.25977 0.287653
20635.18945 0.287741
20636.10938 0.2878
20637.02930 0.287858
20637.94922 0.287916
20638.86914 0.287974
20639.78906 0.288033
20640.72070 0.288114
20641.64062 0.288203
20642.56055 0.288292
20643.48047 0.28838
20644.40039 0.288469
20645.33008 0.288547
20646.25000 0.288605
20647.16992 0.288663
20648.08984 0.28872
20649.01953 0.288778
20649.93945 0.288836
20650.85938 0.288901
20651.77930 0.288965
20652.71094 0.289031
20653.63086 0.289095
20654.55078 0.28916
20655.47070 0.289221
20656.39062 0.289279
20657.32031 0.289337
20658.24023 0.289394
20659.16016 0.289452
20660.08984 0.289513
20661.00977 0.289605
20661.92969 0.289697
20662.84961 0.289789
20663.77930 0.289881
20664.69922 0.289973
20665.61914 0.290037
20666.53906 0.290089
20667.47070 0.29014
20668.39062 0.290191
20669.31055 0.290243
20670.24023 0.290296
20671.16016 0.290357
20672.08008 0.290417
20673.00977 0.290478
20673.92969 0.290538
20674.85938 0.290599
20675.77930 0.290661
20676.69922 0.290723
20677.61914 0.290785
20678.55078 0.290848
20679.47070 0.29091
20680.40039 0.290982
20681.32031 0.291066
20682.24023 0.291151
20683.16992 0.291235
20684.08984 0.29132
20685.01953 0.291404
20685.93945 0.291467
20686.85938 0.291529
20687.78906 0.291591
20688.71094 0.291654
20689.63086 0.291716
20690.56055 0.291795
20691.48047 0.291885
20692.41016 0.291975
20693.33008 0.292065
20694.25977 0.292155
20695.17969 0.292246
20696.10938 0.292341
20697.02930 0.292436
20697.94922 0.29253
20698.88086 0.292625
20699.80078 0.29272
20700.73047 0.292794
20701.65039 0.292862
20702.58008 0.29293
20703.50000 0.292999
20704.42969 0.293067
20705.34961 0.293109
20706.27930 0.293109
20707.19922 0.293108
20708.13086 0.293107
20709.05078 0.293107
20709.97070 0.293106
20710.90039 0.293205
20711.82031 0.293307
20712.75000 0.293409
20713.67969 0.293511
20714.59961 0.293613
20715.52930 0.293686
20716.44922 0.293736
20717.38086 0.293786
20718.30078 0.293836
20719.23047 0.293886
20720.15039 0.29394
20721.08008 0.294011
20722.00000 0.294083
20722.92969 0.294154
20723.85938 0.294226
20724.77930 0.294297
20725.71094 0.294333
20726.63086 0.294357
20727.56055 0.294382
20728.48047 0.294407
20729.41016 0.294432
20730.33008 0.294474
20731.25977 0.294548
20732.18945 0.294621
20733.10938 0.294695
20734.03906 0.294768
20734.96094 0.294841
20735.89062 0.294874
20736.82031 0.294905
20737.74023 0.294937
20738.66992 0.294968
20739.59961 0.295
20740.51953 0.295052
20741.44922 0.29512
20742.38086 0.295189
20743.30078 0.295257
20744.23047 0.295326
20745.15039 0.295391
20746.08008 0.295442
20747.00977 0.295492
20747.93945 0.295543
20748.85938 0.295593
20749.78906 0.295644
20750.71094 0.295679
20751.64062 0.295709
20752.57031 0.29574
20753.50000 0.29577
20754.41992 0.295801
20755.34961 0.295831
20756.27930 0.295861
20757.19922 0.295891
20758.13086 0.295921
20759.06055 0.295951
20759.98047 0.295981
20760.91016 0.296092
20761.83984 0.296203
20762.76953 0.296315
20763.69922 0.296426
20764.61914 0.296538
20765.55078 0.296609
20766.48047 0.296652
20767.40039 0.296695
20768.33008 0.296738
20769.25977 0.296781
20770.18945 0.296815
20771.11914 0.296809
20772.03906 0.296803
20772.97070 0.296797
20773.90039 0.296791
20774.83008 0.296784
20775.75000 0.296855
20776.67969 0.296943
20777.60938 0.297032
20778.53906 0.29712
20779.47070 0.297209
20780.39062 0.29728
20781.32031 0.297329
20782.25000 0.297378
20783.17969 0.297427
20784.10938 0.297476
20785.03906 0.297524
20785.96094 0.297548
20786.89062 0.297572
20787.82031 0.297597
20788.75000 0.297621
20789.67969 0.297645
20790.60938 0.297686
20791.53906 0.297736
20792.46094 0.297786
20793.39062 0.297835
20794.32031 0.297885
20795.25000 0.297926
20796.17969 0.297946
20797.10938 0.297965
20798.03906 0.297985
20798.96094 0.298004
20799.89062 0.298023
20800.82031 0.298107
20801.75000 0.298199
20802.67969 0.298291
20803.60938 0.298382
20804.53906 0.298474
20805.47070 0.298556
20806.40039 0.298627
20807.33008 0.298699
20808.25977 0.298771
20809.18945 0.298842
20810.11914 0.298912
20811.03906 0.298969
20811.97070 0.299026
20812.90039 0.299084
20813.83008 0.299141
20814.75977 0.299198
20815.68945 0.299256
20816.61914 0.299314
20817.55078 0.299373
20818.48047 0.299431
20819.41016 0.29949
20820.33984 0.299549
20821.26953 0.299611
20822.19922 0.299672
20823.13086 0.299733
20824.06055 0.299795
20824.99023 0.299856
20825.91992 0.299874
20826.84961 0.299892
20827.77930 0.29991
20828.71094 0.299928
20829.64062 0.299946
20830.57031 0.300005
20831.50977 0.30009
20832.43945 0.300174
20833.36914 0.300259
20834.30078 0.300343
20835.23047 0.300418
20836.16016 0.300462
20837.08984 0.300506
20838.01953 0.30055
20838.94922 0.300594
20839.88086 0.300639
20840.81055 0.300694
20841.74023 0.30075
20842.66992 0.300807
20843.59961 0.300864
20844.53906 0.300921
20845.47070 0.300979
20846.40039 0.301039
20847.33008 0.3011
20848.25977 0.30116
20849.18945 0.30122
20850.11914 0.301283
20851.05078 0.30137
20851.98047 0.301456
20852.91992 0.301542
20853.84961 0.301629
20854.77930 0.301715
20855.71094 0.301758
20856.64062 0.301788
20857.57031 0.301818
20858.50977 0.301848
20859.43945 0.301878
20860.36914 0.301923
20861.30078 0.301991
20862.23047 0.30206
20863.16016 0.302128
20864.09961 0.302196
20865.02930 0.302264
20865.96094 0.302321
20866.89062 0.302378
20867.82031 0.302435
20868.75977 0.302492
20869.68945 0.302549
20870.61914 0.302592
20871.55078 0.302628
20872.48047 0.302664
20873.41992 0.302699
20874.34961 0.302735
20875.27930 0.30279
20876.21094 0.30289
20877.15039 0.302989
20878.08008 0.303089
20879.00977 0.303188
20879.93945 0.303288
20880.88086 0.303316
20881.81055 0.303341
20882.74023 0.303365
20883.66992 0.303389
20884.60938 0.303414
20885.53906 0.30347
20886.47070 0.303551
20887.41016 0.303631
20888.33984 0.303712
20889.26953 0.303793
20890.21094 0.30387
20891.14062 0.303934
20892.07031 0.304
20893.00000 0.304065
20893.93945 0.30413
20894.86914 0.304195
20895.80078 0.304229
20896.74023 0.304257
20897.66992 0.304286
20898.59961 0.304315
20899.53906 0.304344
20900.47070 0.304387
20901.40039 0.304446
20902.33984 0.304505
20903.26953 0.304563
20904.21094 0.304622
20905.14062 0.304679
20906.07031 0.30473
20907.00977 0.30478
20907.93945 0.304831
20908.86914 0.304881
20909.81055 0.304932
20910.74023 0.304992
20911.67969 0.305053
20912.60938 0.305115
20913.53906 0.305177
20914.48047 0.305239
20915.41016 0.305298
20916.34961 0.305354
20917.27930 0.30541
20918.21094 0.305465
20919.15039 0.30552
20920.08008 0.305576
20921.01953 0.305627
20921.94922 0.305678
20922.89062 0.305728
20923.82031 0.305779
20924.75977 0.30583
20925.68945 0.305915
20926.61914 0.306011
20927.56055 0.306107
20928.49023 0.306203
20929.42969 0.306299
20930.35938 0.306373
20931.30078 0.30641
20932.23047 0.306448
20933.16992 0.306485
20934.09961 0.306523
20935.03906 0.306558
20935.97070 0.306547
20936.91016 0.306536
20937.83984 0.306525
20938.77930 0.306514
20939.71094 0.306502
20940.65039 0.306559
20941.58984 0.306646
20942.51953 0.306734
20943.46094 0.306821
20944.39062 0.306908
20945.33008 0.306982
20946.25977 0.307032
20947.19922 0.307082
20948.13086 0.307132
20949.07031 0.307183
20950.00977 0.307233
20950.93945 0.307312
20951.88086 0.307391
20952.81055 0.30747
20953.75000 0.30755
20954.67969 0.307629
20955.61914 0.307672
20956.56055 0.307696
20957.49023 0.30772
20958.42969 0.307744
20959.36914 0.307768
20960.30078 0.307808
20961.24023 0.307883
20962.16992 0.307958
20963.10938 0.308032
20964.03906 0.308107
20964.98047 0.308182
20965.91992 0.308211
20966.85938 0.30824
20967.78906 0.308269
20968.73047 0.308297
20969.66016 0.308326
20970.59961 0.3084
20971.53906 0.3085
20972.47070 0.3086
20973.41016 0.3087
20974.34961 0.3088
20975.28906 0.308873
20976.22070 0.308884
20977.16016 0.308895
20978.09961 0.308906
20979.02930 0.308917
20979.97070 0.308928
20980.91016 0.30903
20981.83984 0.309134
20982.77930 0.309238
20983.72070 0.309343
20984.66016 0.309447
20985.58984 0.309523
20986.52930 0.309584
20987.47070 0.309644
20988.40039 0.309705
20989.33984 0.309765
20990.27930 0.309808
20991.22070 0.309811
20992.15039 0.309813
20993.08984 0.309816
20994.02930 0.309818
20994.97070 0.30982
20995.91016 0.309922
20996.83984 0.310027
20997.77930 0.310132
20998.72070 0.310237
20999.66016 0.310343
21000.59961 0.310364
21001.52930 0.310336
21002.47070 0.310308
21003.41016 0.31028
21004.34961 0.310252
21005.28906 0.310232
21006.22070 0.310228
21007.16016 0.310224
21008.09961 0.31022
21009.03906 0.310217
21009.98047 0.310213
21010.91992 0.310216
21011.84961 0.31022
21012.78906 0.310223
21013.73047 0.310227
21014.66992 0.310231
21015.60938 0.310243
21016.55078 0.310261
21017.49023 0.310278
21018.41992 0.310296
21019.35938 0.310313
21020.30078 0.31033
21021.24023 0.310347
21022.17969 0.310363
21023.11914 0.31038
21024.06055 0.310396
21025.00000 0.310413
21025.93945 0.310401
21026.88086 0.31039
21027.81055 0.310379
21028.75000 0.310367
21029.68945 0.310356
21030.63086 0.31034
21031.57031 0.310322
21032.50977 0.310304
21033.44922 0.310286
21034.39062 0.310268
21035.33008 0.310249
21036.26953 0.310229
21037.21094 0.310209
21038.15039 0.310189
21039.08984 0.31017
21040.02930 0.310151
21040.97070 0.310156
21041.91016 0.310162
21042.84961 0.310168
21043.78906 0.310174
21044.73047 0.310179
21045.66992 0.310178
21046.60938 0.310173
21047.55078 0.310169
21048.49023 0.310165
21049.42969 0.31016
21050.36914 0.310169
21051.31055 0.310199
21052.25000 0.310229
21053.18945 0.310259
21054.13086 0.310289
21055.07031 0.310312
21056.00977 0.310255
21056.94922 0.310198
21057.89062 0.310141
21058.83008 0.310084
21059.76953 0.310027
21060.71094 0.310086
21061.65039 0.310184
21062.58984 0.310281
21063.52930 0.310378
21064.47070 0.310475
21065.41992 0.31051
21066.35938 0.310466
21067.30078 0.310421
21068.24023 0.310377
21069.17969 0.310333
21070.11914 0.310295
21071.06055 0.310305
21072.00000 0.310315
21072.93945 0.310325
21073.88086 0.310335
21074.83008 0.310345
21075.76953 0.310328
21076.71094 0.310306
21077.65039 0.310283
21078.58984 0.310261
21079.52930 0.310238
21080.47070 0.310216
21081.41992 0.310195
21082.35938 0.310173
21083.30078 0.310152
21084.24023 0.31013
21085.17969 0.310116
21086.13086 0.310128
21087.07031 0.31014
21088.00977 0.310152
21088.94922 0.310164
21089.89062 0.310177
21090.83008 0.31021
21091.77930 0.310247
21092.72070 0.310284
21093.66016 0.310321
21094.59961 0.310357
21095.53906 0.310349
21096.49023 0.310307
21097.42969 0.310265
21098.36914 0.310224
21099.31055 0.310182
21100.25977 0.310158
21101.19922 0.310181
21102.14062 0.310205
21103.08008 0.310228
21104.02930 0.310252
21104.97070 0.310275
21105.91016 0.310251
21106.85938 0.310226
21107.80078 0.3102
21108.74023 0.310175
21109.67969 0.310149
21110.63086 0.310142
21111.57031 0.310145
21112.50977 0.310147
21113.46094 0.31015
21114.40039 0.310152
21115.33984 0.310179
21116.27930 0.310246
21117.23047 0.310313
21118.16992 0.31038
21119.10938 0.310447
21120.06055 0.310506
21121.00000 0.310447
21121.93945 0.310387
21122.89062 0.310327
21123.83008 0.310268
21124.76953 0.310208
21125.72070 0.310205
21126.66016 0.310219
21127.60938 0.310233
21128.55078 0.310248
21129.49023 0.310262
21130.43945 0.310266
21131.38086 0.310258
21132.32031 0.310251
21133.26953 0.310243
21134.21094 0.310235
21135.16016 0.310223
21136.09961 0.310186
21137.03906 0.31015
21137.99023 0.310113
21138.92969 0.310076
21139.88086 0.310039
21140.82031 0.310083
21141.75977 0.310139
21142.71094 0.310196
21143.65039 0.310252
21144.59961 0.310308
21145.53906 0.310306
21146.49023 0.31026
21147.42969 0.310214
21148.38086 0.310168
21149.32031 0.310122
21150.26953 0.310099
21151.21094 0.310137
21152.15039 0.310175
21153.09961 0.310212
21154.03906 0.31025
21154.99023 0.310287
21155.92969 0.310229
21156.88086 0.310169
21157.82031 0.310109
21158.76953 0.310049
21159.71094 0.309989
21160.66016 0.309995
21161.59961 0.31003
21162.55078 0.310064
21163.49023 0.310099
21164.43945 0.310134
21165.38086 0.310151
21166.33008 0.310141
21167.27930 0.310132
21168.22070 0.310122
21169.16992 0.310113
21170.10938 0.31011
21171.06055 0.310152
21172.00000 0.310196
21172.94922 0.310238
21173.89062 0.310281
21174.83984 0.310324
21175.78906 0.310315
21176.73047 0.310295
21177.67969 0.310275
21178.61914 0.310254
21179.57031 0.310234
21180.51953 0.3102
21181.46094 0.310154
21182.41016 0.310108
21183.34961 0.310061
21184.30078 0.310015
21185.25000 0.30999
21186.18945 0.310024
21187.14062 0.310058
21188.08984 0.310092
21189.02930 0.310127
21189.98047 0.310161
21190.91992 0.310125
21191.86914 0.310087
21192.82031 0.310049
21193.75977 0.310011
21194.71094 0.309973
21195.66016 0.309978
21196.59961 0.310002
21197.55078 0.310026
21198.50000 0.31005
21199.44922 0.310074
21200.39062 0.310081
21201.33984 0.310064
21202.28906 0.310047
21203.23047 0.310029
21204.17969 0.310012
21205.13086 0.309995
21206.07031 0.309982
21207.01953 0.30997
21207.97070 0.309957
21208.91992 0.309944
21209.85938 0.309931
21210.81055 0.309959
21211.75977 0.309994
21212.71094 0.310028
21213.65039 0.310063
21214.59961 0.310097
21215.55078 0.31011
21216.49023 0.310107
21217.43945 0.310105
21218.39062 0.310102
21219.33984 0.310099
21220.28906 0.310099
21221.23047 0.310107
21222.17969 0.310115
21223.13086 0.310123
21224.08008 0.31013
21225.02930 0.310138
21225.97070 0.310154
21226.91992 0.31017
21227.86914 0.310186
21228.82031 0.310202
21229.76953 0.310218
21230.71094 0.310199
21231.66016 0.310168
21232.60938 0.310137
21233.56055 0.310106
21234.50977 0.310075
21235.46094 0.310069
21236.40039 0.310092
21237.34961 0.310115
21238.30078 0.310137
21239.25000 0.310159
21240.19922 0.310175
21241.15039 0.310164
21242.09961 0.310153
21243.03906 0.310142
21243.99023 0.310131
21244.93945 0.310121
21245.89062 0.310144
21246.83984 0.310169
21247.78906 0.310194
21248.74023 0.31022
21249.68945 0.310245
21250.64062 0.310237
21251.58984 0.310211
21252.53906 0.310186
21253.48047 0.31016
21254.42969 0.310135
21255.38086 0.310118
21256.33008 0.310112
21257.27930 0.310106
21258.23047 0.3101
21259.17969 0.310095
21260.13086 0.31009
21261.08008 0.310093
21262.02930 0.310096
21262.98047 0.310098
21263.92969 0.310101
21264.88086 0.310103
21265.83008 0.310093
21266.77930 0.310081
21267.73047 0.310068
21268.67969 0.310056
21269.63086 0.310044
21270.58008 0.310044
21271.52930 0.310053
21272.48047 0.310061
21273.42969 0.31007
21274.38086 0.310079
21275.33008 0.310078
21276.27930 0.310059
21277.23047 0.31004
21278.17969 0.310021
21279.13086 0.310002
21280.08008 0.309984
21281.02930 0.309972
21281.98047 0.30996
21282.92969 0.309947
21283.88086 0.309935
21284.83008 0.309923
21285.78906 0.309935
21286.73047 0.309951
21287.68945 0.309968
21288.64062 0.309984
21289.58984 0.31
21290.53906 0.309999
21291.49023 0.309984
21292.43945 0.309968
21293.39062 0.309953
21294.33984 0.309938
21295.28906 0.309937
21296.24023 0.309969
21297.19922 0.310002
21298.15039 0.310034
21299.09961 0.310066
21300.05078 0.310096
21301.00000 0.310079
21301.94922 0.310062
21302.90039 0.310045
21303.85938 0.310029
21304.81055 0.310012
21305.75977 0.309996
21306.71094 0.30998
21307.66016 0.309964
21308.60938 0.309948
21309.56055 0.309932
21310.51953 0.309911
21311.47070 0.309886
21312.41992 0.309861
21313.36914 0.309836
21314.32031 0.30981
21315.27930 0.3098
21316.23047 0.309826
21317.17969 0.309853
21318.13086 0.309879
21319.08984 0.309905
21320.03906 0.309928
21320.99023 0.309885
21321.93945 0.309841
21322.89062 0.309797
21323.84961 0.309753
21324.80078 0.309709
21325.75000 0.309706
21326.71094 0.309713
21327.66016 0.309719
21328.60938 0.309726
21329.56055 0.309733
21330.51953 0.309728
21331.47070 0.309713
21332.41992 0.309698
21333.36914 0.309683
21334.33008 0.309667
21335.27930 0.309659
21336.23047 0.309668
21337.18945 0.309677
21338.14062 0.309687
21339.08984 0.309696
21340.03906 0.309702
21341.00000 0.309638
21341.94922 0.309574
21342.90039 0.30951
21343.85938 0.309446
21344.81055 0.309382
21345.75977 0.309366
21346.72070 0.309362
21347.66992 0.309358
21348.63086 0.309354
21349.58008 0.30935
21350.52930 0.309343
21351.48047 0.309335
21352.43945 0.309326
21353.39062 0.309317
21354.34961 0.309309
21355.30078 0.309289
21356.25000 0.309244
21357.21094 0.3092
21358.16016 0.309155
21359.11914 0.30911
21360.07031 0.309068
21361.01953 0.309062
21361.98047 0.309056
21362.92969 0.30905
21363.89062 0.309043
21364.83984 0.309037
21365.78906 0.30906
21366.75000 0.309089
21367.69922 0.309118
21368.66016 0.309146
21369.60938 0.309175
21370.57031 0.309169
21371.51953 0.309138
21372.48047 0.309107
21373.42969 0.309077
21374.38086 0.309046
21375.33984 0.309018
21376.28906 0.308994
21377.25000 0.30897
21378.19922 0.308946
21379.16016 0.308922
21380.10938 0.308897
21381.07031 0.308863
21382.01953 0.308828
21382.98047 0.308793
21383.92969 0.308758
21384.89062 0.308724
21385.83984 0.308683
21386.80078 0.308643
21387.75000 0.308602
21388.71094 0.308561
21389.66992 0.30852
21390.61914 0.308513
21391.58008 0.308526
21392.52930 0.308538
21393.49023 0.308551
21394.43945 0.308563
21395.40039 0.30856
21396.34961 0.308534
21397.31055 0.308509
21398.26953 0.308483
21399.22070 0.308458
21400.17969 0.308425
21401.13086 0.308356
21402.08984 0.308288
21403.03906 0.30822
21404.00000 0.308152
21404.96094 0.308084
21405.91016 0.308075
21406.86914 0.308069
21407.82031 0.308063
21408.77930 0.308057
21409.74023 0.308051
21410.68945 0.308069
21411.65039 0.308096
21412.60938 0.308123
21413.56055 0.308149
21414.51953 0.308176
21415.47070 0.308161
21416.42969 0.308104
21417.39062 0.308047
21418.34961 0.30799
21419.30078 0.307933
21420.25977 0.307876
21421.21094 0.307818
21422.16992 0.30776
21423.13086 0.307702
21424.08984 0.307644
21425.03906 0.307587
21426.00000 0.307549
21426.96094 0.307511
21427.91016 0.307473
21428.86914 0.307435
21429.83008 0.307397
21430.78906 0.30737
21431.74023 0.307346
21432.69922 0.307321
21433.66016 0.307297
21434.60938 0.307272
21435.57031 0.30725
21436.52930 0.307228
21437.49023 0.307207
21438.43945 0.307186
21439.40039 0.307164
21440.35938 0.307124
21441.32031 0.307051
21442.26953 0.306978
21443.23047 0.306905
21444.18945 0.306832
21445.15039 0.30677
21446.10938 0.306765
21447.06055 0.30676
21448.01953 0.306756
21448.98047 0.306751
21449.93945 0.306747
21450.90039 0.306717
21451.84961 0.306686
21452.81055 0.306654
21453.76953 0.306623
21454.73047 0.306592
21455.68945 0.306584
21456.64062 0.306585
21457.59961 0.306587
21458.56055 0.306588
21459.51953 0.30659
21460.48047 0.306548
21461.43945 0.306462
21462.40039 0.306376
21463.34961 0.306291
21464.31055 0.306205
21465.26953 0.306138
21466.23047 0.30612
21467.18945 0.306102
21468.15039 0.306083
21469.10938 0.306065
21470.07031 0.306047
21471.02930 0.306032
21471.98047 0.306017
21472.93945 0.306001
21473.90039 0.305986
21474.85938 0.305971
21475.82031 0.305932
21476.77930 0.305888
21477.74023 0.305845
21478.69922 0.305802
21479.66016 0.305758
21480.61914 0.305697
21481.58008 0.305625
21482.53906 0.305554
21483.50000 0.305483
21484.46094 0.305412
21485.41016 0.305364
21486.36914 0.305349
21487.33008 0.305333
21488.28906 0.305317
21489.25000 0.305301
21490.21094 0.305282
21491.16992 0.305248
21492.13086 0.305215
21493.08984 0.305182
21494.05078 0.305149
21495.00977 0.305115
21495.97070 0.305066
21496.92969 0.305017
21497.89062 0.304968
21498.84961 0.304919
21499.81055 0.30487
21500.76953 0.304839
21501.73047 0.304811
21502.69922 0.304784
21503.66016 0.304757
21504.61914 0.30473
21505.58008 0.304722
21506.53906 0.304727
21507.50000 0.304733
21508.46094 0.304738
21509.41992 0.304743
21510.38086 0.304715
21511.33984 0.304634
21512.30078 0.304553
21513.25977 0.304473
21514.22070 0.304392
21515.17969 0.304336
21516.14062 0.304385
21517.10938 0.304434
21518.07031 0.304483
21519.02930 0.304532
21519.99023 0.304581
21520.94922 0.304518
21521.91016 0.304454
21522.86914 0.30439
21523.83008 0.304326
21524.78906 0.304261
21525.75977 0.304219
21526.72070 0.304181
21527.67969 0.304144
21528.64062 0.304107
21529.59961 0.30407
21530.56055 0.304001
21531.52930 0.30391
21532.49023 0.30382
21533.44922 0.303729
21534.41016 0.303638
21535.36914 0.303593
21536.33984 0.303619
21537.30078 0.303644
21538.25977 0.30367
21539.22070 0.303696
21540.17969 0.303712
21541.15039 0.303684
21542.10938 0.303656
21543.07031 0.303629
21544.02930 0.303601
21544.99023 0.303573
21545.96094 0.303563
21546.91992 0.303554
21547.88086 0.303544
21548.83984 0.303534
21549.81055 0.303525
21550.76953 0.303488
21551.73047 0.303445
21552.68945 0.303402
21553.66016 0.303359
21554.61914 0.303316
21555.58008 0.303263
21556.53906 0.303204
21557.50977 0.303146
21558.47070 0.303087
21559.42969 0.303028
21560.40039 0.302988
21561.35938 0.302974
21562.32031 0.302961
21563.28906 0.302947
21564.25000 0.302933
21565.21094 0.302913
21566.17969 0.302871
21567.14062 0.30283
21568.09961 0.302788
21569.06055 0.302747
21570.02930 0.302705
21570.99023 0.302659
21571.96094 0.302612
21572.91992 0.302565
21573.88086 0.302518
21574.84961 0.302471
21575.81055 0.302494
21576.76953 0.302529
21577.74023 0.302564
21578.69922 0.302599
21579.66016 0.302634
21580.63086 0.302624
21581.58984 0.302589
21582.56055 0.302554
21583.51953 0.302519
21584.48047 0.302485
21585.44922 0.302432
21586.41016 0.30236
21587.38086 0.302287
21588.33984 0.302214
21589.30078 0.302141
21590.26953 0.30208
21591.23047 0.30205
21592.19922 0.30202
21593.16016 0.30199
21594.13086 0.301961
21595.08984 0.301929
21596.06055 0.301887
21597.01953 0.301844
21597.99023 0.301802
21598.94922 0.301759
21599.91992 0.301717
21600.88086 0.301707
21601.83984 0.3017
21602.81055 0.301693
21603.77930 0.301686
21604.74023 0.301679
21605.71094 0.301624
21606.66992 0.301553
21607.63086 0.301481
21608.59961 0.30141
21609.56055 0.301338
21610.52930 0.30128
21611.50000 0.301232
21612.46094 0.301185
21613.42969 0.301137
21614.39062 0.301089
21615.35938 0.301048
21616.32031 0.301019
21617.28906 0.300989
21618.25000 0.30096
21619.22070 0.30093
21620.17969 0.300895
21621.15039 0.300833
21622.11914 0.300772
21623.08008 0.300711
21624.05078 0.300649
21625.00977 0.300588
21625.98047 0.300543
21626.94922 0.300499
21627.91016 0.300454
21628.88086 0.300409
21629.83984 0.300364
21630.81055 0.300342
21631.77930 0.300324
21632.74023 0.300307
21633.71094 0.300289
21634.66992 0.300272
21635.64062 0.300231
21636.60938 0.300178
21637.57031 0.300125
21638.53906 0.300071
21639.50977 0.300018
21640.47070 0.299976
21641.43945 0.299945
21642.41016 0.299914
21643.36914 0.299883
21644.33984 0.299852
21645.31055 0.299809
21646.26953 0.299738
21647.24023 0.299668
21648.21094 0.299597
21649.16992 0.299527
21650.14062 0.299461
21651.10938 0.299418
21652.07031 0.299375
21653.03906 0.299332
21654.00977 0.29929
21654.98047 0.299247
21655.93945 0.299178
21656.91016 0.299108
21657.88086 0.299039
21658.84961 0.298969
21659.81055 0.298899
21660.77930 0.298843
21661.75000 0.29879
21662.71094 0.298737
21663.67969 0.298683
21664.65039 0.29863
21665.61914 0.298584
21666.58984 0.298542
21667.55078 0.2985
21668.51953 0.298458
21669.49023 0.298416
21670.46094 0.29838
21671.41992 0.29835
21672.39062 0.298321
21673.35938 0.298291
21674.33008 0.298262
21675.30078 0.298229
21676.26953 0.29819
21677.23047 0.29815
21678.19922 0.298111
21679.16992 0.298072
21680.14062 0.298029
21681.10938 0.297965
21682.07031 0.297902
21683.03906 0.297838
21684.00977 0.297775
21684.98047 0.297711
21685.94922 0.297673
21686.91992 0.297634
21687.89062 0.297596
21688.85938 0.297558
21689.82031 0.29752
21690.78906 0.297469
21691.75977 0.297415
21692.73047 0.297362
21693.69922 0.297308
21694.66992 0.297254
21695.64062 0.297211
21696.60938 0.297173
21697.57031 0.297136
21698.53906 0.297098
21699.50977 0.29706
21700.48047 0.297042
21701.44922 0.297043
21702.41992 0.297044
21703.39062 0.297045
21704.35938 0.297046
21705.33008 0.297025
21706.30078 0.296962
21707.26953 0.296898
21708.24023 0.296835
21709.21094 0.296771
21710.17969 0.296714
21711.15039 0.296682
21712.11914 0.29665
21713.08984 0.296619
21714.06055 0.296587
21715.02930 0.296555
21716.00000 0.296501
21716.96094 0.296448
21717.93945 0.296394
21718.91016 0.29634
21719.88086 0.296286
21720.84961 0.296252
21721.82031 0.296221
21722.78906 0.29619
21723.75977 0.296159
21724.73047 0.296128
21725.69922 0.296071
21726.66992 0.296003
21727.64062 0.295935
21728.60938 0.295867
21729.58008 0.295799
21730.55078 0.29577
21731.51953 0.29577
21732.49023 0.29577
21733.46094 0.29577
21734.42969 0.29577
21735.40039 0.295754
21736.36914 0.295717
21737.34961 0.295679
21738.32031 0.295642
21739.28906 0.295605
21740.25977 0.295552
21741.23047 0.295456
21742.19922 0.29536
21743.16992 0.295264
21744.14062 0.295167
21745.10938 0.295081
21746.08008 0.295072
21747.06055 0.295063
21748.02930 0.295053
21749.00000 0.295044
21749.97070 0.295035
21750.93945 0.294998
21751.91016 0.294961
21752.88086 0.294924
21753.85938 0.294886
21754.83008 0.294849
21755.80078 0.29483
21756.76953 0.294815
21757.74023 0.2948
21758.71094 0.294785
21759.68945 0.29477
21760.66016 0.294737
21761.63086 0.294696
21762.59961 0.294655
21763.57031 0.294613
21764.55078 0.294572
21765.51953 0.294521
21766.49023 0.294461
21767.46094 0.294402
21768.43945 0.294342
21769.41016 0.294282
21770.38086 0.294213
21771.34961 0.294129
21772.32031 0.294045
21773.30078 0.293961
21774.26953 0.293877
21775.24023 0.29382
21776.21094 0.293844
21777.18945 0.293869
21778.16016 0.293893
21779.13086 0.293918
21780.10938 0.293931
21781.08008 0.293852
21782.05078 0.293773
21783.01953 0.293694
21784.00000 0.293615
21784.97070 0.293536
21785.93945 0.2935
21786.91992 0.293466
21787.89062 0.293431
21788.85938 0.293397
21789.83984 0.293362
21790.81055 0.293308
21791.77930 0.29325
21792.75977 0.293192
21793.73047 0.293134
21794.69922 0.293075
21795.67969 0.293043
21796.65039 0.293022
21797.61914 0.293002
21798.59961 0.292981
21799.57031 0.29296
21800.53906 0.292925
21801.51953 0.292879
21802.49023 0.292833
21803.46094 0.292787
21804.43945 0.292741
21805.41016 0.29271
21806.39062 0.2927
21807.35938 0.29269
21808.33984 0.292679
21809.31055 0.292669
21810.27930 0.29264
21811.25977 0.292565
21812.23047 0.29249
21813.21094 0.292415
21814.17969 0.29234
21815.15039 0.292267
21816.13086 0.292207
21817.09961 0.292147
21818.08008 0.292086
21819.05078 0.292026
21820.02930 0.291967
21821.00000 0.291961
21821.98047 0.291955
21822.94922 0.29195
21823.92969 0.291944
21824.90039 0.291938
21825.88086 0.291845
21826.84961 0.291741
21827.82031 0.291637
21828.80078 0.291533
21829.77930 0.29143
21830.75000 0.291379
21831.72070 0.291345
21832.69922 0.291311
21833.67969 0.291277
21834.65039 0.291243
21835.61914 0.291186
21836.59961 0.291117
21837.58008 0.291048
21838.55078 0.290979
21839.52930 0.29091
21840.50000 0.290858
21841.48047 0.29082
21842.44922 0.290783
21843.42969 0.290746
21844.40039 0.290708
21845.38086 0.290658
21846.35938 0.290587
21847.33008 0.290517
21848.31055 0.290446
21849.27930 0.290376
21850.25977 0.290308
21851.24023 0.290247
21852.21094 0.290186
21853.18945 0.290125
21854.16016 0.290065
21855.14062 0.290002
21856.11914 0.289931
21857.08984 0.28986
21858.07031 0.289788
21859.03906 0.289717
21860.01953 0.289646
21861.00000 0.289583
21861.97070 0.289519
21862.94922 0.289457
21863.92969 0.289394
21864.90039 0.289331
21865.88086 0.289255
21866.85938 0.289179
21867.83008 0.289102
21868.81055 0.289026
21869.78906 0.288949
21870.75977 0.288898
21871.74023 0.288853
21872.72070 0.288809
21873.69922 0.288765
21874.66992 0.28872
21875.65039 0.288635
21876.61914 0.28853
21877.59961 0.288425
21878.58008 0.28832
21879.56055 0.288215
21880.53906 0.288108
21881.50977 0.288
21882.49023 0.287892
21883.47070 0.287785
21884.43945 0.287677
21885.41992 0.28759
21886.40039 0.287531
21887.38086 0.287473
21888.34961 0.287414
21889.33008 0.287355
21890.31055 0.287267
21891.28906 0.287116
21892.26953 0.286966
21893.24023 0.286816
21894.22070 0.286665
21895.19922 0.28653
21896.17969 0.286454
21897.15039 0.286379
21898.13086 0.286304
21899.10938 0.286229
21900.08984 0.286153
21901.07031 0.286078
21902.03906 0.286002
21903.01953 0.285926
21904.00000 0.28585
21904.98047 0.285774
21905.96094 0.285606
21906.93945 0.285435
21907.91992 0.285264
21908.89062 0.285094
21909.86914 0.284923
21910.84961 0.284811
21911.83008 0.284708
21912.81055 0.284604
21913.78906 0.284501
21914.76953 0.284398
21915.75000 0.284301
21916.72070 0.284207
21917.69922 0.284113
21918.67969 0.284018
21919.66016 0.283924
21920.64062 0.283776
21921.61914 0.283599
21922.59961 0.283423
21923.58008 0.283245
21924.56055 0.283069
21925.53906 0.282928
21926.51953 0.282816
21927.49023 0.282705
21928.47070 0.282593
21929.44922 0.282481
21930.42969 0.282356
21931.41016 0.282213
21932.39062 0.282071
21933.36914 0.281928
21934.34961 0.281785
21935.33008 0.281642
21936.31055 0.281497
21937.28906 0.281353
21938.26953 0.281208
21939.25000 0.281063
21940.23047 0.28092
21941.21094 0.280782
21942.18945 0.280645
21943.16992 0.280507
21944.15039 0.28037
21945.13086 0.280226
21946.10938 0.280046
21947.08984 0.279866
21948.07031 0.279686
21949.05078 0.279505
21950.02930 0.279325
21951.00977 0.279157
21951.99023 0.278989
21952.97070 0.278821
21953.94922 0.278653
21954.92969 0.278485
21955.91016 0.27828
21956.90039 0.278072
21957.88086 0.277863
21958.85938 0.277655
21959.83984 0.277447
21960.82031 0.277295
21961.80078 0.277154
21962.77930 0.277013
21963.75977 0.276872
21964.74023 0.276731
21965.72070 0.276546
21966.71094 0.276347
21967.68945 0.276148
21968.66992 0.275948
21969.65039 0.275749
21970.63086 0.27558
21971.60938 0.275428
21972.58984 0.275276
21973.57031 0.275123
21974.55078 0.274971
21975.53906 0.2748
21976.51953 0.274615
21977.50000 0.274429
21978.48047 0.274243
21979.46094 0.274058
21980.44922 0.273884
21981.42969 0.273727
21982.41016 0.27357
21983.39062 0.273412
21984.36914 0.273255
21985.34961 0.273086
21986.33984 0.272897
21987.32031 0.272708
21988.30078 0.272519
21989.27930 0.272329
21990.25977 0.272148
21991.25000 0.271988
21992.23047 0.271827
21993.21094 0.271667
21994.18945 0.271507
21995.17969 0.271341
21996.16016 0.27115
21997.14062 0.27096
21998.11914 0.270769
21999.10938 0.270578
22000.08984 0.27039
22001.07031 0.270231
22002.05078 0.270072
22003.03906 0.269913
22004.01953 0.269754
22005.00000 0.269595
22005.98047 0.269503
22006.97070 0.269411
22007.94922 0.269319
22008.92969 0.269227
22009.91992 0.269135
22010.90039 0.26895
22011.88086 0.268757
22012.86914 0.268563
22013.84961 0.268369
22014.83008 0.268176
22015.82031 0.268057
22016.80078 0.267954
22017.77930 0.267851
22018.76953 0.267748
22019.75000 0.267644
22020.73047 0.267529
22021.72070 0.267409
22022.69922 0.267289
22023.67969 0.267169
22024.66992 0.267049
22025.65039 0.266945
22026.63086 0.266848
22027.61914 0.266751
22028.59961 0.266654
22029.58984 0.266558
22030.57031 0.26642
22031.55078 0.266254
22032.53906 0.266087
22033.51953 0.26592
22034.50977 0.265754
22035.49023 0.265639
22036.48047 0.265576
22037.46094 0.265513
22038.43945 0.26545
22039.42969 0.265386
22040.41016 0.265311
22041.40039 0.26522
22042.38086 0.265128
22043.36914 0.265036
22044.34961 0.264945
22045.33984 0.264842
22046.32031 0.264718
22047.30078 0.264594
22048.28906 0.26447
22049.27930 0.264345
22050.25977 0.264248
22051.24023 0.264227
22052.23047 0.264205
22053.21094 0.264184
22054.19922 0.264163
22055.17969 0.264126
22056.16992 0.264025
22057.15039 0.263924
22058.14062 0.263823
22059.13086 0.263721
22060.10938 0.263629
22061.09961 0.263605
22062.08008 0.263581
22063.07031 0.263558
22064.05078 0.263533
22065.03906 0.263509
22066.01953 0.263471
22067.00977 0.263433
22067.99023 0.263395
22068.98047 0.263357
22069.96094 0.263319
22070.94922 0.263278
22071.93945 0.263236
22072.91992 0.263195
22073.91016 0.263153
22074.89062 0.263112
22075.88086 0.263084
22076.86914 0.263057
22077.84961 0.26303
22078.83984 0.263003
22079.82031 0.262977
22080.81055 0.262967
22081.80078 0.262961
22082.77930 0.262955
22083.76953 0.262949
22084.75977 0.262943
22085.74023 0.262932
22086.73047 0.262919
22087.72070 0.262907
22088.69922 0.262894
22089.68945 0.262882
22090.67969 0.262876
22091.66016 0.262874
22092.65039 0.262872
22093.64062 0.26287
22094.61914 0.262868
22095.60938 0.262892
22096.59961 0.262931
22097.58008 0.262971
22098.57031 0.263011
22099.56055 0.26305
22100.53906 0.263053
22101.52930 0.263025
22102.51953 0.262997
22103.50977 0.26297
22104.49023 0.262942
22105.48047 0.262945
22106.47070 0.262981
22107.46094 0.263018
22108.43945 0.263054
22109.42969 0.26309
22110.41992 0.263123
22111.41016 0.263151
22112.39062 0.263179
22113.38086 0.263207
22114.36914 0.263236
22115.35938 0.263279
22116.33984 0.263348
22117.33008 0.263418
22118.32031 0.263487
22119.31055 0.263557
22120.28906 0.263613
22121.27930 0.263641
22122.26953 0.263668
22123.25977 0.263696
22124.25000 0.263723
22125.24023 0.263755
22126.22070 0.263804
22127.21094 0.263852
22128.19922 0.2639
22129.18945 0.263949
22130.17969 0.264004
22131.16992 0.264088
22132.15039 0.264172
22133.14062 0.264257
22134.13086 0.264341
22135.11914 0.264419
22136.10938 0.264449
22137.09961 0.264479
22138.08984 0.264509
22139.08008 0.26454
22140.06055 0.264576
22141.05078 0.264702
22142.03906 0.264829
22143.02930 0.264955
22144.01953 0.265081
22145.00977 0.265207
22146.00000 0.265259
22146.99023 0.265311
22147.98047 0.265363
22148.97070 0.265416
22149.96094 0.265468
22150.94922 0.265499
22151.92969 0.26553
22152.91992 0.26556
22153.91016 0.265591
22154.90039 0.265621
22155.89062 0.265762
22156.88086 0.265916
22157.86914 0.266069
22158.85938 0.266222
22159.84961 0.266376
22160.83984 0.266449
22161.83008 0.266508
22162.82031 0.266567
22163.81055 0.266626
22164.80078 0.266685
22165.78906 0.26675
22166.77930 0.266817
22167.76953 0.266885
22168.75977 0.266952
22169.75000 0.267019
22170.74023 0.267144
22171.73047 0.267289
22172.72070 0.267433
22173.71094 0.267578
22174.69922 0.267723
22175.68945 0.267802
22176.67969 0.267852
22177.66992 0.267902
22178.66016 0.267952
22179.65039 0.268002
22180.64062 0.268098
22181.64062 0.268218
22182.63086 0.268338
22183.61914 0.268458
22184.60938 0.268579
22185.59961 0.268696
22186.58984 0.268811
22187.58008 0.268925
22188.57031 0.26904
22189.56055 0.269155
22190.55078 0.26926
22191.53906 0.269357
22192.53906 0.269455
22193.52930 0.269552
22194.51953 0.269649
22195.50977 0.269759
22196.50000 0.26988
22197.49023 0.270002
22198.48047 0.270123
22199.48047 0.270244
22200.47070 0.270354
22201.46094 0.270451
22202.44922 0.270548
22203.43945 0.270645
22204.42969 0.270742
22205.42969 0.270841
22206.41992 0.270942
22207.41016 0.271043
22208.40039 0.271144
22209.39062 0.271245
22210.39062 0.271354
22211.38086 0.271475
22212.36914 0.271597
22213.35938 0.271718
22214.34961 0.27184
22215.34961 0.271978
22216.33984 0.27215
22217.33008 0.272321
22218.32031 0.272493
22219.32031 0.272664
22220.31055 0.272816
22221.30078 0.272923
22222.28906 0.273029
22223.28906 0.273136
22224.27930 0.273243
22225.26953 0.273338
22226.25977 0.273398
22227.25977 0.27346
22228.25000 0.273521
22229.24023 0.273582
22230.23047 0.273671
22231.23047 0.273852
22232.22070 0.274032
22233.21094 0.274213
22234.21094 0.274394
22235.19922 0.274555
22236.18945 0.274636
22237.18945 0.274718
22238.17969 0.274799
22239.16992 0.27488
22240.16992 0.274976
22241.16016 0.275146
22242.15039 0.275315
22243.15039 0.275484
22244.14062 0.275654
22245.13086 0.275813
22246.13086 0.275909
22247.11914 0.276004
22248.11914 0.2761
22249.10938 0.276195
22250.09961 0.27629
22251.09961 0.276375
22252.08984 0.27646
22253.08008 0.276545
22254.08008 0.27663
22255.07031 0.276722
22256.06055 0.276898
22257.06055 0.277076
22258.05078 0.277253
22259.05078 0.27743
22260.03906 0.277602
22261.03906 0.277654
22262.02930 0.277707
22263.02930 0.277759
22264.01953 0.277812
22265.00977 0.277865
22266.00977 0.277992
22267.00000 0.27812
22268.00000 0.278247
22268.99023 0.278374
22269.99023 0.278501
22270.98047 0.278636
22271.98047 0.278772
22272.97070 0.278907
22273.96094 0.279042
22274.96094 0.279177
22275.96094 0.279287
22276.94922 0.279396
22277.94922 0.279505
22278.93945 0.279615
22279.93945 0.279724
22280.92969 0.279832
22281.92969 0.27994
22282.91992 0.280048
22283.91992 0.280156
22284.91016 0.280264
22285.91016 0.280368
22286.90039 0.280472
22287.90039 0.280575
22288.89062 0.280679
22289.89062 0.280783
22290.88086 0.280915
22291.88086 0.281049
22292.86914 0.281184
22293.86914 0.281319
22294.86914 0.281454
22295.85938 0.281557
22296.85938 0.281654
22297.85938 0.281751
22298.84961 0.281849
22299.84961 0.281946
22300.83984 0.282002
22301.83984 0.282051
22302.83984 0.2821
22303.83008 0.282149
22304.83008 0.282198
22305.82031 0.282301
22306.82031 0.282416
22307.82031 0.282531
22308.81055 0.282646
22309.81055 0.282761
22310.81055 0.282869
22311.80078 0.282975
22312.80078 0.283081
22313.78906 0.283187
22314.78906 0.283293
22315.78906 0.283364
22316.78906 0.283425
22317.77930 0.283486
22318.77930 0.283548
22319.77930 0.283609
22320.76953 0.283697
22321.76953 0.283792
22322.76953 0.283888
22323.75977 0.283983
22324.75977 0.284079
22325.75977 0.284152
22326.75977 0.284218
22327.75000 0.284283
22328.75000 0.284349
22329.75000 0.284415
22330.74023 0.284564
22331.74023 0.284741
22332.74023 0.284919
22333.74023 0.285096
22334.73047 0.285273
22335.73047 0.285358
22336.73047 0.285409
22337.73047 0.28546
22338.72070 0.285511
22339.72070 0.285562
22340.72070 0.285626
22341.72070 0.285696
22342.72070 0.285766
22343.71094 0.285835
22344.71094 0.285905
22345.71094 0.285972
22346.71094 0.286038
22347.71094 0.286104
22348.71094 0.28617
22349.69922 0.286237
22350.69922 0.286342
22351.69922 0.286463
22352.69922 0.286585
22353.69922 0.286706
22354.69922 0.286828
22355.68945 0.286882
22356.68945 0.286907
22357.68945 0.286932
22358.68945 0.286957
22359.68945 0.286981
22360.68945 0.287068
22361.68945 0.287184
22362.67969 0.287299
22363.67969 0.287414
22364.67969 0.28753
22365.67969 0.287592
22366.67969 0.28763
22367.67969 0.287668
22368.67969 0.287706
22369.67969 0.287743
22370.67969 0.287839
22371.67969 0.287963
22372.66992 0.288086
22373.66992 0.28821
22374.66992 0.288333
22375.66992 0.288409
22376.66992 0.288462
22377.66992 0.288514
22378.66992 0.288567
22379.66992 0.28862
22380.66992 0.288678
22381.66992 0.288738
22382.66992 0.288799
22383.66992 0.288859
22384.66992 0.288919
22385.66992 0.289004
22386.66992 0.289099
22387.66992 0.289195
22388.66992 0.28929
22389.66992 0.289386
22390.66992 0.289463
22391.66992 0.289532
22392.66992 0.2896
22393.66992 0.289669
22394.66992 0.289738
22395.66992 0.289832
22396.66992 0.289939
22397.66992 0.290046
22398.66992 0.290152
22399.66992 0.290259
22400.66992 0.290303
22401.66992 0.290316
22402.66992 0.290329
22403.66992 0.290342
22404.66992 0.290355
22405.66992 0.290421
22406.67969 0.290511
22407.67969 0.290602
22408.67969 0.290693
22409.67969 0.290783
22410.67969 0.290903
22411.67969 0.291037
22412.67969 0.291171
22413.67969 0.291305
22414.67969 0.291439
22415.67969 0.291547
22416.68945 0.291644
22417.68945 0.291741
22418.68945 0.291838
22419.68945 0.291934
22420.68945 0.292018
22421.68945 0.292096
22422.68945 0.292174
22423.69922 0.292252
22424.69922 0.29233
22425.69922 0.292379
22426.69922 0.292416
22427.69922 0.292453
22428.69922 0.29249
22429.71094 0.292527
22430.71094 0.292609
22431.71094 0.29271
22432.71094 0.292812
22433.71094 0.292913
22434.71094 0.293014
22435.72070 0.293081
22436.72070 0.293134
22437.72070 0.293187
22438.72070 0.293239
22439.72070 0.293292
22440.73047 0.293401
22441.73047 0.293532
22442.73047 0.293662
22443.73047 0.293792
22444.74023 0.293922
22445.74023 0.29402
22446.74023 0.294106
22447.74023 0.294193
22448.75000 0.294279
22449.75000 0.294365
22450.75000 0.294428
22451.75977 0.294483
22452.75977 0.294538
22453.75977 0.294593
22454.75977 0.294648
22455.76953 0.294717
22456.76953 0.294791
22457.76953 0.294864
22458.77930 0.294937
22459.77930 0.29501
22460.77930 0.2951
22461.78906 0.295193
22462.78906 0.295287
22463.78906 0.295381
22464.78906 0.295475
22465.80078 0.295595
22466.80078 0.295721
22467.81055 0.295848
22468.81055 0.295974
22469.81055 0.296101
22470.82031 0.296226
22471.82031 0.296351
22472.82031 0.296477
22473.83008 0.296602
22474.83008 0.296727
22475.83984 0.296807
22476.83984 0.296878
22477.83984 0.296949
22478.84961 0.297021
22479.84961 0.297092
22480.85938 0.297175
22481.85938 0.297261
22482.85938 0.297347
22483.86914 0.297433
22484.86914 0.297519
22485.88086 0.297609
22486.88086 0.297698
22487.88086 0.297788
22488.89062 0.297878
22489.89062 0.297968
22490.90039 0.298056
22491.90039 0.298143
22492.91016 0.298231
22493.91016 0.298318
22494.91992 0.298406
22495.91992 0.298446
22496.92969 0.298482
22497.92969 0.298518
22498.93945 0.298554
22499.93945 0.298591
22500.94922 0.298632
22501.94922 0.298675
22502.96094 0.298717
22503.96094 0.298759
22504.97070 0.298801
22505.97070 0.298964
22506.98047 0.299131
22507.98047 0.299299
22508.99023 0.299466
22509.99023 0.299633
22511.00000 0.299813
22512.00000 0.299994
22513.00977 0.300174
22514.01953 0.300355
22515.01953 0.300532
22516.02930 0.300551
22517.02930 0.300571
22518.03906 0.30059
22519.03906 0.300609
22520.05078 0.300636
22521.05078 0.300796
22522.06055 0.300956
22523.07031 0.301117
22524.07031 0.301277
22525.08008 0.301424
22526.08984 0.301418
22527.08984 0.301412
22528.09961 0.301405
22529.09961 0.301399
22530.10938 0.3014
22531.11914 0.301463
22532.11914 0.301526
22533.13086 0.301588
22534.13086 0.301651
22535.14062 0.301722
22536.15039 0.301843
22537.15039 0.301964
22538.16016 0.302085
22539.16992 0.302206
22540.17969 0.302326
22541.17969 0.302442
22542.18945 0.302558
22543.19922 0.302674
22544.19922 0.302791
22545.21094 0.302903
22546.22070 0.302999
22547.22070 0.303094
22548.23047 0.303191
22549.24023 0.303287
22550.24023 0.303386
22551.25000 0.303498
22552.25977 0.303609
22553.26953 0.303721
22554.26953 0.303832
22555.27930 0.303941
22556.28906 0.304043
22557.30078 0.304145
22558.30078 0.304247
22559.31055 0.304349
22560.32031 0.304449
22561.33008 0.304548
22562.33008 0.304646
22563.33984 0.304744
22564.34961 0.304842
22565.35938 0.304928
22566.36914 0.304992
22567.36914 0.305056
22568.38086 0.30512
22569.39062 0.305184
22570.40039 0.305294
22571.41016 0.305475
22572.41016 0.305656
22573.41992 0.305836
22574.42969 0.306017
22575.43945 0.306101
22576.44922 0.30606
22577.46094 0.306019
22578.46094 0.305977
22579.47070 0.305936
22580.48047 0.305998
22581.49023 0.306174
22582.50000 0.306349
22583.50977 0.306525
22584.51953 0.306701
22585.51953 0.306827
22586.52930 0.306909
22587.53906 0.306991
22588.55078 0.307073
22589.56055 0.307155
22590.57031 0.307246
22591.58008 0.307343
22592.58984 0.30744
22593.59961 0.307537
22594.60938 0.307634
22595.60938 0.307723
22596.61914 0.307806
22597.63086 0.30789
22598.64062 0.307974
22599.65039 0.308058
22600.66016 0.308126
22601.66992 0.308186
22602.67969 0.308246
22603.68945 0.308306
22604.69922 0.308366
22605.71094 0.308495
22606.72070 0.308654
22607.73047 0.308814
22608.74023 0.308973
22609.75000 0.309132
22610.75977 0.30926
22611.76953 0.309379
22612.77930 0.309497
22613.78906 0.309616
22614.80078 0.309735
22615.81055 0.30976
22616.82031 0.309762
22617.83008 0.309765
22618.83984 0.309767
22619.84961 0.309769
22620.85938 0.309903
22621.86914 0.310061
22622.88086 0.310218
22623.89062 0.310375
22624.90039 0.310533
22625.91016 0.310641
22626.91992 0.310744
22627.92969 0.310847
22628.93945 0.31095
22629.94922 0.311053
22630.96094 0.311154
22631.97070 0.311255
22632.99023 0.311356
22634.00000 0.311457
22635.00977 0.311557
22636.01953 0.311688
22637.02930 0.311818
22638.03906 0.311948
22639.05078 0.312079
22640.06055 0.312203
22641.07031 0.312233
22642.08984 0.312263
22643.09961 0.312294
22644.10938 0.312324
22645.11914 0.312366
22646.13086 0.312491
22647.14062 0.312616
22648.15039 0.312741
22649.16992 0.312866
22650.17969 0.312986
22651.18945 0.313075
22652.19922 0.313164
22653.21094 0.313253
22654.22070 0.313343
22655.24023 0.313438
22656.25000 0.313553
22657.25977 0.313667
22658.26953 0.313782
22659.28906 0.313897
22660.30078 0.313982
22661.31055 0.313994
22662.32031 0.314007
22663.33008 0.314019
22664.34961 0.314032
22665.35938 0.314073
22666.36914 0.314167
22667.38086 0.314261
22668.39062 0.314354
22669.41016 0.314449
22670.41992 0.31457
22671.42969 0.314731
22672.44922 0.314891
22673.46094 0.315052
22674.47070 0.315213
22675.48047 0.315329
22676.50000 0.315395
22677.50977 0.315462
22678.51953 0.315528
22679.53906 0.315595
22680.55078 0.315677
22681.56055 0.315771
22682.57031 0.315866
22683.58984 0.315961
22684.59961 0.316056
22685.60938 0.316156
22686.63086 0.316258
22687.64062 0.31636
22688.65039 0.316462
22689.66992 0.316564
22690.67969 0.316656
22691.68945 0.316742
22692.71094 0.316829
22693.72070 0.316915
22694.73047 0.317002
22695.75000 0.31709
22696.75977 0.31718
22697.77930 0.317269
22698.78906 0.317359
22699.80078 0.317448
22700.82031 0.317517
22701.83008 0.317581
22702.84961 0.317646
22703.85938 0.317709
22704.86914 0.317774
22705.89062 0.317884
22706.90039 0.318
22707.91992 0.318117
22708.92969 0.318234
22709.94922 0.31835
22710.96094 0.318469
22711.97070 0.318588
22712.99023 0.318708
22714.00000 0.318827
22715.01953 0.318946
22716.02930 0.319018
22717.03906 0.31909
22718.06055 0.319162
22719.08008 0.319234
22720.08984 0.319312
22721.10938 0.319455
22722.11914 0.319598
22723.13086 0.31974
22724.15039 0.319883
22725.16016 0.320018
22726.17969 0.320114
22727.19922 0.32021
22728.21094 0.320306
22729.22070 0.320402
22730.24023 0.320489
22731.25977 0.320547
22732.26953 0.320606
22733.28906 0.320665
22734.30078 0.320723
22735.32031 0.320791
22736.33008 0.320879
22737.34961 0.320967
22738.35938 0.321055
22739.38086 0.321144
22740.39062 0.321227
22741.41016 0.321304
22742.42969 0.32138
22743.43945 0.321457
22744.46094 0.321533
22745.47070 0.321605
22746.49023 0.321671
22747.50977 0.321737
22748.51953 0.321803
22749.53906 0.321869
22750.55078 0.321977
22751.57031 0.32212
22752.58984 0.322262
22753.59961 0.322405
22754.61914 0.322548
22755.63086 0.32263
22756.65039 0.322674
22757.66992 0.322719
22758.67969 0.322764
22759.69922 0.322809
22760.72070 0.322908
22761.73047 0.323029
22762.75000 0.32315
22763.76953 0.323271
22764.78906 0.323393
22765.80078 0.323444
22766.82031 0.323476
22767.83008 0.323509
22768.84961 0.323541
22769.86914 0.323574
22770.89062 0.323673
22771.90039 0.323782
22772.91992 0.323891
22773.93945 0.324001
22774.96094 0.32411
22775.97070 0.324196
22776.99023 0.32428
22778.00977 0.324365
22779.01953 0.32445
22780.03906 0.324535
22781.06055 0.324613
22782.08008 0.324692
22783.08984 0.324771
22784.10938 0.324849
22785.13086 0.324926
22786.15039 0.32499
22787.16016 0.325053
22788.17969 0.325117
22789.19922 0.325181
22790.22070 0.325239
22791.24023 0.325279
22792.25000 0.325318
22793.26953 0.325358
22794.28906 0.325398
22795.31055 0.325459
22796.33008 0.32557
22797.33984 0.325682
22798.35938 0.325794
22799.38086 0.325905
22800.40039 0.325993
22801.41992 0.326045
22802.43945 0.326098
22803.46094 0.32615
22804.47070 0.326202
22805.49023 0.326278
22806.50977 0.32638
22807.52930 0.326482
22808.55078 0.326584
22809.57031 0.326686
22810.58984 0.326781
22811.59961 0.326871
22812.61914 0.326962
22813.64062 0.327052
22814.66016 0.327143
22815.67969 0.327233
22816.69922 0.327323
22817.72070 0.327412
22818.74023 0.327502
22819.75977 0.327592
22820.77930 0.327663
22821.78906 0.327727
22822.81055 0.327792
22823.83008 0.327857
22824.84961 0.327922
22825.86914 0.327929
22826.89062 0.327927
22827.91016 0.327925
22828.92969 0.327923
22829.94922 0.327921
22830.97070 0.328039
22831.99023 0.328164
22833.00977 0.328288
22834.02930 0.328413
22835.05078 0.328534
22836.07031 0.328591
22837.08984 0.328648
22838.10938 0.328705
22839.13086 0.328762
22840.15039 0.328825
22841.16992 0.32892
22842.18945 0.329016
22843.21094 0.329112
22844.23047 0.329207
22845.25000 0.329302
22846.26953 0.329392
22847.28906 0.329483
22848.31055 0.329574
22849.33008 0.329665
22850.34961 0.329751
22851.36914 0.32983
22852.39062 0.329908
22853.41992 0.329987
22854.43945 0.330066
22855.46094 0.330131
22856.48047 0.330182
22857.50000 0.330233
22858.51953 0.330283
22859.53906 0.330334
22860.56055 0.330414
22861.58008 0.330518
22862.59961 0.330622
22863.63086 0.330726
22864.65039 0.33083
22865.66992 0.3309
22866.68945 0.330951
22867.71094 0.331003
22868.73047 0.331054
22869.75000 0.331106
22870.77930 0.331174
22871.80078 0.331248
22872.82031 0.331321
22873.83984 0.331395
22874.85938 0.331468
22875.88086 0.331566
22876.90039 0.331669
22877.92969 0.331771
22878.94922 0.331874
22879.97070 0.331976
22880.99023 0.332032
22882.00977 0.332086
22883.03906 0.33214
22884.06055 0.332194
22885.08008 0.332248
22886.09961 0.332307
22887.11914 0.332365
22888.15039 0.332424
22889.16992 0.332482
22890.18945 0.332548
22891.21094 0.332647
22892.24023 0.332746
22893.25977 0.332845
22894.27930 0.332943
22895.30078 0.333039
22896.33008 0.333126
22897.34961 0.333214
22898.36914 0.333301
22899.39062 0.333388
22900.41992 0.333458
22901.43945 0.333501
22902.46094 0.333544
22903.49023 0.333588
22904.50977 0.333631
22905.52930 0.333691
22906.56055 0.333768
22907.58008 0.333844
22908.59961 0.333921
22909.63086 0.333997
22910.65039 0.334062
22911.66992 0.334121
22912.69922 0.33418
22913.72070 0.334238
22914.74023 0.334297
22915.76953 0.334383
22916.78906 0.334479
22917.81055 0.334575
22918.83984 0.334671
22919.85938 0.334767
22920.88086 0.334823
22921.91016 0.334872
22922.92969 0.334921
22923.96094 0.33497
22924.98047 0.335019
22926.00000 0.33511
22927.02930 0.335201
22928.05078 0.335292
22929.08008 0.335383
22930.09961 0.335473
22931.11914 0.335554
22932.15039 0.335636
22933.16992 0.335718
22934.19922 0.335799
22935.22070 0.335882
22936.25000 0.33597
22937.26953 0.336058
22938.28906 0.336146
22939.32031 0.336234
22940.33984 0.336316
22941.36914 0.336389
22942.39062 0.336462
22943.41992 0.336535
22944.43945 0.336607
22945.47070 0.336699
22946.49023 0.336814
22947.51953 0.336929
22948.53906 0.337044
22949.57031 0.33716
22950.58984 0.337253
22951.61914 0.33733
22952.64062 0.337408
22953.66992 0.337485
22954.68945 0.337562
22955.72070 0.337631
22956.74023 0.337697
22957.76953 0.337763
22958.78906 0.33783
22959.82031 0.337896
22960.84961 0.337969
22961.86914 0.338044
22962.90039 0.338119
22963.91992 0.338195
22964.94922 0.33827
22965.97070 0.338347
22967.00000 0.338425
22968.02930 0.338503
22969.05078 0.338581
22970.08008 0.338656
22971.09961 0.338705
22972.13086 0.338753
22973.15039 0.338802
22974.17969 0.338851
22975.21094 0.338906
22976.23047 0.338985
22977.25977 0.339064
22978.28906 0.339143
22979.31055 0.339223
22980.33984 0.339311
22981.36914 0.339416
22982.39062 0.33952
22983.41992 0.339626
22984.43945 0.33973
22985.47070 0.339829
22986.50000 0.339919
22987.51953 0.34001
22988.55078 0.340101
22989.58008 0.340192
22990.60938 0.340269
22991.63086 0.340336
22992.66016 0.340404
22993.68945 0.340471
22994.71094 0.340539
22995.74023 0.340624
22996.76953 0.340715
22997.78906 0.340807
22998.82031 0.340899
22999.84961 0.340991
23000.88086 0.34108
23001.90039 0.34117
23002.92969 0.341259
23003.96094 0.341348
23004.98047 0.341437
23006.00977 0.341522
23007.03906 0.341606
23008.07031 0.341691
23009.09961 0.341776
23010.11914 0.341857
23011.15039 0.341909
23012.17969 0.341962
23013.21094 0.342014
23014.23047 0.342066
23015.25977 0.342132
23016.28906 0.342236
23017.32031 0.342339
23018.34961 0.342443
23019.38086 0.342546
23020.40039 0.342647
23021.42969 0.342742
23022.46094 0.342837
23023.49023 0.342932
23024.51953 0.343027
23025.53906 0.343093
23026.57031 0.343134
23027.59961 0.343174
23028.63086 0.343214
23029.66016 0.343255
23030.68945 0.343349
23031.72070 0.343471
23032.74023 0.343593
23033.76953 0.343715
23034.80078 0.343837
23035.83008 0.343902
23036.85938 0.343955
23037.89062 0.344007
23038.91992 0.34406
23039.94922 0.344112
23040.98047 0.344209
23042.00977 0.344307
23043.03906 0.344406
23044.06055 0.344505
23045.08984 0.3446
23046.11914 0.344659
23047.15039 0.344718
23048.17969 0.344777
23049.21094 0.344836
23050.24023 0.3449
23051.26953 0.344983
23052.30078 0.345066
23053.33008 0.345149
23054.35938 0.345232
23055.39062 0.345307
23056.41992 0.345368
23057.44922 0.345429
23058.48047 0.34549
23059.50977 0.345551
23060.53906 0.345619
23061.57031 0.345693
23062.59961 0.345767
23063.63086 0.345841
23064.66016 0.345915
23065.68945 0.345999
23066.72070 0.346087
23067.75000 0.346176
23068.77930 0.346265
23069.81055 0.346353
23070.83984 0.346429
23071.86914 0.346501
23072.90039 0.346573
23073.92969 0.346645
23074.96094 0.346717
23075.99023 0.346783
23077.01953 0.346848
23078.05078 0.346913
23079.08008 0.346978
23080.11914 0.347045
23081.15039 0.347125
23082.17969 0.347204
23083.21094 0.347283
23084.24023 0.347362
23085.26953 0.347437
23086.30078 0.3475
23087.33008 0.347564
23088.35938 0.347627
23089.39062 0.34769
23090.42969 0.347759
23091.46094 0.347839
23092.49023 0.347918
23093.51953 0.347997
23094.55078 0.348077
23095.58008 0.348132
23096.61914 0.348169
23097.65039 0.348206
23098.67969 0.348243
23099.71094 0.34828
23100.74023 0.348336
23101.76953 0.348401
23102.80078 0.348465
23103.83984 0.348529
23104.86914 0.348593
23105.90039 0.34868
23106.92969 0.348769
23107.96094 0.348859
23109.00000 0.348949
23110.02930 0.349037
23111.06055 0.349094
23112.08984 0.349152
23113.13086 0.349209
23114.16016 0.349266
23115.18945 0.349322
23116.22070 0.349373
23117.25977 0.349425
23118.28906 0.349476
23119.32031 0.349528
23120.34961 0.34958
23121.39062 0.349633
23122.41992 0.349686
23123.44922 0.349739
23124.48047 0.349792
23125.51953 0.349827
23126.55078 0.349846
23127.58008 0.349865
23128.61914 0.349884
23129.65039 0.349902
23130.67969 0.349925
23131.72070 0.34995
23132.75000 0.349974
23133.77930 0.349999
23134.82031 0.350024
23135.84961 0.350052
23136.88086 0.350081
23137.91992 0.350111
23138.94922 0.35014
23139.98047 0.350169
23141.01953 0.350219
23142.05078 0.350269
23143.08008 0.350319
23144.11914 0.350369
23145.15039 0.350418
23146.18945 0.350455
23147.22070 0.350492
23148.25000 0.350529
23149.28906 0.350566
23150.32031 0.350592
23151.35938 0.350592
23152.39062 0.350591
23153.41992 0.350591
23154.46094 0.350591
23155.49023 0.350587
23156.52930 0.350579
23157.56055 0.35057
23158.58984 0.350562
23159.63086 0.350554
23160.66016 0.350536
23161.69922 0.350514
23162.73047 0.350491
23163.76953 0.350468
23164.80078 0.350445
23165.83984 0.350451
23166.86914 0.350464
23167.90039 0.350477
23168.93945 0.350489
23169.97070 0.350502
23171.00977 0.350481
23172.03906 0.35046
23173.08008 0.350439
23174.11914 0.350417
23175.15039 0.350397
23176.18945 0.350383
23177.22070 0.350369
23178.25977 0.350354
23179.28906 0.35034
23180.33008 0.350313
23181.35938 0.350259
23182.40039 0.350205
23183.42969 0.35015
23184.47070 0.350096
23185.50000 0.350037
23186.53906 0.349974
23187.57031 0.349911
23188.60938 0.349848
23189.65039 0.349785
23190.67969 0.349718
23191.72070 0.34965
23192.75000 0.349581
23193.78906 0.349513
23194.83008 0.349444
23195.85938 0.349353
23196.90039 0.349258
23197.92969 0.349163
23198.97070 0.349067
23200.00977 0.348972
23201.03906 0.348859
23202.08008 0.348747
23203.11914 0.348633
23204.15039 0.348521
23205.18945 0.348406
23206.22070 0.348283
23207.25977 0.34816
23208.30078 0.348036
23209.33008 0.347913
23210.36914 0.347784
23211.41016 0.347644
23212.43945 0.347504
23213.48047 0.347364
23214.51953 0.347224
23215.55078 0.347071
23216.58984 0.346907
23217.63086 0.346743
23218.66992 0.346579
23219.69922 0.346415
23220.74023 0.346242
23221.77930 0.346066
23222.81055 0.34589
23223.84961 0.345713
23224.89062 0.345537
23225.92969 0.345377
23226.96094 0.345218
23228.00000 0.34506
23229.03906 0.344902
23230.08008 0.344741
23231.10938 0.344551
23232.15039 0.344362
23233.18945 0.344172
23234.23047 0.343982
23235.25977 0.343789
23236.30078 0.343587
23237.33984 0.343384
23238.38086 0.343182
23239.41992 0.342979
23240.44922 0.342748
23241.49023 0.34248
23242.52930 0.342212
23243.57031 0.341944
23244.60938 0.341676
23245.64062 0.341422
23246.67969 0.341178
23247.72070 0.340934
23248.75977 0.34069
23249.80078 0.340446
23250.83984 0.340186
23251.88086 0.339922
23252.91016 0.339658
23253.94922 0.339394
23254.99023 0.33913
23256.02930 0.33884
23257.07031 0.338549
23258.10938 0.338259
23259.14062 0.337969
23260.17969 0.337675
23261.22070 0.337363
23262.25977 0.33705
23263.30078 0.336738
23264.33984 0.336426
23265.38086 0.336105
23266.41992 0.335768
23267.46094 0.335431
23268.50000 0.335094
23269.53906 0.334757
23270.58008 0.334401
23271.61914 0.334031
23272.65039 0.333661
23273.68945 0.33329
23274.73047 0.33292
23275.76953 0.332551
23276.81055 0.332183
23277.84961 0.331816
23278.89062 0.331448
23279.92969 0.33108
23280.97070 0.330673
23282.00977 0.330262
23283.05078 0.329852
23284.08984 0.329441
23285.13086 0.329031
23286.16992 0.328627
23287.21094 0.328224
23288.25000 0.32782
23289.28906 0.327416
23290.33008 0.327016
23291.36914 0.326626
23292.41016 0.326236
23293.44922 0.325845
23294.49023 0.325455
23295.52930 0.325025
23296.57031 0.324557
23297.61914 0.324089
23298.66016 0.32362
23299.69922 0.323153
23300.74023 0.322669
23301.77930 0.322178
23302.82031 0.321688
23303.85938 0.321197
23304.90039 0.320706
23305.93945 0.320199
23306.98047 0.31969
23308.01953 0.319181
23309.06055 0.318672
23310.10938 0.318161
23311.15039 0.317631
23312.18945 0.317101
23313.23047 0.316571
23314.26953 0.316041
23315.31055 0.315514
23316.34961 0.314994
23317.39062 0.314475
23318.43945 0.313956
23319.48047 0.313437
23320.51953 0.312886
23321.56055 0.312306
23322.59961 0.311726
23323.64062 0.311145
23324.68945 0.310564
23325.73047 0.31001
23326.76953 0.309466
23327.81055 0.308923
23328.84961 0.308378
23329.89062 0.307835
23330.93945 0.307225
23331.98047 0.306608
23333.01953 0.30599
23334.06055 0.305373
23335.10938 0.304753
23336.15039 0.304118
23337.18945 0.303484
23338.23047 0.302849
23339.27930 0.302214
23340.32031 0.301574
23341.35938 0.300925
23342.40039 0.300275
23343.44922 0.299624
23344.49023 0.298974
23345.52930 0.298282
23346.57031 0.297551
23347.61914 0.296818
23348.66016 0.296086
23349.69922 0.295353
23350.74023 0.294671
23351.78906 0.294009
23352.83008 0.293347
23353.86914 0.292684
23354.91992 0.292022
23355.96094 0.291331
23357.00000 0.290637
23358.05078 0.289944
23359.08984 0.289251
23360.13086 0.28856
23361.17969 0.287877
23362.22070 0.287194
23363.25977 0.286511
23364.31055 0.285829
23365.34961 0.285134
23366.39062 0.284414
23367.43945 0.283695
23368.48047 0.282975
23369.52930 0.282256
23370.57031 0.281501
23371.60938 0.280716
23372.66016 0.279932
23373.69922 0.279147
23374.74023 0.278363
23375.78906 0.277548
23376.83008 0.276726
23377.88086 0.275902
23378.91992 0.275078
23379.96094 0.274255
23381.00977 0.273455
23382.05078 0.272656
23383.09961 0.271859
23384.14062 0.271059
23385.18945 0.270258
23386.23047 0.269449
23387.27930 0.268641
23388.32031 0.267831
23389.36914 0.267021
23390.41016 0.266242
23391.46094 0.265511
23392.50000 0.26478
23393.53906 0.264048
23394.58984 0.263317
23395.63086 0.262542
23396.67969 0.26174
23397.72070 0.260937
23398.76953 0.260134
23399.81055 0.259332
23400.85938 0.258468
23401.90039 0.257591
23402.94922 0.256712
23404.00000 0.255835
23405.03906 0.254959
23406.08984 0.254126
23407.13086 0.253293
23408.17969 0.252458
23409.22070 0.251625
23410.26953 0.250761
23411.31055 0.249805
23412.35938 0.248851
23413.41016 0.247896
23414.44922 0.246941
23415.50000 0.24607
23416.53906 0.245287
23417.58984 0.244506
23418.63086 0.243724
23419.67969 0.242942
23420.73047 0.242103
23421.76953 0.241238
23422.82031 0.240374
23423.86914 0.239509
23424.91016 0.238644
23425.96094 0.237807
23427.00000 0.236972
23428.05078 0.236136
23429.09961 0.235301
23430.14062 0.23446
23431.18945 0.23358
23432.24023 0.2327
23433.27930 0.23182
23434.33008 0.230939
23435.38086 0.23006
23436.41992 0.229183
23437.47070 0.228306
23438.51953 0.227429
23439.56055 0.226551
23440.60938 0.225639
23441.66016 0.224703
23442.71094 0.223767
23443.75000 0.22283
23444.80078 0.221893
23445.84961 0.22102
23446.89062 0.22016
23447.93945 0.2193
23448.99023 0.21844
23450.03906 0.217582
23451.08008 0.216749
23452.13086 0.215915
23453.17969 0.215082
23454.22070 0.214249
23455.26953 0.213404
23456.32031 0.212532
23457.36914 0.211659
23458.41992 0.210784
23459.46094 0.209912
23460.50977 0.209046
23461.56055 0.208191
23462.60938 0.207335
23463.65039 0.20648
23464.69922 0.205624
23465.75000 0.204748
23466.80078 0.203867
23467.84961 0.202984
23468.90039 0.2021
23469.93945 0.201219
23470.99023 0.200295
23472.03906 0.199369
23473.08984 0.198443
23474.14062 0.197519
23475.18945 0.196606
23476.23047 0.195759
23477.27930 0.194912
23478.33008 0.194065
23479.38086 0.193217
23480.42969 0.192378
23481.48047 0.191551
23482.52930 0.190723
23483.58008 0.189896
23484.63086 0.189069
23485.66992 0.188236
23486.72070 0.187401
23487.76953 0.186565
23488.82031 0.18573
23489.86914 0.184894
23490.91992 0.184018
23491.97070 0.183133
23493.01953 0.18225
23494.07031 0.181367
23495.11914 0.180492
23496.16992 0.179687
23497.21094 0.178882
23498.25977 0.178078
23499.31055 0.177272
23500.35938 0.176452
23501.41016 0.175601
23502.46094 0.174751
23503.50977 0.173902
23504.56055 0.17305
23505.60938 0.172202
23506.66016 0.171352
23507.71094 0.170503
23508.75977 0.169655
23509.81055 0.168806
23510.85938 0.168017
23511.91016 0.16724
23512.96094 0.166462
23514.00977 0.165686
23515.06055 0.164909
23516.10938 0.164138
23517.16016 0.163367
23518.21094 0.162596
23519.25977 0.161826
23520.31055 0.161055
23521.36914 0.160287
23522.41992 0.159519
23523.47070 0.158751
23524.51953 0.157983
23525.57031 0.1572
23526.61914 0.156405
23527.66992 0.15561
23528.72070 0.154815
23529.76953 0.154019
23530.82031 0.153218
23531.86914 0.152415
23532.91992 0.151612
23533.98047 0.150808
23535.02930 0.150006
23536.08008 0.149256
23537.13086 0.148506
23538.17969 0.147756
23539.23047 0.147004
23540.27930 0.146259
23541.33008 0.145527
23542.39062 0.144793
23543.43945 0.144061
23544.49023 0.143327
23545.53906 0.142607
23546.58984 0.141898
23547.64062 0.141187
23548.69922 0.140478
23549.75000 0.139767
23550.80078 0.13908
23551.84961 0.1384
23552.90039 0.137719
23553.96094 0.13704
23555.00977 0.136359
23556.06055 0.135653
23557.10938 0.134948
23558.16016 0.134242
23559.22070 0.133535
23560.26953 0.132826
23561.32031 0.132107
23562.36914 0.131387
23563.42969 0.130666
23564.48047 0.129946
23565.52930 0.129231
23566.58008 0.128522
23567.64062 0.127813
23568.68945 0.127104
23569.74023 0.126394
23570.78906 0.125721
23571.84961 0.125059
23572.90039 0.124397
23573.94922 0.123735
23575.00977 0.123073
23576.06055 0.122424
23577.10938 0.121775
23578.16016 0.121126
23579.22070 0.120475
23580.26953 0.119829
23581.32031 0.119193
23582.38086 0.118558
23583.42969 0.11792
23584.48047 0.117284
23585.53906 0.116682
23586.58984 0.116111
23587.64062 0.11554
23588.69922 0.11497
23589.75000 0.114398
23590.80078 0.113787
23591.85938 0.113162
23592.91016 0.112538
23593.97070 0.111914
23595.01953 0.111291
23596.07031 0.11069
23597.13086 0.11009
23598.17969 0.109491
23599.24023 0.10889
23600.28906 0.108293
23601.33984 0.107706
23602.40039 0.107119
23603.44922 0.106531
23604.50977 0.105942
23605.56055 0.105371
23606.61914 0.104813
23607.66992 0.104255
23608.72070 0.103696
23609.77930 0.103137
23610.83008 0.10261
23611.89062 0.102089
23612.93945 0.101569
23614.00000 0.101049
23615.05078 0.100527
23616.10938 0.099972
23617.16016 0.099417
23618.22070 0.098861
23619.26953 0.098306
23620.33008 0.09777
23621.38086 0.097277
23622.43945 0.096784
23623.49023 0.096292
23624.55078 0.095799
23625.59961 0.095279
23626.66016 0.094736
23627.71094 0.094194
23628.76953 0.093652
23629.82031 0.093109
23630.88086 0.092599
23631.92969 0.092094
23632.99023 0.091589
23634.03906 0.091085
23635.09961 0.090581
23636.16016 0.090093
23637.21094 0.089603
23638.26953 0.089114
23639.32031 0.088625
23640.38086 0.08816
23641.43945 0.08774
23642.49023 0.087319
23643.55078 0.086899
23644.59961 0.086478
23645.66016 0.086033
23646.72070 0.085573
23647.76953 0.085114
23648.83008 0.084654
23649.88086 0.084194
23650.93945 0.083756
23652.00000 0.08332
23653.05078 0.082884
23654.10938 0.082449
23655.16992 0.082001
23656.22070 0.081483
23657.27930 0.080964
23658.33984 0.080446
23659.39062 0.079927
23660.44922 0.079466
23661.50977 0.079086
23662.56055 0.078705
23663.61914 0.078324
23664.67969 0.077943
23665.73047 0.077531
23666.78906 0.077104
23667.84961 0.076676
23668.91016 0.076249
23669.96094 0.075821
23671.01953 0.075411
23672.08008 0.075001
23673.13086 0.074591
23674.18945 0.074181
23675.25000 0.073776
23676.31055 0.073386
23677.36914 0.072996
23678.41992 0.072607
23679.48047 0.072216
23680.53906 0.071831
23681.59961 0.071449
23682.65039 0.071068
23683.71094 0.070685
23684.76953 0.070303
23685.83008 0.069945
23686.88086 0.069593
23687.93945 0.069241
23689.00000 0.06889
23690.06055 0.068534
23691.11914 0.068123
23692.17969 0.067712
23693.23047 0.067302
23694.28906 0.066891
23695.34961 0.066489
23696.41016 0.066107
23697.47070 0.065725
23698.52930 0.065343
23699.58008 0.06496
23700.64062 0.064606
23701.69922 0.06427
23702.75977 0.063934
23703.82031 0.063598
23704.88086 0.063262
23705.93945 0.062945
23706.99023 0.062631
23708.05078 0.062317
23709.10938 0.062002
23710.16992 0.061692
23711.23047 0.061408
23712.28906 0.061125
23713.34961 0.060841
23714.41016 0.060557
23715.47070 0.060276
23716.52930 0.059998
23717.58984 0.05972
23718.64062 0.059443
23719.69922 0.059165
23720.75977 0.058819
23721.82031 0.058446
23722.88086 0.058073
23723.93945 0.057701
23725.00000 0.057328
23726.06055 0.05704
23727.11914 0.056752
23728.17969 0.056464
23729.24023 0.056177
23730.30078 0.055875
23731.35938 0.055541
23732.41992 0.055207
23733.48047 0.054873
23734.53906 0.054538
23735.59961 0.054261
23736.66016 0.054027
23737.72070 0.053793
23738.77930 0.053559
23739.83984 0.053325
23740.90039 0.053052
23741.96094 0.052771
23743.01953 0.05249
23744.08008 0.052209
23745.14062 0.05193
23746.21094 0.051663
23747.26953 0.051395
23748.33008 0.051128
23749.39062 0.05086
23750.44922 0.050572
23751.50977 0.050257
23752.57031 0.049942
23753.63086 0.049626
23754.68945 0.04931
23755.75000 0.049073
23756.81055 0.048867
23757.88086 0.048661
23758.93945 0.048456
23760.00000 0.04825
23761.06055 0.047989
23762.11914 0.047729
23763.17969 0.047468
23764.24023 0.047207
23765.30078 0.04697
23766.36914 0.046792
23767.42969 0.046613
23768.49023 0.046435
23769.55078 0.046256
23770.60938 0.046019
23771.66992 0.04574
23772.73047 0.045461
23773.80078 0.045182
23774.85938 0.044902
23775.91992 0.044607
23776.98047 0.044308
23778.03906 0.044009
23779.10938 0.043711
23780.16992 0.043439
23781.23047 0.043309
23782.28906 0.043179
23783.35938 0.043048
23784.41992 0.042918
23785.48047 0.042725
23786.53906 0.042455
23787.59961 0.042186
23788.66992 0.041917
23789.73047 0.041647
23790.78906 0.041423
23791.85938 0.041214
23792.91992 0.041006
23793.98047 0.040797
23795.03906 0.04059
23796.10938 0.040423
23797.16992 0.040255
23798.23047 0.040088
23799.28906 0.03992
23800.35938 0.039737
23801.41992 0.039523
23802.48047 0.039308
23803.55078 0.039094
23804.60938 0.03888
23805.66992 0.038692
23806.74023 0.038521
23807.80078 0.03835
23808.85938 0.038178
23809.92969 0.038006
23810.99023 0.037738
23812.05078 0.037463
23813.11914 0.037188
23814.17969 0.036912
23815.24023 0.036675
23816.31055 0.036564
23817.36914 0.036452
23818.43945 0.036341
23819.50000 0.03623
23820.56055 0.036063
23821.63086 0.035848
23822.68945 0.035633
23823.75977 0.035418
23824.82031 0.035202
23825.88086 0.035025
23826.94922 0.034855
23828.00977 0.034685
23829.08008 0.034514
23830.14062 0.034346
23831.21094 0.034189
23832.26953 0.034033
23833.33008 0.033876
23834.40039 0.03372
23835.46094 0.033545
23836.52930 0.033348
23837.58984 0.03315
23838.66016 0.032952
23839.72070 0.032755
23840.78906 0.032592
23841.84961 0.032442
23842.91992 0.032292
23843.98047 0.032141
23845.05078 0.031991
23846.10938 0.031845
23847.17969 0.031699
23848.24023 0.031552
23849.31055 0.031406
23850.36914 0.031258
23851.43945 0.031109
23852.50000 0.030959
23853.57031 0.03081
23854.63086 0.03066
23855.69922 0.030493
23856.76953 0.030318
23857.83008 0.030143
23858.90039 0.029967
23859.96094 0.029792
23861.02930 0.029639
23862.08984 0.029487
23863.16016 0.029335
23864.22070 0.029183
23865.28906 0.02904
23866.35938 0.028922
23867.41992 0.028805
23868.49023 0.028687
23869.55078 0.028569
23870.61914 0.028447
23871.68945 0.028322
23872.75000 0.028198
23873.82031 0.028073
23874.89062 0.027949
23875.94922 0.027861
23877.01953 0.027777
23878.08984 0.027693
23879.15039 0.02761
23880.22070 0.027499
23881.28906 0.027281
23882.34961 0.027063
23883.41992 0.026844
23884.48047 0.026626
23885.55078 0.026448
23886.61914 0.026307
23887.68945 0.026166
23888.75000 0.026025
23889.82031 0.025884
23890.89062 0.025826
23891.94922 0.025785
23893.01953 0.025743
23894.08984 0.025702
23895.16016 0.025649
23896.22070 0.025527
23897.28906 0.025404
23898.35938 0.025281
23899.42969 0.025158
23900.49023 0.025013
23901.56055 0.024843
23902.63086 0.024673
23903.69922 0.024502
23904.75977 0.024332
23905.83008 0.024211
23906.90039 0.024103
23907.97070 0.023996
23909.02930 0.023888
23910.09961 0.023777
23911.16992 0.023632
23912.24023 0.023487
23913.31055 0.023342
23914.36914 0.023197
23915.43945 0.023096
23916.50977 0.023059
23917.58008 0.023022
23918.65039 0.022985
23919.71094 0.022948
23920.77930 0.022819
23921.84961 0.022657
23922.91992 0.022495
23923.99023 0.022332
23925.06055 0.022177
23926.13086 0.02214
23927.19922 0.022103
23928.25977 0.022066
23929.33008 0.022029
23930.40039 0.021961
23931.47070 0.021843
23932.53906 0.021724
23933.60938 0.021606
23934.67969 0.021487
23935.75000 0.02139
23936.81055 0.021302
23937.88086 0.021214
23938.94922 0.021126
23940.01953 0.021037
23941.08984 0.02089
23942.16016 0.020743
23943.23047 0.020596
23944.30078 0.020449
23945.36914 0.020347
23946.43945 0.02033
23947.50977 0.020312
23948.58008 0.020295
23949.65039 0.020278
23950.72070 0.020194
23951.78906 0.020077
23952.85938 0.01996
23953.92969 0.019843
23955.00000 0.019726
23956.07031 0.019598
23957.14062 0.01947
23958.21094 0.019342
23959.27930 0.019213
23960.34961 0.019083
23961.41992 0.018947
23962.49023 0.018811
23963.56055 0.018676
23964.63086 0.01854
23965.69922 0.018477
23966.76953 0.018452
23967.83984 0.018428
23968.91016 0.018403
23969.98047 0.018379
23971.05078 0.018248
23972.11914 0.018115
23973.18945 0.017982
23974.25977 0.017849
23975.33008 0.017742
23976.41016 0.017694
23977.48047 0.017645
23978.55078 0.017596
23979.61914 0.017547
23980.68945 0.0175
23981.75977 0.017453
23982.83008 0.017406
23983.90039 0.017359
23984.97070 0.017312
23986.03906 0.017222
23987.11914 0.017131
23988.18945 0.017041
23989.25977 0.01695
23990.33008 0.016834
23991.40039 0.016664
23992.47070 0.016493
23993.53906 0.016323
23994.61914 0.016152
23995.68945 0.016092
23996.75977 0.016093
23997.83008 0.016095
23998.90039 0.016096
23999.98047 0.016097
24001.05078 0.016057
24002.11914 0.016016
24003.18945 0.015975
24004.26953 0.015933
24005.33984 0.015873
24006.41016 0.015772
24007.48047 0.015671
24008.55078 0.01557
24009.61914 0.015469
24010.69922 0.015421
24011.76953 0.015401
24012.83984 0.015382
24013.91992 0.015362
24014.99023 0.015342
24016.06055 0.015175
24017.13086 0.015007
24018.21094 0.014838
24019.27930 0.014669
24020.34961 0.014553
24021.42969 0.014546
24022.50000 0.014539
24023.57031 0.014533
24024.64062 0.014526
24025.72070 0.014499
24026.78906 0.014464
24027.85938 0.014428
24028.93945 0.014392
24030.00977 0.014355
24031.08008 0.014251
24032.16016 0.014147
24033.23047 0.014042
24034.30078 0.013938
24035.38086 0.013827
24036.44922 0.013705
24037.51953 0.013583
24038.59961 0.01346
24039.66992 0.013337
24040.74023 0.013305
24041.82031 0.013311
24042.89062 0.013318
24043.97070 0.013325
24045.03906 0.013328
24046.11914 0.013244
24047.18945 0.01316
24048.25977 0.013076
24049.33984 0.012992
24050.41016 0.012938
24051.48047 0.01293
24052.56055 0.012922
24053.63086 0.012915
24054.71094 0.012907
24055.77930 0.012856
24056.85938 0.01279
24057.92969 0.012723
24059.00977 0.012656
24060.08008 0.012587
24061.16016 0.012503
24062.23047 0.01242
24063.30078 0.012336
24064.38086 0.012252
24065.46094 0.012184
24066.52930 0.012136
24067.59961 0.012089
24068.67969 0.012042
24069.75000 0.011994
24070.83008 0.011862
24071.90039 0.011704
24072.98047 0.011546
24074.05078 0.011388
24075.13086 0.011254
24076.21094 0.011303
24077.27930 0.011351
24078.35938 0.011399
24079.42969 0.011447
24080.50977 0.011451
24081.58008 0.011405
24082.66016 0.011358
24083.73047 0.011312
24084.81055 0.011266
24085.88086 0.011208
24086.96094 0.011146
24088.03906 0.011085
24089.10938 0.011024
24090.18945 0.010953
24091.26953 0.010835
24092.33984 0.010716
24093.41992 0.010598
24094.49023 0.01048
24095.57031 0.010437
24096.65039 0.010462
24097.72070 0.010487
24098.80078 0.010512
24099.88086 0.010536
24100.94922 0.010503
24102.02930 0.010461
24103.09961 0.01042
24104.17969 0.010379
24105.25977 0.010335
24106.33008 0.010283
24107.41016 0.010232
24108.49023 0.01018
24109.56055 0.010129
24110.64062 0.010014
24111.72070 0.009855
24112.78906 0.009697
24113.86914 0.009538
24114.94922 0.00938
24116.02930 0.009426
24117.09961 0.009482
24118.17969 0.009539
24119.25977 0.009595
24120.33984 0.009635
24121.41016 0.009635
24122.49023 0.009636
24123.57031 0.009637
24124.64062 0.009638
24125.72070 0.009578
24126.80078 0.009487
24127.88086 0.009397
24128.96094 0.009306
24130.02930 0.009216
24131.10938 0.009161
24132.18945 0.009105
24133.26953 0.009049
24134.33984 0.008994
24135.41992 0.008949
24136.50000 0.008922
24137.58008 0.008894
24138.66016 0.008867
24139.73047 0.008839
24140.81055 0.008818
24141.89062 0.008799
24142.97070 0.00878
24144.05078 0.008761
24145.13086 0.008735
24146.21094 0.008655
24147.27930 0.008575
24148.35938 0.008494
24149.43945 0.008414
24150.51953 0.008315
24151.59961 0.008196
24152.67969 0.008076
24153.75977 0.007957
24154.83008 0.007837
24155.91016 0.007827
24156.99023 0.007836
24158.07031 0.007845
24159.15039 0.007854
24160.23047 0.007866
24161.31055 0.007887
24162.39062 0.007909
24163.47070 0.007931
24164.55078 0.007953
24165.61914 0.007914
24166.71094 0.007831
24167.77930 0.007748
24168.85938 0.007664
24169.93945 0.007581
24171.01953 0.007505
24172.09961 0.00743
24173.17969 0.007355
24174.25977 0.007279
24175.33984 0.007232
24176.41992 0.007248
24177.50000 0.007263
24178.58008 0.007278
24179.66016 0.007293
24180.74023 0.007284
24181.82031 0.007263
24182.90039 0.007243
24183.98047 0.007223
24185.06055 0.007205
24186.14062 0.007216
24187.22070 0.007227
24188.30078 0.007239
24189.38086 0.00725
24190.46094 0.007213
24191.53906 0.007111
24192.61914 0.00701
24193.71094 0.006908
24194.78906 0.006806
24195.86914 0.006803
24196.94922 0.006825
24198.02930 0.006846
24199.10938 0.006868
24200.18945 0.006871
24201.26953 0.006788
24202.34961 0.006705
24203.42969 0.006622
24204.50977 0.006538
24205.58984 0.00649
24206.67969 0.00647
24207.75977 0.00645
24208.83984 0.00643
24209.91992 0.00641
24211.00000 0.006387
24212.08008 0.006364
24213.16016 0.006341
24214.24023 0.006318
24215.33008 0.006302
24216.41016 0.006302
24217.49023 0.006303
24218.57031 0.006303
24219.65039 0.006304
24220.73047 0.006233
24221.82031 0.006127
24222.90039 0.006022
24223.98047 0.005917
24225.06055 0.005816
24226.14062 0.005786
24227.23047 0.005756
24228.31055 0.005727
24229.39062 0.005697
24230.47070 0.005688
24231.55078 0.005704
24232.64062 0.005721
24233.72070 0.005737
24234.80078 0.005754
24235.88086 0.005753
24236.97070 0.005748
24238.05078 0.005743
24239.13086 0.005738
24240.21094 0.00572
24241.30078 0.005651
24242.38086 0.005582
24243.46094 0.005512
24244.55078 0.005443
24245.63086 0.005405
24246.71094 0.005389
24247.78906 0.005374
24248.88086 0.005358
24249.96094 0.005343
24251.03906 0.005255
24252.13086 0.005166
24253.21094 0.005076
24254.28906 0.004986
24255.38086 0.004932
24256.46094 0.004945
24257.53906 0.004958
24258.63086 0.004972
24259.71094 0.004985
24260.78906 0.004947
24261.88086 0.00489
24262.96094 0.004833
24264.03906 0.004776
24265.13086 0.004727
24266.21094 0.004738
24267.30078 0.004749
24268.38086 0.00476
24269.46094 0.004771
24270.55078 0.004738
24271.63086 0.00466
24272.72070 0.004582
24273.80078 0.004504
24274.88086 0.004426
24275.97070 0.004438
24277.05078 0.004461
24278.14062 0.004483
24279.22070 0.004505
24280.31055 0.004512
24281.39062 0.004481
24282.48047 0.00445
24283.56055 0.004419
24284.64062 0.004388
24285.73047 0.00444
24286.81055 0.004533
24287.90039 0.004626
24288.98047 0.004718
24290.07031 0.004798
24291.15039 0.004676
24292.24023 0.004555
24293.32031 0.004433
24294.41016 0.004312
24295.49023 0.004189
24296.58008 0.004065
24297.66016 0.003941
24298.75000 0.003816
24299.83984 0.003692
24300.91992 0.003828
24302.00977 0.004011
24303.08984 0.004194
24304.17969 0.004376
24305.25977 0.004501
24306.34961 0.004447
24307.42969 0.004392
24308.51953 0.004337
24309.60938 0.004282
24310.68945 0.004193
24311.77930 0.004085
24312.85938 0.003976
24313.94922 0.003868
24315.03906 0.003765
24316.11914 0.003831
24317.21094 0.003897
24318.28906 0.003963
24319.38086 0.004029
24320.46094 0.004043
24321.55078 0.003986
24322.64062 0.00393
24323.72070 0.003873
24324.81055 0.003817
24325.90039 0.003787
24326.98047 0.003762
24328.07031 0.003738
24329.16016 0.003713
24330.24023 0.003681
24331.33008 0.003619
24332.41992 0.003557
24333.50000 0.003495
24334.58984 0.003434
24335.67969 0.003419
24336.76953 0.003433
24337.84961 0.003447
24338.93945 0.003461
24340.02930 0.003473
24341.10938 0.003408
24342.19922 0.003344
24343.28906 0.003279
24344.38086 0.003214
24345.46094 0.003187
24346.55078 0.003212
24347.64062 0.003237
24348.72070 0.003262
24349.81055 0.003286
24350.90039 0.0032
24351.99023 0.00309
24353.07031 0.00298
24354.16016 0.00287
24355.25000 0.002789
24356.33984 0.002804
24357.42969 0.002819
24358.50977 0.002835
24359.59961 0.00285
24360.68945 0.002833
24361.77930 0.002798
24362.86914 0.002763
24363.96094 0.002728
24365.03906 0.002694
24366.13086 0.002703
24367.22070 0.002713
24368.31055 0.002722
24369.40039 0.002732
24370.48047 0.0027
24371.57031 0.002618
24372.66016 0.002535
24373.75000 0.002453
24374.83984 0.002371
24375.92969 0.002434
24377.01953 0.002522
24378.10938 0.002611
24379.19922 0.002699
24380.27930 0.002743
24381.36914 0.002657
24382.46094 0.002572
24383.55078 0.002487
24384.64062 0.002401
24385.73047 0.002393
24386.82031 0.002422
24387.91016 0.002452
24389.00000 0.002481
24390.08984 0.002509
24391.17969 0.002523
24392.25977 0.002536
24393.34961 0.002549
24394.43945 0.002563
24395.52930 0.002544
24396.61914 0.00249
24397.71094 0.002437
24398.80078 0.002384
24399.89062 0.002331
24400.98047 0.002397
24402.07031 0.002477
24403.16016 0.002557
24404.25000 0.002637
24405.33984 0.002664
24406.42969 0.002577
24407.51953 0.002489
24408.60938 0.002402
24409.69922 0.002314
24410.78906 0.002274
24411.88086 0.002253
24412.97070 0.002231
24414.06055 0.002209
24415.15039 0.002188
24416.24023 0.002174
24417.33984 0.00216
24418.42969 0.002146
24419.51953 0.002132
24420.60938 0.002162
24421.69922 0.002228
24422.78906 0.002293
24423.88086 0.002358
24424.97070 0.002423
24426.06055 0.002359
24427.15039 0.002291
24428.24023 0.002223
24429.33008 0.002155
24430.42969 0.0021
24431.51953 0.002063
24432.60938 0.002027
24433.69922 0.001991
24434.78906 0.001955
24435.88086 0.001941
24436.97070 0.001933
24438.06055 0.001925
24439.16016 0.001917
24440.25000 0.001902
24441.33984 0.001864
24442.42969 0.001826
24443.51953 0.001788
24444.61914 0.001751
24445.71094 0.001609
24446.80078 0.00141
24447.89062 0.001211
24448.98047 0.001012
24450.07031 0.000845
24451.16992 0.001108
24452.25977 0.001372
24453.34961 0.001635
24454.43945 0.001898
24455.53906 0.002018
24456.63086 0.001988
24457.72070 0.001958
24458.81055 0.001928
24459.90039 0.001898
24461.00000 0.001948
24462.08984 0.002005
24463.17969 0.002061
24464.27930 0.002118
24465.36914 0.002146
24466.46094 0.002116
24467.55078 0.002085
24468.65039 0.002055
24469.74023 0.002025
24470.83008 0.001985
24471.92969 0.001943
24473.01953 0.0019
24474.10938 0.001857
24475.21094 0.0018
24476.30078 0.001681
24477.39062 0.001562
24478.48047 0.001443
24479.58008 0.001324
24480.66992 0.001327
24481.75977 0.001408
24482.85938 0.001489
24483.94922 0.00157
24485.03906 0.001644
24486.14062 0.001565
24487.23047 0.001485
24488.33008 0.001406
24489.41992 0.001326
24490.50977 0.001307
24491.60938 0.001355
24492.69922 0.001403
24493.78906 0.001451
24494.89062 0.0015
24495.98047 0.001388
24497.08008 0.00126
24498.16992 0.001131
24499.26953 0.001002
24500.35938 0.000948
24501.46094 0.001048
24502.55078 0.001147
24503.64062 0.001246
24504.74023 0.001345
24505.83008 0.001323
24506.92969 0.001263
24508.01953 0.001203
24509.11914 0.001142
24510.21094 0.001106
24511.31055 0.001168
24512.40039 0.00123
24513.50000 0.001293
24514.58984 0.001355
24515.68945 0.001439
24516.77930 0.001536
24517.86914 0.001633
24518.97070 0.001731
24520.07031 0.001819
24521.16016 0.001772
24522.25977 0.001725
24523.34961 0.001678
24524.44922 0.001631
24525.53906 0.001563
24526.64062 0.001473
24527.73047 0.001382
24528.83008 0.001292
24529.91992 0.001202
24531.01953 0.001173
24532.11914 0.001149
24533.21094 0.001125
24534.31055 0.0011
24535.40039 0.001105
24536.50000 0.00116
24537.59961 0.001215
24538.68945 0.00127
24539.78906 0.001324
24540.88086 0.001287
24541.98047 0.001228
24543.08008 0.001168
24544.16992 0.001108
24545.26953 0.001066
24546.35938 0.001076
24547.46094 0.001085
24548.56055 0.001095
24549.65039 0.001105
24550.75000 0.001102
24551.84961 0.001093
24552.93945 0.001084
24554.03906 0.001075
24555.14062 0.001067
24556.23047 0.001064
24557.33008 0.001061
24558.42969 0.001058
24559.51953 0.001055
24560.61914 0.000966
24561.72070 0.000812
24562.81055 0.000659
24563.91016 0.000505
27020.30078 0.0
