# %ECSV 0.9
# ---
# datatype:
# - {name: wavelength, unit: Angstrom, datatype: float32}
# - {name: response, datatype: float32}
# meta: !!omap
# - {band_name: POL0L}
# - {group_name: NICMOS2}
wavelength response
16500.75391 0.0
18334.16992 0.0004
18334.53906 0.000403
18334.91016 0.000405
18335.26953 0.000407
18335.64062 0.000409
18336.00977 0.000411
18336.36914 0.000413
18336.74023 0.000415
18337.10938 0.000417
18337.48047 0.000419
18337.84961 0.000421
18338.21094 0.000423
18338.58008 0.000425
18338.94922 0.000427
18339.32031 0.000429
18339.67969 0.000431
18340.05078 0.000432
18340.41992 0.00043
18340.78906 0.000429
18341.15039 0.000427
18341.51953 0.000425
18341.89062 0.000424
18342.25977 0.000422
18342.63086 0.00042
18342.99023 0.000419
18343.35938 0.000417
18343.73047 0.000415
18344.08984 0.000414
18344.46094 0.000412
18344.83008 0.00041
18345.19922 0.00041
18345.56055 0.000411
18345.92969 0.000411
18346.30078 0.000412
18346.66992 0.000412
18347.03906 0.000413
18347.40039 0.000413
18347.76953 0.000414
18348.14062 0.000415
18348.50977 0.000415
18348.88086 0.000416
18349.24023 0.000416
18349.60938 0.000417
18349.98047 0.000417
18350.34961 0.000416
18350.71094 0.000414
18351.08008 0.000412
18351.44922 0.00041
18351.82031 0.000408
18352.17969 0.000406
18352.55078 0.000404
18352.91992 0.000402
18353.28906 0.000401
18353.66016 0.000399
18354.01953 0.000397
18354.39062 0.000395
18354.75977 0.000393
18355.13086 0.000393
18355.49023 0.000399
18355.85938 0.000404
18356.23047 0.000409
18356.59961 0.000414
18356.97070 0.000419
18357.33008 0.000424
18357.69922 0.000429
18358.07031 0.000434
18358.43945 0.000439
18358.81055 0.000445
18359.16992 0.00045
18359.53906 0.000455
18359.91016 0.00046
18360.27930 0.00046
18360.65039 0.000458
18361.00977 0.000456
18361.38086 0.000454
18361.75000 0.000453
18362.11914 0.000451
18362.49023 0.000449
18362.84961 0.000447
18363.22070 0.000445
18363.58984 0.000444
18363.96094 0.000442
18364.33008 0.00044
18364.68945 0.000438
18365.06055 0.000437
18365.42969 0.000437
18365.80078 0.000438
18366.16992 0.000438
18366.53906 0.000439
18366.90039 0.00044
18367.26953 0.00044
18367.64062 0.000441
18368.00977 0.000441
18368.38086 0.000442
18368.74023 0.000442
18369.10938 0.000443
18369.48047 0.000443
18369.84961 0.000444
18370.21094 0.000446
18370.58008 0.000449
18370.94922 0.000453
18371.32031 0.000456
18371.68945 0.00046
18372.06055 0.000463
18372.41992 0.000467
18372.78906 0.00047
18373.16016 0.000474
18373.52930 0.000477
18373.90039 0.000481
18374.26953 0.000484
18374.63086 0.000488
18375.00000 0.000491
18375.36914 0.00049
18375.74023 0.000489
18376.10938 0.000489
18376.47070 0.000488
18376.83984 0.000487
18377.21094 0.000486
18377.58008 0.000485
18377.94922 0.000484
18378.32031 0.000484
18378.68945 0.000483
18379.05078 0.000482
18379.41992 0.000481
18379.78906 0.00048
18380.16016 0.000481
18380.52930 0.000484
18380.89062 0.000488
18381.25977 0.000491
18381.63086 0.000494
18382.00000 0.000497
18382.36914 0.000501
18382.74023 0.000504
18383.10938 0.000507
18383.47070 0.000511
18383.83984 0.000514
18384.21094 0.000517
18384.58008 0.00052
18384.94922 0.000524
18385.32031 0.000526
18385.68945 0.000529
18386.05078 0.000531
18386.41992 0.000534
18386.78906 0.000537
18387.16016 0.000539
18387.52930 0.000542
18387.90039 0.000544
18388.25977 0.000547
18388.63086 0.000549
18389.00000 0.000552
18389.36914 0.000555
18389.74023 0.000557
18390.10938 0.000559
18390.48047 0.000561
18390.83984 0.000562
18391.21094 0.000563
18391.58008 0.000564
18391.94922 0.000566
18392.32031 0.000567
18392.68945 0.000568
18393.06055 0.000569
18393.41992 0.000571
18393.78906 0.000572
18394.16016 0.000573
18394.52930 0.000574
18394.90039 0.000575
18395.26953 0.000577
18395.64062 0.000578
18396.00977 0.000579
18396.36914 0.00058
18396.74023 0.000581
18397.10938 0.000582
18397.48047 0.000583
18397.84961 0.000584
18398.22070 0.000585
18398.58984 0.000586
18398.96094 0.000587
18399.32031 0.000588
18399.68945 0.000589
18400.06055 0.000589
18400.42969 0.000587
18400.80078 0.000586
18401.16992 0.000584
18401.53906 0.000582
18401.90039 0.00058
18402.26953 0.000578
18402.64062 0.000576
18403.00977 0.000574
18403.38086 0.000572
18403.75000 0.00057
18404.11914 0.000568
18404.49023 0.000566
18404.85938 0.000564
18405.22070 0.000563
18405.58984 0.000564
18405.96094 0.000565
18406.33008 0.000566
18406.69922 0.000566
18407.07031 0.000567
18407.43945 0.000568
18407.81055 0.000568
18408.17969 0.000569
18408.53906 0.00057
18408.91016 0.00057
18409.27930 0.000571
18409.65039 0.000572
18410.01953 0.000573
18410.39062 0.000579
18410.75977 0.000584
18411.13086 0.00059
18411.50000 0.000596
18411.86914 0.000602
18412.23047 0.000608
18412.59961 0.000614
18412.97070 0.000619
18413.33984 0.000625
18413.71094 0.000631
18414.08008 0.000637
18414.44922 0.000643
18414.82031 0.000649
18415.18945 0.000652
18415.55078 0.000652
18415.91992 0.000653
18416.28906 0.000653
18416.66016 0.000654
18417.02930 0.000654
18417.40039 0.000655
18417.76953 0.000655
18418.14062 0.000656
18418.50977 0.000656
18418.88086 0.000657
18419.25000 0.000657
18419.61914 0.000658
18419.98047 0.000658
18420.34961 0.000662
18420.72070 0.000666
18421.08984 0.00067
18421.46094 0.000674
18421.83008 0.000678
18422.19922 0.000682
18422.57031 0.000686
18422.93945 0.00069
18423.31055 0.000694
18423.67969 0.000698
18424.05078 0.000702
18424.41992 0.000706
18424.78906 0.00071
18425.15039 0.000712
18425.51953 0.000713
18425.89062 0.000714
18426.25977 0.000715
18426.63086 0.000715
18427.00000 0.000716
18427.36914 0.000717
18427.74023 0.000717
18428.10938 0.000718
18428.48047 0.000719
18428.84961 0.00072
18429.22070 0.00072
18429.58984 0.000721
18429.96094 0.000722
18430.32031 0.000722
18430.68945 0.000722
18431.06055 0.000722
18431.42969 0.000722
18431.80078 0.000722
18432.16992 0.000722
18432.53906 0.000722
18432.91016 0.000722
18433.27930 0.000722
18433.65039 0.000721
18434.01953 0.000721
18434.39062 0.000721
18434.75977 0.000721
18435.13086 0.000722
18435.50000 0.000725
18435.86914 0.000727
18436.23047 0.00073
18436.59961 0.000732
18436.97070 0.000734
18437.33984 0.000737
18437.71094 0.000739
18438.08008 0.000742
18438.44922 0.000744
18438.82031 0.000747
18439.18945 0.000749
18439.56055 0.000752
18439.92969 0.000754
18440.30078 0.000759
18440.66992 0.000765
18441.03906 0.000771
18441.41016 0.000776
18441.77930 0.000782
18442.15039 0.000788
18442.51953 0.000793
18442.89062 0.000799
18443.25977 0.000805
18443.63086 0.000811
18444.00000 0.000816
18444.36914 0.000822
18444.73047 0.000828
18445.10938 0.000831
18445.47070 0.000831
18445.83984 0.00083
18446.21094 0.000829
18446.58008 0.000828
18446.94922 0.000827
18447.32031 0.000827
18447.68945 0.000826
18448.06055 0.000825
18448.42969 0.000824
18448.80078 0.000823
18449.16992 0.000823
18449.53906 0.000822
18449.91016 0.000821
18450.27930 0.000822
18450.65039 0.000824
18451.01953 0.000826
18451.39062 0.000828
18451.75977 0.00083
18452.13086 0.000833
18452.50000 0.000835
18452.86914 0.000837
18453.24023 0.000839
18453.60938 0.000841
18453.98047 0.000843
18454.34961 0.000845
18454.72070 0.000847
18455.08984 0.000849
18455.46094 0.000851
18455.83008 0.000853
18456.19922 0.000855
18456.57031 0.000857
18456.93945 0.000859
18457.31055 0.000861
18457.67969 0.000863
18458.05078 0.000864
18458.41992 0.000866
18458.78906 0.000868
18459.16016 0.00087
18459.52930 0.000872
18459.90039 0.000874
18460.26953 0.000876
18460.64062 0.000879
18461.00977 0.000881
18461.38086 0.000883
18461.75000 0.000885
18462.11914 0.000888
18462.49023 0.00089
18462.85938 0.000892
18463.23047 0.000894
18463.59961 0.000897
18463.97070 0.000899
18464.33984 0.000901
18464.71094 0.000903
18465.08008 0.000905
18465.44922 0.000907
18465.82031 0.000908
18466.18945 0.000909
18466.56055 0.000911
18466.92969 0.000912
18467.30078 0.000913
18467.66992 0.000914
18468.03906 0.000916
18468.41016 0.000917
18468.77930 0.000918
18469.15039 0.000919
18469.51953 0.000921
18469.89062 0.000922
18470.25977 0.000926
18470.63086 0.000931
18471.00000 0.000936
18471.36914 0.000941
18471.74023 0.000946
18472.10938 0.000952
18472.48047 0.000957
18472.84961 0.000962
18473.22070 0.000967
18473.58984 0.000972
18473.96094 0.000977
18474.33008 0.000982
18474.69922 0.000987
18475.07031 0.000992
18475.43945 0.000993
18475.81055 0.000994
18476.17969 0.000994
18476.55078 0.000995
18476.91992 0.000996
18477.28906 0.000997
18477.66016 0.000998
18478.03906 0.000999
18478.40039 0.001
18478.77930 0.001001
18479.14062 0.001001
18479.51953 0.001002
18479.89062 0.001003
18480.25977 0.001005
18480.63086 0.001007
18481.00000 0.00101
18481.36914 0.001012
18481.74023 0.001014
18482.10938 0.001016
18482.48047 0.001019
18482.84961 0.001021
18483.22070 0.001023
18483.58984 0.001026
18483.96094 0.001028
18484.33008 0.00103
18484.69922 0.001032
18485.07031 0.001036
18485.43945 0.001042
18485.81055 0.001048
18486.17969 0.001055
18486.55078 0.001061
18486.91992 0.001067
18487.28906 0.001074
18487.66992 0.00108
18488.03906 0.001086
18488.41016 0.001093
18488.77930 0.001099
18489.15039 0.001105
18489.51953 0.001112
18489.89062 0.001118
18490.25977 0.001121
18490.63086 0.001123
18491.00000 0.001125
18491.36914 0.001127
18491.74023 0.001128
18492.10938 0.00113
18492.48047 0.001132
18492.84961 0.001134
18493.22070 0.001136
18493.58984 0.001137
18493.96094 0.001139
18494.33984 0.001141
18494.71094 0.001143
18495.08008 0.001144
18495.44922 0.001144
18495.82031 0.001144
18496.18945 0.001144
18496.56055 0.001145
18496.92969 0.001145
18497.30078 0.001145
18497.66992 0.001145
18498.03906 0.001145
18498.41016 0.001145
18498.77930 0.001145
18499.15039 0.001145
18499.52930 0.001145
18499.90039 0.001145
18500.26953 0.001146
18500.64062 0.001148
18501.00977 0.001149
18501.38086 0.00115
18501.75000 0.001152
18502.11914 0.001153
18502.49023 0.001154
18502.85938 0.001156
18503.23047 0.001157
18503.59961 0.001159
18503.97070 0.00116
18504.34961 0.001161
18504.72070 0.001163
18505.08984 0.001165
18505.46094 0.001172
18505.83008 0.001178
18506.19922 0.001184
18506.57031 0.001191
18506.93945 0.001197
18507.31055 0.001204
18507.67969 0.00121
18508.05078 0.001217
18508.42969 0.001223
18508.80078 0.00123
18509.16992 0.001236
18509.53906 0.001243
18509.91016 0.001249
18510.27930 0.001253
18510.65039 0.001257
18511.01953 0.001261
18511.39062 0.001265
18511.75977 0.001268
18512.13086 0.001272
18512.50977 0.001276
18512.88086 0.00128
18513.25000 0.001283
18513.61914 0.001287
18513.99023 0.001291
18514.35938 0.001295
18514.73047 0.001298
18515.09961 0.001302
18515.47070 0.001304
18515.84961 0.001306
18516.22070 0.001308
18516.58984 0.00131
18516.96094 0.001313
18517.33008 0.001315
18517.69922 0.001317
18518.07031 0.001319
18518.43945 0.001321
18518.81055 0.001324
18519.18945 0.001326
18519.56055 0.001328
18519.92969 0.00133
18520.30078 0.001337
18520.66992 0.001344
18521.03906 0.001352
18521.41016 0.001359
18521.77930 0.001367
18522.15039 0.001374
18522.52930 0.001382
18522.90039 0.00139
18523.26953 0.001397
18523.64062 0.001405
18524.00977 0.001412
18524.38086 0.00142
18524.75000 0.001427
18525.13086 0.001433
18525.50000 0.001434
18525.86914 0.001435
18526.24023 0.001437
18526.60938 0.001438
18526.98047 0.001439
18527.34961 0.001441
18527.72070 0.001442
18528.09961 0.001443
18528.47070 0.001445
18528.83984 0.001446
18529.21094 0.001448
18529.58008 0.001449
18529.94922 0.00145
18530.32031 0.001452
18530.69922 0.001455
18531.07031 0.001457
18531.43945 0.001459
18531.81055 0.001462
18532.17969 0.001464
18532.55078 0.001466
18532.91992 0.001468
18533.28906 0.001471
18533.66992 0.001473
18534.03906 0.001475
18534.41016 0.001477
18534.77930 0.00148
18535.15039 0.001484
18535.51953 0.001492
18535.89062 0.0015
18536.26953 0.001507
18536.64062 0.001515
18537.00977 0.001523
18537.38086 0.00153
18537.75000 0.001538
18538.11914 0.001546
18538.50000 0.001553
18538.86914 0.001561
18539.24023 0.001569
18539.60938 0.001576
18539.98047 0.001584
18540.34961 0.00159
18540.72070 0.001596
18541.09961 0.001602
18541.47070 0.001607
18541.83984 0.001613
18542.21094 0.001619
18542.58008 0.001625
18542.96094 0.001631
18543.33008 0.001637
18543.69922 0.001642
18544.07031 0.001648
18544.43945 0.001654
18544.81055 0.00166
18545.17969 0.001665
18545.56055 0.001669
18545.92969 0.001673
18546.30078 0.001677
18546.66992 0.00168
18547.03906 0.001684
18547.41016 0.001688
18547.78906 0.001692
18548.16016 0.001696
18548.52930 0.0017
18548.90039 0.001704
18549.26953 0.001708
18549.64062 0.001712
18550.01953 0.001716
18550.39062 0.001723
18550.75977 0.001731
18551.13086 0.001738
18551.50000 0.001746
18551.88086 0.001753
18552.25000 0.001761
18552.61914 0.001768
18552.99023 0.001776
18553.35938 0.001783
18553.73047 0.001791
18554.10938 0.001798
18554.48047 0.001806
18554.84961 0.001813
18555.22070 0.001817
18555.58984 0.001817
18555.97070 0.001817
18556.33984 0.001817
18556.71094 0.001818
18557.08008 0.001818
18557.44922 0.001818
18557.83008 0.001819
18558.19922 0.001819
18558.57031 0.001819
18558.93945 0.001819
18559.31055 0.00182
18559.68945 0.00182
18560.06055 0.001821
18560.42969 0.001825
18560.80078 0.001829
18561.16992 0.001833
18561.53906 0.001837
18561.91992 0.001842
18562.28906 0.001846
18562.66016 0.00185
18563.02930 0.001854
18563.40039 0.001858
18563.77930 0.001862
18564.15039 0.001866
18564.51953 0.00187
18564.89062 0.001875
18565.26953 0.001882
18565.64062 0.00189
18566.00977 0.001899
18566.38086 0.001907
18566.75000 0.001916
18567.13086 0.001924
18567.50000 0.001933
18567.86914 0.001941
18568.24023 0.00195
18568.61914 0.001958
18568.99023 0.001967
18569.35938 0.001975
18569.73047 0.001984
18570.09961 0.001992
18570.47070 0.001999
18570.84961 0.002006
18571.22070 0.002013
18571.58984 0.002021
18571.96094 0.002028
18572.33984 0.002035
18572.71094 0.002042
18573.08008 0.002049
18573.44922 0.002057
18573.82031 0.002064
18574.19922 0.002071
18574.57031 0.002078
18574.93945 0.002086
18575.31055 0.00209
18575.68945 0.002095
18576.06055 0.002099
18576.42969 0.002103
18576.80078 0.002108
18577.17969 0.002112
18577.55078 0.002116
18577.91992 0.00212
18578.28906 0.002125
18578.66016 0.002129
18579.03906 0.002133
18579.41016 0.002138
18579.77930 0.002142
18580.15039 0.002147
18580.52930 0.002153
18580.90039 0.00216
18581.26953 0.002166
18581.64062 0.002172
18582.01953 0.002179
18582.39062 0.002185
18582.75977 0.002191
18583.13086 0.002198
18583.50977 0.002204
18583.88086 0.002211
18584.25000 0.002217
18584.61914 0.002223
18585.00000 0.00223
18585.36914 0.002238
18585.74023 0.002246
18586.10938 0.002255
18586.49023 0.002263
18586.85938 0.002271
18587.23047 0.00228
18587.59961 0.002288
18587.98047 0.002296
18588.34961 0.002305
18588.72070 0.002313
18589.08984 0.002322
18589.47070 0.00233
18589.83984 0.002338
18590.21094 0.002347
18590.58008 0.002356
18590.96094 0.002365
18591.33008 0.002374
18591.69922 0.002383
18592.07031 0.002392
18592.44922 0.002401
18592.82031 0.00241
18593.18945 0.002419
18593.56055 0.002428
18593.93945 0.002437
18594.31055 0.002446
18594.67969 0.002454
18595.05078 0.002463
18595.42969 0.002471
18595.80078 0.002478
18596.16992 0.002486
18596.53906 0.002493
18596.91992 0.002501
18597.28906 0.002508
18597.66016 0.002516
18598.03906 0.002524
18598.41016 0.002531
18598.77930 0.002539
18599.15039 0.002546
18599.52930 0.002554
18599.90039 0.002561
18600.26953 0.002568
18600.65039 0.002574
18601.01953 0.00258
18601.39062 0.002586
18601.75977 0.002592
18602.14062 0.002598
18602.50977 0.002604
18602.88086 0.00261
18603.25977 0.002616
18603.63086 0.002622
18604.00000 0.002628
18604.36914 0.002634
18604.75000 0.00264
18605.11914 0.002648
18605.49023 0.002662
18605.86914 0.002676
18606.24023 0.002689
18606.60938 0.002703
18606.98047 0.002717
18607.35938 0.002731
18607.73047 0.002745
18608.09961 0.002759
18608.48047 0.002772
18608.84961 0.002786
18609.22070 0.0028
18609.59961 0.002814
18609.97070 0.002828
18610.33984 0.002835
18610.71094 0.002842
18611.08984 0.00285
18611.46094 0.002857
18611.83008 0.002864
18612.21094 0.002871
18612.58008 0.002878
18612.94922 0.002885
18613.32031 0.002892
18613.69922 0.002899
18614.07031 0.002907
18614.43945 0.002914
18614.82031 0.002921
18615.18945 0.002931
18615.56055 0.002945
18615.93945 0.002958
18616.31055 0.002972
18616.67969 0.002986
18617.05078 0.002999
18617.42969 0.003013
18617.80078 0.003026
18618.17969 0.00304
18618.55078 0.003054
18618.91992 0.003067
18619.28906 0.003081
18619.66992 0.003094
18620.03906 0.003107
18620.41016 0.003112
18620.78906 0.003118
18621.16016 0.003123
18621.52930 0.003128
18621.91016 0.003134
18622.27930 0.003139
18622.65039 0.003145
18623.02930 0.00315
18623.40039 0.003155
18623.76953 0.003161
18624.15039 0.003166
18624.51953 0.003171
18624.89062 0.003177
18625.26953 0.003185
18625.64062 0.003193
18626.00977 0.003202
18626.38086 0.003211
18626.75977 0.00322
18627.13086 0.003228
18627.50977 0.003237
18627.88086 0.003246
18628.25000 0.003255
18628.61914 0.003264
18629.00000 0.003272
18629.36914 0.003281
18629.75000 0.00329
18630.11914 0.003298
18630.49023 0.003306
18630.86914 0.003314
18631.24023 0.003322
18631.60938 0.00333
18631.99023 0.003338
18632.35938 0.003346
18632.73047 0.003354
18633.10938 0.003362
18633.48047 0.00337
18633.84961 0.003378
18634.23047 0.003386
18634.59961 0.003394
18634.97070 0.003402
18635.34961 0.003419
18635.72070 0.003436
18636.08984 0.003453
18636.47070 0.003471
18636.83984 0.003488
18637.21094 0.003506
18637.58984 0.003523
18637.96094 0.00354
18638.33008 0.003558
18638.71094 0.003575
18639.08008 0.003593
18639.46094 0.00361
18639.83008 0.003628
18640.19922 0.003642
18640.58008 0.003654
18640.94922 0.003666
18641.32031 0.003678
18641.69922 0.00369
18642.07031 0.003703
18642.43945 0.003715
18642.82031 0.003727
18643.18945 0.003739
18643.56055 0.003751
18643.93945 0.003763
18644.31055 0.003775
18644.68945 0.003787
18645.06055 0.003799
18645.42969 0.003809
18645.81055 0.003818
18646.17969 0.003828
18646.55078 0.003838
18646.92969 0.003848
18647.30078 0.003858
18647.67969 0.003868
18648.05078 0.003877
18648.41992 0.003887
18648.80078 0.003897
18649.16992 0.003907
18649.53906 0.003917
18649.91992 0.003926
18650.28906 0.003941
18650.66992 0.003957
18651.03906 0.003972
18651.41016 0.003988
18651.78906 0.004004
18652.16016 0.00402
18652.53906 0.004035
18652.91016 0.004051
18653.27930 0.004067
18653.66016 0.004082
18654.02930 0.004098
18654.40039 0.004114
18654.77930 0.00413
18655.15039 0.004143
18655.52930 0.004154
18655.90039 0.004165
18656.26953 0.004176
18656.65039 0.004187
18657.01953 0.004198
18657.39062 0.004209
18657.76953 0.00422
18658.14062 0.004231
18658.51953 0.004242
18658.89062 0.004252
18659.26953 0.004263
18659.64062 0.004274
18660.00977 0.004285
18660.39062 0.004302
18660.75977 0.004319
18661.13086 0.004336
18661.50977 0.004353
18661.88086 0.00437
18662.25977 0.004387
18662.63086 0.004404
18663.00000 0.004421
18663.38086 0.004438
18663.75000 0.004455
18664.13086 0.004472
18664.50000 0.004489
18664.88086 0.004506
18665.25000 0.00452
18665.61914 0.004534
18666.00000 0.004547
18666.36914 0.00456
18666.75000 0.004573
18667.11914 0.004586
18667.49023 0.004599
18667.86914 0.004613
18668.24023 0.004626
18668.61914 0.004639
18668.99023 0.004652
18669.35938 0.004665
18669.74023 0.004678
18670.10938 0.004692
18670.49023 0.004707
18670.85938 0.004722
18671.23047 0.004737
18671.60938 0.004753
18671.98047 0.004768
18672.35938 0.004783
18672.73047 0.004798
18673.10938 0.004813
18673.48047 0.004828
18673.85938 0.004843
18674.23047 0.004858
18674.59961 0.004873
18674.98047 0.004888
18675.34961 0.004913
18675.73047 0.004938
18676.09961 0.004963
18676.47070 0.004987
18676.84961 0.005012
18677.22070 0.005037
18677.59961 0.005062
18677.97070 0.005087
18678.34961 0.005112
18678.72070 0.005137
18679.09961 0.005162
18679.47070 0.005187
18679.83984 0.005212
18680.22070 0.005232
18680.58984 0.005248
18680.97070 0.005264
18681.33984 0.005281
18681.71094 0.005297
18682.08984 0.005314
18682.46094 0.00533
18682.83984 0.005347
18683.21094 0.005363
18683.58984 0.00538
18683.96094 0.005396
18684.33984 0.005413
18684.71094 0.005429
18685.08984 0.005446
18685.46094 0.005465
18685.83008 0.005484
18686.21094 0.005503
18686.58008 0.005522
18686.96094 0.005541
18687.33008 0.00556
18687.71094 0.005579
18688.08008 0.005598
18688.46094 0.005617
18688.83008 0.005636
18689.21094 0.005655
18689.58008 0.005674
18689.96094 0.005693
18690.33008 0.005713
18690.69922 0.005733
18691.08008 0.005753
18691.44922 0.005773
18691.83008 0.005793
18692.19922 0.005813
18692.58008 0.005832
18692.94922 0.005852
18693.33008 0.005872
18693.69922 0.005892
18694.07031 0.005912
18694.44922 0.005932
18694.82031 0.005952
18695.19922 0.005972
18695.57031 0.005992
18695.94922 0.006012
18696.32031 0.006033
18696.69922 0.006053
18697.07031 0.006073
18697.44922 0.006093
18697.82031 0.006113
18698.19922 0.006133
18698.57031 0.006154
18698.94922 0.006174
18699.32031 0.006194
18699.69922 0.006214
18700.07031 0.006235
18700.44922 0.006261
18700.82031 0.006287
18701.19922 0.006312
18701.57031 0.006338
18701.93945 0.006363
18702.32031 0.006389
18702.68945 0.006414
18703.07031 0.00644
18703.43945 0.006466
18703.82031 0.006491
18704.18945 0.006517
18704.57031 0.006542
18704.93945 0.006568
18705.32031 0.006594
18705.68945 0.006621
18706.07031 0.006647
18706.43945 0.006674
18706.82031 0.0067
18707.18945 0.006726
18707.57031 0.006753
18707.93945 0.006779
18708.32031 0.006806
18708.68945 0.006832
18709.07031 0.006858
18709.43945 0.006885
18709.82031 0.006911
18710.18945 0.006937
18710.57031 0.006961
18710.93945 0.006986
18711.32031 0.007011
18711.68945 0.007036
18712.07031 0.00706
18712.43945 0.007085
18712.82031 0.00711
18713.18945 0.007134
18713.57031 0.007159
18713.93945 0.007184
18714.32031 0.007208
18714.68945 0.007233
18715.07031 0.007258
18715.43945 0.007283
18715.82031 0.007308
18716.18945 0.007333
18716.57031 0.007358
18716.93945 0.007383
18717.32031 0.007408
18717.68945 0.007434
18718.07031 0.007459
18718.43945 0.007484
18718.82031 0.007509
18719.18945 0.007534
18719.57031 0.007559
18719.93945 0.007584
18720.32031 0.007612
18720.68945 0.007641
18721.07031 0.007671
18721.44922 0.007699
18721.82031 0.007728
18722.19922 0.007757
18722.57031 0.007786
18722.94922 0.007815
18723.32031 0.007844
18723.69922 0.007873
18724.07031 0.007902
18724.44922 0.007931
18724.82031 0.00796
18725.19922 0.007991
18725.57031 0.008023
18725.94922 0.008055
18726.32031 0.008087
18726.69922 0.008119
18727.07031 0.008151
18727.44922 0.008183
18727.82031 0.008216
18728.19922 0.008248
18728.57031 0.00828
18728.94922 0.008312
18729.33008 0.008344
18729.69922 0.008376
18730.08008 0.00841
18730.44922 0.008448
18730.83008 0.008487
18731.19922 0.008526
18731.58008 0.008564
18731.94922 0.008603
18732.33008 0.008642
18732.69922 0.00868
18733.08008 0.008719
18733.46094 0.008758
18733.83008 0.008797
18734.21094 0.008835
18734.58008 0.008874
18734.96094 0.008913
18735.33008 0.008949
18735.71094 0.008984
18736.08008 0.00902
18736.46094 0.009056
18736.83008 0.009091
18737.21094 0.009127
18737.58984 0.009163
18737.96094 0.009199
18738.33984 0.009234
18738.71094 0.00927
18739.08984 0.009306
18739.46094 0.009341
18739.83984 0.009377
18740.21094 0.00941
18740.58984 0.009442
18740.96094 0.009473
18741.33984 0.009505
18741.72070 0.009536
18742.08984 0.009567
18742.47070 0.009598
18742.83984 0.00963
18743.22070 0.009661
18743.58984 0.009693
18743.97070 0.009724
18744.34961 0.009755
18744.72070 0.009787
18745.09961 0.009818
18745.47070 0.00985
18745.84961 0.009881
18746.22070 0.009913
18746.59961 0.009944
18746.98047 0.009976
18747.34961 0.010008
18747.73047 0.010039
18748.09961 0.010071
18748.48047 0.010102
18748.84961 0.010134
18749.23047 0.010165
18749.60938 0.010197
18749.98047 0.010229
18750.35938 0.010267
18750.73047 0.010306
18751.10938 0.010345
18751.48047 0.010383
18751.85938 0.010422
18752.24023 0.010461
18752.60938 0.0105
18752.99023 0.010538
18753.35938 0.010577
18753.74023 0.010616
18754.11914 0.010655
18754.49023 0.010694
18754.86914 0.010732
18755.24023 0.010774
18755.61914 0.010817
18755.99023 0.010861
18756.36914 0.010904
18756.75000 0.010947
18757.11914 0.010991
18757.50000 0.011034
18757.86914 0.011078
18758.25000 0.011121
18758.63086 0.011164
18759.00000 0.011207
18759.38086 0.011251
18759.75000 0.011294
18760.13086 0.01134
18760.50977 0.01139
18760.88086 0.01144
18761.25977 0.011489
18761.63086 0.011539
18762.00977 0.011589
18762.39062 0.011639
18762.75977 0.011689
18763.14062 0.011739
18763.50977 0.011789
18763.89062 0.011839
18764.26953 0.011888
18764.64062 0.011938
18765.01953 0.011989
18765.39062 0.012041
18765.76953 0.012094
18766.15039 0.012146
18766.51953 0.012199
18766.90039 0.012252
18767.27930 0.012304
18767.65039 0.012357
18768.02930 0.01241
18768.40039 0.012462
18768.77930 0.012515
18769.16016 0.012568
18769.52930 0.01262
18769.91016 0.012673
18770.28906 0.012723
18770.66016 0.012772
18771.03906 0.012821
18771.41016 0.01287
18771.78906 0.012919
18772.16992 0.012968
18772.53906 0.013017
18772.91992 0.013066
18773.28906 0.013115
18773.66992 0.013164
18774.05078 0.013213
18774.41992 0.013262
18774.80078 0.013311
18775.17969 0.013361
18775.55078 0.013411
18775.92969 0.013462
18776.30078 0.013512
18776.67969 0.013563
18777.06055 0.013613
18777.42969 0.013664
18777.81055 0.013714
18778.18945 0.013764
18778.56055 0.013815
18778.93945 0.013865
18779.31055 0.013916
18779.68945 0.013966
18780.07031 0.014017
18780.43945 0.014073
18780.82031 0.014128
18781.19922 0.014184
18781.57031 0.014239
18781.94922 0.014294
18782.33008 0.01435
18782.69922 0.014405
18783.08008 0.014461
18783.46094 0.014516
18783.83008 0.014572
18784.21094 0.014627
18784.58008 0.014682
18784.96094 0.014738
18785.33984 0.01479
18785.71094 0.014841
18786.08984 0.014892
18786.47070 0.014943
18786.83984 0.014994
18787.22070 0.015046
18787.59961 0.015097
18787.97070 0.015148
18788.34961 0.015199
18788.73047 0.01525
18789.09961 0.015302
18789.48047 0.015352
18789.85938 0.015404
18790.23047 0.015461
18790.60938 0.015523
18790.99023 0.015585
18791.35938 0.015647
18791.74023 0.015708
18792.11914 0.01577
18792.49023 0.015832
18792.86914 0.015894
18793.25000 0.015955
18793.61914 0.016017
18794.00000 0.016079
18794.36914 0.01614
18794.75000 0.016202
18795.13086 0.016267
18795.50977 0.016337
18795.88086 0.016407
18796.25977 0.016477
18796.63086 0.016547
18797.00977 0.016617
18797.39062 0.016687
18797.76953 0.016757
18798.14062 0.016827
18798.51953 0.016897
18798.90039 0.016967
18799.26953 0.017037
18799.65039 0.017107
18800.02930 0.017176
18800.40039 0.017248
18800.77930 0.017319
18801.16016 0.01739
18801.52930 0.017461
18801.91016 0.017532
18802.28906 0.017604
18802.66016 0.017675
18803.03906 0.017746
18803.41992 0.017817
18803.78906 0.017889
18804.16992 0.01796
18804.55078 0.018031
18804.92969 0.018102
18805.30078 0.018177
18805.67969 0.018252
18806.05078 0.018326
18806.42969 0.018401
18806.81055 0.018476
18807.18945 0.018551
18807.56055 0.018626
18807.93945 0.018701
18808.32031 0.018776
18808.68945 0.018851
18809.07031 0.018927
18809.44922 0.019002
18809.82031 0.019077
18810.19922 0.01915
18810.58008 0.019221
18810.96094 0.019293
18811.33008 0.019364
18811.71094 0.019436
18812.08984 0.019508
18812.46094 0.019579
18812.83984 0.019651
18813.22070 0.019722
18813.59961 0.019794
18813.97070 0.019865
18814.34961 0.019937
18814.73047 0.020008
18815.09961 0.020081
18815.48047 0.020158
18815.85938 0.020235
18816.23047 0.020312
18816.60938 0.020389
18816.99023 0.020465
18817.36914 0.020542
18817.74023 0.020619
18818.11914 0.020696
18818.50000 0.020773
18818.86914 0.02085
18819.25000 0.020927
18819.63086 0.021004
18820.00977 0.021081
18820.38086 0.021166
18820.75977 0.021252
18821.14062 0.021338
18821.51953 0.021424
18821.89062 0.02151
18822.26953 0.021596
18822.65039 0.021682
18823.01953 0.021768
18823.40039 0.021854
18823.77930 0.02194
18824.16016 0.022026
18824.52930 0.022112
18824.91016 0.022198
18825.28906 0.022289
18825.66016 0.022383
18826.03906 0.022476
18826.41992 0.02257
18826.80078 0.022664
18827.16992 0.022758
18827.55078 0.022851
18827.92969 0.022945
18828.31055 0.023039
18828.67969 0.023132
18829.06055 0.023226
18829.43945 0.023319
18829.81055 0.023413
18830.18945 0.023515
18830.57031 0.023623
18830.94922 0.023731
18831.32031 0.02384
18831.69922 0.023948
18832.08008 0.024057
18832.46094 0.024165
18832.83008 0.024273
18833.21094 0.024382
18833.58984 0.024491
18833.97070 0.024599
18834.33984 0.024707
18834.72070 0.024816
18835.09961 0.024925
18835.48047 0.025036
18835.84961 0.025147
18836.23047 0.025258
18836.60938 0.025369
18836.99023 0.02548
18837.35938 0.025591
18837.74023 0.025702
18838.11914 0.025813
18838.50000 0.025924
18838.88086 0.026035
18839.25000 0.026146
18839.63086 0.026257
18840.00977 0.026368
18840.38086 0.026472
18840.75977 0.026576
18841.14062 0.02668
18841.51953 0.026784
18841.89062 0.026888
18842.26953 0.026993
18842.65039 0.027096
18843.02930 0.0272
18843.41016 0.027305
18843.77930 0.027409
18844.16016 0.027513
18844.53906 0.027617
18844.91992 0.027721
18845.28906 0.027831
18845.66992 0.027943
18846.05078 0.028054
18846.42969 0.028166
18846.80078 0.028277
18847.17969 0.028388
18847.56055 0.0285
18847.93945 0.028611
18848.32031 0.028723
18848.68945 0.028834
18849.07031 0.028946
18849.44922 0.029057
18849.83008 0.029169
18850.21094 0.029282
18850.58008 0.029395
18850.96094 0.029509
18851.33984 0.029623
18851.71094 0.029736
18852.08984 0.02985
18852.47070 0.029964
18852.84961 0.030078
18853.23047 0.030191
18853.60938 0.030305
18853.98047 0.030418
18854.35938 0.030533
18854.74023 0.030646
18855.11914 0.030764
18855.49023 0.030895
18855.86914 0.031025
18856.25000 0.031156
18856.63086 0.031286
18857.00977 0.031416
18857.38086 0.031546
18857.75977 0.031677
18858.14062 0.031807
18858.51953 0.031938
18858.89062 0.032068
18859.26953 0.032198
18859.65039 0.032328
18860.02930 0.032459
18860.41016 0.032595
18860.78906 0.032731
18861.16016 0.032867
18861.53906 0.033002
18861.91992 0.033138
18862.30078 0.033273
18862.67969 0.033409
18863.05078 0.033545
18863.42969 0.033681
18863.81055 0.033816
18864.18945 0.033952
18864.57031 0.034088
18864.93945 0.034223
18865.32031 0.034366
18865.69922 0.034508
18866.08008 0.034652
18866.46094 0.034795
18866.83008 0.034938
18867.21094 0.035082
18867.58984 0.035225
18867.97070 0.035368
18868.34961 0.035511
18868.72070 0.035655
18869.09961 0.035798
18869.48047 0.035941
18869.85938 0.036085
18870.24023 0.036221
18870.61914 0.036352
18870.99023 0.036484
18871.36914 0.036615
18871.75000 0.036747
18872.13086 0.036879
18872.50977 0.03701
18872.88086 0.037142
18873.25977 0.037274
18873.64062 0.037405
18874.01953 0.037537
18874.40039 0.037668
18874.77930 0.0378
18875.15039 0.037933
18875.52930 0.038069
18875.91016 0.038205
18876.28906 0.038341
18876.66992 0.038477
18877.05078 0.038614
18877.41992 0.038749
18877.80078 0.038885
18878.17969 0.039021
18878.56055 0.039157
18878.93945 0.039293
18879.32031 0.039429
18879.69922 0.039566
18880.07031 0.039703
18880.44922 0.039849
18880.83008 0.039995
18881.21094 0.040141
18881.58984 0.040287
18881.96094 0.040433
18882.33984 0.040579
18882.72070 0.040725
18883.09961 0.040871
18883.48047 0.041017
18883.85938 0.041163
18884.24023 0.04131
18884.60938 0.041455
18884.99023 0.041601
18885.36914 0.041759
18885.75000 0.041918
18886.13086 0.042075
18886.50977 0.042234
18886.88086 0.042392
18887.25977 0.042551
18887.64062 0.042709
18888.01953 0.042867
18888.40039 0.043025
18888.77930 0.043184
18889.16016 0.043342
18889.53906 0.0435
18889.91016 0.043659
18890.28906 0.043834
18890.66992 0.044016
18891.05078 0.044197
18891.42969 0.044379
18891.81055 0.04456
18892.18945 0.044741
18892.56055 0.044923
18892.93945 0.045103
18893.32031 0.045285
18893.69922 0.045466
18894.08008 0.045648
18894.46094 0.045829
18894.83984 0.046011
18895.21094 0.046199
18895.58984 0.046393
18895.97070 0.046586
18896.34961 0.04678
18896.73047 0.046975
18897.10938 0.047169
18897.49023 0.047363
18897.86914 0.047557
18898.24023 0.047751
18898.61914 0.047945
18899.00000 0.048139
18899.38086 0.048333
18899.75977 0.048527
18900.14062 0.048716
18900.51953 0.048897
18900.89062 0.049078
18901.26953 0.049259
18901.65039 0.049441
18902.02930 0.049622
18902.41016 0.049803
18902.78906 0.049985
18903.16992 0.050166
18903.55078 0.050347
18903.92969 0.050529
18904.30078 0.05071
18904.67969 0.050891
18905.06055 0.051073
18905.43945 0.051259
18905.82031 0.051446
18906.19922 0.051632
18906.58008 0.051818
18906.96094 0.052004
18907.33984 0.052191
18907.71094 0.052377
18908.08984 0.052563
18908.47070 0.052749
18908.84961 0.052935
18909.23047 0.053122
18909.60938 0.053308
18909.99023 0.053494
18910.36914 0.053682
18910.75000 0.05387
18911.11914 0.054058
18911.50000 0.054246
18911.88086 0.054434
18912.25977 0.054622
18912.64062 0.054811
18913.01953 0.054999
18913.40039 0.055187
18913.77930 0.055374
18914.16016 0.055562
18914.53906 0.05575
18914.91992 0.055938
18915.28906 0.056127
18915.66992 0.056315
18916.05078 0.056504
18916.42969 0.056692
18916.81055 0.056881
18917.18945 0.05707
18917.57031 0.057259
18917.94922 0.057447
18918.33008 0.057636
18918.71094 0.057824
18919.08984 0.058013
18919.46094 0.058201
18919.83984 0.05839
18920.22070 0.058593
18920.59961 0.058804
18920.98047 0.059015
18921.35938 0.059226
18921.74023 0.059437
18922.11914 0.059648
18922.50000 0.05986
18922.88086 0.060071
18923.25977 0.060283
18923.64062 0.060494
18924.01953 0.060705
18924.39062 0.060916
18924.77930 0.061128
18925.15039 0.061342
18925.52930 0.061559
18925.91016 0.061776
18926.28906 0.061993
18926.66992 0.062211
18927.05078 0.062428
18927.42969 0.062645
18927.81055 0.062862
18928.18945 0.063079
18928.57031 0.063298
18928.94922 0.063515
18929.33008 0.063732
18929.71094 0.063949
18930.08984 0.064166
18930.46094 0.064376
18930.83984 0.064587
18931.22070 0.064797
18931.59961 0.065008
18931.98047 0.065219
18932.35938 0.065429
18932.74023 0.06564
18933.11914 0.065851
18933.50000 0.066062
18933.88086 0.066272
18934.25977 0.066484
18934.64062 0.066694
18935.01953 0.066904
18935.40039 0.067101
18935.77930 0.067299
18936.16016 0.067496
18936.53906 0.067693
18936.91992 0.067891
18937.28906 0.068088
18937.66992 0.068285
18938.05078 0.068483
18938.42969 0.06868
18938.81055 0.068877
18939.18945 0.069075
18939.57031 0.069272
18939.94922 0.069469
18940.33008 0.069672
18940.71094 0.069873
18941.08984 0.070075
18941.47070 0.070278
18941.84961 0.07048
18942.23047 0.070682
18942.60938 0.070884
18942.99023 0.071086
18943.36914 0.071289
18943.75000 0.071491
18944.13086 0.071692
18944.50977 0.071895
18944.89062 0.072097
18945.26953 0.072295
18945.65039 0.072493
18946.02930 0.07269
18946.41016 0.072888
18946.78906 0.073085
18947.16992 0.073283
18947.53906 0.07348
18947.91992 0.073677
18948.30078 0.073875
18948.67969 0.074071
18949.06055 0.074269
18949.43945 0.074466
18949.82031 0.074664
18950.19922 0.074864
18950.58008 0.075066
18950.96094 0.075269
18951.33984 0.075472
18951.72070 0.075675
18952.09961 0.075877
18952.48047 0.076081
18952.85938 0.076283
18953.24023 0.076486
18953.61914 0.076688
18954.00000 0.076892
18954.38086 0.077094
18954.75977 0.077297
18955.14062 0.077504
18955.51953 0.077719
18955.90039 0.077934
18956.27930 0.07815
18956.66016 0.078364
18957.03906 0.07858
18957.41992 0.078794
18957.80078 0.07901
18958.17969 0.079224
18958.56055 0.07944
18958.93945 0.079654
18959.32031 0.07987
18959.69922 0.080085
18960.08008 0.080296
18960.46094 0.080496
18960.83984 0.080695
18961.22070 0.080895
18961.59961 0.081094
18961.98047 0.081294
18962.35938 0.081492
18962.74023 0.081692
18963.11914 0.081892
18963.50000 0.082091
18963.88086 0.082291
18964.25977 0.08249
18964.64062 0.08269
18965.01953 0.082889
18965.40039 0.083072
18965.77930 0.083256
18966.16016 0.083439
18966.53906 0.083622
18966.91992 0.083806
18967.30078 0.083989
18967.67969 0.084173
18968.06055 0.084357
18968.43945 0.08454
18968.82031 0.084724
18969.19922 0.084907
18969.58008 0.085091
18969.96094 0.085275
18970.33984 0.085471
18970.72070 0.085669
18971.09961 0.085868
18971.48047 0.086066
18971.85938 0.086264
18972.24023 0.086463
18972.61914 0.086661
18973.00000 0.086859
18973.38086 0.087058
18973.75977 0.087255
18974.14062 0.087454
18974.52930 0.087653
18974.91016 0.087851
18975.28906 0.08804
18975.66992 0.088227
18976.05078 0.088413
18976.42969 0.088599
18976.81055 0.088786
18977.18945 0.088973
18977.57031 0.089159
18977.94922 0.089345
18978.33008 0.089532
18978.71094 0.089719
18979.08984 0.089905
18979.47070 0.090091
18979.84961 0.090278
18980.23047 0.09047
18980.60938 0.090665
18980.99023 0.09086
18981.36914 0.091055
18981.75000 0.091251
18982.13086 0.091446
18982.50977 0.09164
18982.89062 0.091836
18983.26953 0.092031
18983.65039 0.092227
18984.03906 0.092422
18984.41016 0.092616
18984.78906 0.092812
18985.17969 0.09301
18985.56055 0.093213
18985.93945 0.093416
18986.32031 0.093617
18986.69922 0.09382
18987.08008 0.094022
18987.46094 0.094225
18987.83984 0.094428
18988.22070 0.09463
18988.59961 0.094832
18988.98047 0.095034
18989.35938 0.095237
18989.74023 0.09544
18990.11914 0.095642
18990.50000 0.095842
18990.88086 0.096043
18991.25977 0.096242
18991.64062 0.096443
18992.02930 0.096643
18992.41016 0.096844
18992.78906 0.097044
18993.16992 0.097244
18993.55078 0.097445
18993.92969 0.097645
18994.31055 0.097846
18994.68945 0.098045
18995.07031 0.09824
18995.44922 0.098407
18995.83008 0.098574
18996.21094 0.098742
18996.58984 0.098909
18996.97070 0.099077
18997.35938 0.099244
18997.74023 0.099411
18998.11914 0.099579
18998.50000 0.099746
18998.88086 0.099913
18999.25977 0.100081
18999.64062 0.100248
19000.01953 0.100415
19000.40039 0.100566
19000.77930 0.100719
19001.16016 0.100871
19001.53906 0.101024
19001.91992 0.101176
19002.30078 0.101329
19002.68945 0.101481
19003.07031 0.101633
19003.44922 0.101786
19003.83008 0.101938
19004.21094 0.102091
19004.58984 0.102243
19004.97070 0.102396
19005.34961 0.102528
19005.73047 0.102658
19006.10938 0.102789
19006.49023 0.102919
19006.88086 0.103049
19007.25977 0.103179
19007.64062 0.10331
19008.01953 0.103441
19008.40039 0.103571
19008.77930 0.103702
19009.16016 0.103832
19009.53906 0.103962
19009.91992 0.104093
19010.30078 0.104228
19010.68945 0.104363
19011.07031 0.104499
19011.44922 0.104635
19011.83008 0.104771
19012.21094 0.104907
19012.58984 0.105043
19012.97070 0.105179
19013.34961 0.105316
19013.73047 0.105452
19014.11914 0.105588
19014.50000 0.105724
19014.88086 0.10586
19015.25977 0.105989
19015.64062 0.106116
19016.01953 0.106243
19016.40039 0.10637
19016.77930 0.106498
19017.16016 0.106625
19017.53906 0.106751
19017.92969 0.106878
19018.31055 0.107005
19018.68945 0.107132
19019.07031 0.107259
19019.44922 0.107387
19019.83008 0.107514
19020.21094 0.107635
19020.58984 0.107753
19020.97070 0.107871
19021.35938 0.10799
19021.74023 0.108107
19022.11914 0.108225
19022.50000 0.108343
19022.88086 0.108461
19023.25977 0.108579
19023.64062 0.108697
19024.02930 0.108815
19024.41016 0.108933
19024.78906 0.109051
19025.16992 0.109167
19025.55078 0.10928
19025.92969 0.109392
19026.31055 0.109505
19026.68945 0.109618
19027.08008 0.109731
19027.46094 0.109844
19027.83984 0.109956
19028.22070 0.110069
19028.59961 0.110182
19028.98047 0.110295
19029.35938 0.110408
19029.74023 0.11052
19030.13086 0.110627
19030.50977 0.110719
19030.89062 0.110811
19031.26953 0.110904
19031.65039 0.110997
19032.02930 0.111089
19032.41016 0.111182
19032.80078 0.111274
19033.17969 0.111367
19033.56055 0.111459
19033.93945 0.111552
19034.32031 0.111644
19034.69922 0.111737
19035.08984 0.111829
19035.47070 0.111917
19035.84961 0.112006
19036.23047 0.112095
19036.60938 0.112183
19036.99023 0.112272
19037.38086 0.112361
19037.75977 0.112449
19038.14062 0.112538
19038.51953 0.112627
19038.90039 0.112715
19039.27930 0.112804
19039.66016 0.112893
19040.03906 0.112979
19040.42969 0.113054
19040.81055 0.113129
19041.18945 0.113204
19041.57031 0.113279
19041.94922 0.113354
19042.33008 0.113428
19042.72070 0.113503
19043.09961 0.113578
19043.48047 0.113653
19043.85938 0.113728
19044.24023 0.113803
19044.63086 0.113878
19045.00977 0.113952
19045.39062 0.114028
19045.76953 0.114103
19046.15039 0.114178
19046.52930 0.114253
19046.91016 0.114328
19047.30078 0.114404
19047.67969 0.114479
19048.06055 0.114554
19048.43945 0.114629
19048.82031 0.114704
19049.21094 0.114779
19049.58984 0.114855
19049.97070 0.11493
19050.34961 0.115
19050.73047 0.11507
19051.11914 0.11514
19051.50000 0.11521
19051.88086 0.115279
19052.25977 0.115349
19052.64062 0.115419
19053.01953 0.115489
19053.40039 0.115559
19053.78906 0.115629
19054.16992 0.115699
19054.55078 0.115769
19054.92969 0.115839
19055.31055 0.115899
19055.69922 0.115957
19056.08008 0.116015
19056.46094 0.116074
19056.83984 0.116132
19057.22070 0.116191
19057.60938 0.116249
19057.99023 0.116307
19058.36914 0.116365
19058.75000 0.116424
19059.13086 0.116482
19059.51953 0.11654
19059.90039 0.116599
19060.27930 0.116649
19060.66016 0.116696
19061.03906 0.116743
19061.42969 0.11679
19061.81055 0.116838
19062.18945 0.116885
19062.57031 0.116932
19062.94922 0.116979
19063.33984 0.117026
19063.72070 0.117074
19064.09961 0.117121
19064.48047 0.117168
19064.86914 0.117215
19065.25000 0.117256
19065.63086 0.117293
19066.00977 0.117331
19066.39062 0.117368
19066.77930 0.117406
19067.16016 0.117443
19067.53906 0.117481
19067.91992 0.117518
19068.30078 0.117556
19068.68945 0.117593
19069.07031 0.117631
19069.44922 0.117668
19069.83008 0.117706
19070.21094 0.117737
19070.59961 0.117764
19070.98047 0.117791
19071.35938 0.117817
19071.74023 0.117844
19072.13086 0.117871
19072.50977 0.117898
19072.89062 0.117924
19073.26953 0.117951
19073.65039 0.117978
19074.03906 0.118004
19074.41992 0.118031
19074.80078 0.118058
19075.17969 0.118079
19075.57031 0.118093
19075.94922 0.118107
19076.33008 0.118122
19076.71094 0.118136
19077.09961 0.118151
19077.48047 0.118165
19077.85938 0.118179
19078.24023 0.118194
19078.61914 0.118208
19079.00977 0.118222
19079.39062 0.118237
19079.76953 0.118251
19080.15039 0.118268
19080.53906 0.118288
19080.91992 0.118307
19081.30078 0.118327
19081.67969 0.118347
19082.07031 0.118367
19082.44922 0.118387
19082.83008 0.118406
19083.21094 0.118426
19083.59961 0.118446
19083.98047 0.118466
19084.35938 0.118486
19084.74023 0.118505
19085.11914 0.118522
19085.50977 0.118531
19085.89062 0.11854
19086.26953 0.118549
19086.66016 0.118558
19087.03906 0.118568
19087.41992 0.118577
19087.80078 0.118586
19088.18945 0.118595
19088.57031 0.118605
19088.94922 0.118614
19089.33008 0.118623
19089.72070 0.118632
19090.09961 0.118641
19090.48047 0.118649
19090.85938 0.118657
19091.25000 0.118665
19091.63086 0.118673
19092.00977 0.118681
19092.39062 0.118689
19092.77930 0.118696
19093.16016 0.118705
19093.53906 0.118712
19093.92969 0.11872
19094.31055 0.118728
19094.68945 0.118736
19095.07031 0.118743
19095.46094 0.118746
19095.83984 0.118749
19096.22070 0.118752
19096.59961 0.118755
19096.99023 0.118758
19097.36914 0.118761
19097.75000 0.118763
19098.13086 0.118766
19098.51953 0.118769
19098.90039 0.118772
19099.27930 0.118775
19099.66992 0.118778
19100.05078 0.11878
19100.42969 0.118777
19100.81055 0.118774
19101.19922 0.11877
19101.58008 0.118767
19101.96094 0.118764
19102.34961 0.118761
19102.73047 0.118757
19103.10938 0.118754
19103.49023 0.118751
19103.88086 0.118748
19104.25977 0.118745
19104.64062 0.118741
19105.02930 0.118738
19105.41016 0.118731
19105.78906 0.118723
19106.16992 0.118716
19106.56055 0.118708
19106.93945 0.118701
19107.32031 0.118694
19107.71094 0.118686
19108.08984 0.118679
19108.47070 0.118671
19108.85938 0.118664
19109.24023 0.118657
19109.61914 0.118649
19110.00000 0.118642
19110.39062 0.118645
19110.76953 0.118648
19111.15039 0.11865
19111.53906 0.118653
19111.91992 0.118656
19112.30078 0.118658
19112.68945 0.118661
19113.07031 0.118664
19113.44922 0.118667
19113.83008 0.118669
19114.22070 0.118672
19114.59961 0.118675
19114.98047 0.118678
19115.36914 0.11866
19115.75000 0.118641
19116.13086 0.118623
19116.51953 0.118604
19116.90039 0.118586
19117.27930 0.118567
19117.66016 0.118549
19118.05078 0.11853
19118.42969 0.118512
19118.81055 0.118493
19119.19922 0.118475
19119.58008 0.118456
19119.96094 0.118438
19120.34961 0.118425
19120.73047 0.118412
19121.10938 0.118399
19121.50000 0.118387
19121.88086 0.118374
19122.25977 0.118361
19122.65039 0.118348
19123.02930 0.118336
19123.41016 0.118323
19123.80078 0.11831
19124.17969 0.118298
19124.56055 0.118285
19124.94922 0.118272
19125.33008 0.118264
19125.71094 0.118257
19126.09961 0.118249
19126.48047 0.118241
19126.85938 0.118234
19127.25000 0.118226
19127.63086 0.118219
19128.00977 0.118211
19128.40039 0.118204
19128.77930 0.118196
19129.16016 0.118189
19129.55078 0.118181
19129.92969 0.118174
19130.31055 0.118159
19130.69922 0.118142
19131.08008 0.118126
19131.46094 0.11811
19131.84961 0.118093
19132.23047 0.118077
19132.60938 0.118061
19133.00000 0.118044
19133.38086 0.118028
19133.75977 0.118012
19134.15039 0.117995
19134.52930 0.117979
19134.91016 0.117962
19135.30078 0.117946
19135.67969 0.11793
19136.06055 0.117914
19136.44922 0.117899
19136.83008 0.117883
19137.21094 0.117866
19137.59961 0.11785
19137.98047 0.117834
19138.36914 0.117819
19138.75000 0.117803
19139.13086 0.117787
19139.51953 0.117771
19139.90039 0.117755
19140.27930 0.117737
19140.66992 0.117718
19141.05078 0.1177
19141.42969 0.117681
19141.82031 0.117663
19142.19922 0.117645
19142.58984 0.117626
19142.97070 0.117608
19143.34961 0.117589
19143.74023 0.117571
19144.11914 0.117552
19144.50000 0.117534
19144.89062 0.117515
19145.26953 0.117497
19145.65039 0.11748
19146.03906 0.117462
19146.41992 0.117444
19146.81055 0.117426
19147.18945 0.117408
19147.57031 0.117391
19147.96094 0.117373
19148.33984 0.117355
19148.72070 0.117337
19149.10938 0.117319
19149.49023 0.117302
19149.88086 0.117284
19150.25977 0.117265
19150.64062 0.117245
19151.02930 0.117226
19151.41016 0.117207
19151.78906 0.117187
19152.17969 0.117168
19152.56055 0.117149
19152.94922 0.117129
19153.33008 0.11711
19153.71094 0.11709
19154.09961 0.117071
19154.48047 0.117052
19154.86914 0.117032
19155.25000 0.117016
19155.63086 0.117002
19156.01953 0.116988
19156.40039 0.116973
19156.78906 0.116959
19157.16992 0.116945
19157.55078 0.116931
19157.93945 0.116916
19158.32031 0.116902
19158.71094 0.116888
19159.08984 0.116874
19159.47070 0.11686
19159.85938 0.116845
19160.24023 0.116824
19160.63086 0.1168
19161.00977 0.116775
19161.39062 0.11675
19161.77930 0.116726
19162.16016 0.116701
19162.53906 0.116676
19162.92969 0.116651
19163.31055 0.116627
19163.69922 0.116602
19164.08008 0.116577
19164.46094 0.116553
19164.84961 0.116528
19165.23047 0.116509
19165.61914 0.116495
19166.00000 0.11648
19166.39062 0.116466
19166.76953 0.116451
19167.15039 0.116436
19167.53906 0.116422
19167.91992 0.116407
19168.31055 0.116393
19168.68945 0.116378
19169.07031 0.116364
19169.46094 0.116349
19169.83984 0.116334
19170.23047 0.116319
19170.60938 0.116302
19171.00000 0.116285
19171.38086 0.116269
19171.75977 0.116252
19172.15039 0.116236
19172.52930 0.116219
19172.91992 0.116202
19173.30078 0.116186
19173.68945 0.116169
19174.07031 0.116152
19174.46094 0.116136
19174.83984 0.116119
19175.22070 0.1161
19175.60938 0.116078
19175.99023 0.116056
19176.38086 0.116035
19176.75977 0.116013
19177.14062 0.115992
19177.52930 0.11597
19177.91016 0.115948
19178.30078 0.115927
19178.67969 0.115905
19179.07031 0.115884
19179.44922 0.115862
19179.83008 0.11584
19180.22070 0.115819
19180.59961 0.115797
19180.99023 0.115775
19181.36914 0.115754
19181.75977 0.115732
19182.14062 0.11571
19182.52930 0.115689
19182.91016 0.115667
19183.28906 0.115645
19183.67969 0.115624
19184.06055 0.115602
19184.44922 0.11558
19184.83008 0.115558
19185.22070 0.115543
19185.59961 0.115532
19185.99023 0.115521
19186.36914 0.11551
19186.75977 0.115499
19187.14062 0.115488
19187.51953 0.115476
19187.91016 0.115465
19188.28906 0.115454
19188.67969 0.115443
19189.06055 0.115432
19189.44922 0.115421
19189.83008 0.11541
19190.22070 0.115391
19190.59961 0.115366
19190.99023 0.115341
19191.36914 0.115316
19191.75000 0.115291
19192.14062 0.115266
19192.51953 0.115241
19192.91016 0.115216
19193.28906 0.115191
19193.67969 0.115165
19194.06055 0.11514
19194.44922 0.115115
19194.83008 0.11509
19195.22070 0.115072
19195.59961 0.11506
19195.99023 0.115048
19196.36914 0.115035
19196.75977 0.115023
19197.14062 0.115011
19197.52930 0.114999
19197.91016 0.114986
19198.28906 0.114974
19198.67969 0.114962
19199.06055 0.114949
19199.44922 0.114937
19199.83008 0.114925
19200.22070 0.114909
19200.59961 0.114891
19200.99023 0.114872
19201.36914 0.114854
19201.75977 0.114835
19202.14062 0.114817
19202.52930 0.114798
19202.91016 0.11478
19203.30078 0.114762
19203.67969 0.114743
19204.07031 0.114725
19204.44922 0.114706
19204.83984 0.114688
19205.22070 0.11467
19205.60938 0.114652
19205.99023 0.114634
19206.38086 0.114617
19206.75977 0.114599
19207.15039 0.114581
19207.52930 0.114563
19207.91992 0.114546
19208.30078 0.114528
19208.68945 0.11451
19209.07031 0.114493
19209.46094 0.114475
19209.83984 0.114457
19210.23047 0.114441
19210.60938 0.114427
19211.00000 0.114412
19211.38086 0.114397
19211.76953 0.114383
19212.15039 0.114368
19212.53906 0.114353
19212.91992 0.114339
19213.31055 0.114324
19213.68945 0.114309
19214.08008 0.114295
19214.46094 0.11428
19214.84961 0.114266
19215.23047 0.114252
19215.61914 0.114239
19216.00000 0.114227
19216.39062 0.114214
19216.76953 0.114201
19217.16016 0.114189
19217.53906 0.114176
19217.92969 0.114164
19218.31055 0.114151
19218.69922 0.114138
19219.08008 0.114126
19219.47070 0.114113
19219.84961 0.1141
19220.24023 0.114087
19220.61914 0.114073
19221.00977 0.11406
19221.39062 0.114046
19221.77930 0.114032
19222.16016 0.114019
19222.55078 0.114005
19222.93945 0.113991
19223.32031 0.113978
19223.71094 0.113964
19224.08984 0.11395
19224.48047 0.113937
19224.85938 0.113923
19225.25000 0.113908
19225.63086 0.113893
19226.01953 0.113877
19226.40039 0.113862
19226.78906 0.113846
19227.16992 0.11383
19227.56055 0.113815
19227.93945 0.113799
19228.33008 0.113784
19228.71094 0.113768
19229.09961 0.113752
19229.48047 0.113737
19229.86914 0.113721
19230.25977 0.113708
19230.64062 0.113695
19231.02930 0.113682
19231.41016 0.113669
19231.80078 0.113657
19232.17969 0.113644
19232.57031 0.113631
19232.94922 0.113618
19233.33984 0.113606
19233.72070 0.113593
19234.10938 0.11358
19234.50000 0.113567
19234.88086 0.113555
19235.26953 0.113543
19235.65039 0.113533
19236.03906 0.113523
19236.41992 0.113512
19236.81055 0.113502
19237.19922 0.113491
19237.58008 0.113481
19237.96094 0.113471
19238.34961 0.11346
19238.74023 0.11345
19239.11914 0.113439
19239.50977 0.113429
19239.89062 0.113419
19240.27930 0.113411
19240.66016 0.113406
19241.05078 0.1134
19241.43945 0.113394
19241.82031 0.113388
19242.21094 0.113382
19242.58984 0.113376
19242.98047 0.11337
19243.35938 0.113365
19243.75000 0.113359
19244.13086 0.113353
19244.51953 0.113347
19244.91016 0.113341
19245.28906 0.113331
19245.67969 0.113319
19246.06055 0.113307
19246.44922 0.113295
19246.83984 0.113283
19247.22070 0.113271
19247.60938 0.113259
19247.99023 0.113247
19248.38086 0.113235
19248.75977 0.113223
19249.15039 0.113211
19249.53906 0.113199
19249.91992 0.113187
19250.31055 0.113178
19250.68945 0.113169
19251.08008 0.113161
19251.46094 0.113153
19251.84961 0.113144
19252.24023 0.113136
19252.61914 0.113128
19253.00977 0.113119
19253.39062 0.113111
19253.77930 0.113103
19254.16992 0.113094
19254.55078 0.113086
19254.93945 0.113078
19255.32031 0.113072
19255.71094 0.113066
19256.09961 0.11306
19256.48047 0.113054
19256.86914 0.113049
19257.25000 0.113043
19257.64062 0.113037
19258.02930 0.113031
19258.41016 0.113026
19258.80078 0.11302
19259.17969 0.113014
19259.57031 0.113008
19259.96094 0.113003
19260.33984 0.112993
19260.73047 0.112984
19261.10938 0.112974
19261.50000 0.112964
19261.88086 0.112954
19262.26953 0.112945
19262.66016 0.112935
19263.03906 0.112925
19263.42969 0.112915
19263.81055 0.112905
19264.19922 0.112895
19264.58984 0.112886
19264.97070 0.112876
19265.35938 0.11288
19265.75000 0.112884
19266.13086 0.112889
19266.51953 0.112893
19266.90039 0.112898
19267.28906 0.112903
19267.67969 0.112907
19268.06055 0.112912
19268.44922 0.112917
19268.83008 0.112921
19269.22070 0.112926
19269.60938 0.112931
19269.99023 0.112935
19270.38086 0.112925
19270.76953 0.112915
19271.15039 0.112905
19271.53906 0.112895
19271.91992 0.112885
19272.31055 0.112874
19272.69922 0.112864
19273.08008 0.112854
19273.47070 0.112844
19273.85938 0.112834
19274.24023 0.112823
19274.63086 0.112813
19275.00977 0.112803
19275.40039 0.112806
19275.78906 0.112808
19276.16992 0.11281
19276.56055 0.112812
19276.94922 0.112815
19277.33008 0.112817
19277.72070 0.112819
19278.10938 0.112821
19278.49023 0.112823
19278.88086 0.112826
19279.25977 0.112828
19279.65039 0.11283
19280.03906 0.112832
19280.41992 0.112824
19280.81055 0.112817
19281.19922 0.112809
19281.58008 0.112802
19281.97070 0.112795
19282.35938 0.112787
19282.74023 0.11278
19283.13086 0.112772
19283.50977 0.112765
19283.90039 0.112758
19284.28906 0.11275
19284.66992 0.112743
19285.06055 0.112736
19285.44922 0.11273
19285.83008 0.112724
19286.22070 0.112718
19286.60938 0.112712
19286.99023 0.112706
19287.38086 0.1127
19287.76953 0.112694
19288.15039 0.112688
19288.53906 0.112682
19288.92969 0.112676
19289.31055 0.11267
19289.69922 0.112664
19290.08984 0.11266
19290.47070 0.112667
19290.85938 0.112674
19291.25000 0.112681
19291.63086 0.112688
19292.01953 0.112695
19292.41016 0.112702
19292.78906 0.112709
19293.17969 0.112716
19293.56055 0.112723
19293.94922 0.112729
19294.33984 0.112736
19294.72070 0.112743
19295.10938 0.112747
19295.50000 0.112744
19295.88086 0.112741
19296.26953 0.112738
19296.66016 0.112735
19297.03906 0.112731
19297.42969 0.112728
19297.82031 0.112725
19298.21094 0.112722
19298.58984 0.112719
19298.98047 0.112716
19299.36914 0.112712
19299.75000 0.112709
19300.14062 0.112709
19300.52930 0.112714
19300.91016 0.112718
19301.30078 0.112723
19301.68945 0.112728
19302.07031 0.112733
19302.46094 0.112738
19302.84961 0.112742
19303.23047 0.112747
19303.61914 0.112752
19304.00977 0.112757
19304.39062 0.112761
19304.77930 0.112766
19305.16992 0.112766
19305.56055 0.11276
19305.93945 0.112755
19306.33008 0.112749
19306.72070 0.112743
19307.09961 0.112738
19307.49023 0.112732
19307.88086 0.112726
19308.25977 0.112721
19308.65039 0.112715
19309.03906 0.112709
19309.42969 0.112703
19309.81055 0.112698
19310.19922 0.112698
19310.58984 0.112705
19310.97070 0.112711
19311.35938 0.112718
19311.75000 0.112725
19312.13086 0.112731
19312.51953 0.112738
19312.91016 0.112744
19313.28906 0.112751
19313.67969 0.112758
19314.07031 0.112764
19314.46094 0.112771
19314.83984 0.112778
19315.23047 0.112782
19315.61914 0.112784
19316.00977 0.112786
19316.39062 0.112788
19316.77930 0.11279
19317.16992 0.112793
19317.55078 0.112795
19317.93945 0.112797
19318.33008 0.112799
19318.71094 0.112801
19319.09961 0.112804
19319.49023 0.112806
19319.88086 0.112808
19320.25977 0.11281
19320.65039 0.112812
19321.03906 0.112814
19321.42969 0.112816
19321.81055 0.112818
19322.19922 0.11282
19322.58984 0.112822
19322.97070 0.112824
19323.35938 0.112826
19323.75000 0.112828
19324.14062 0.11283
19324.51953 0.112832
19324.91016 0.112834
19325.30078 0.112836
19325.68945 0.112836
19326.07031 0.112837
19326.46094 0.112838
19326.84961 0.112839
19327.23047 0.11284
19327.61914 0.112841
19328.00977 0.112842
19328.40039 0.112843
19328.78906 0.112845
19329.16992 0.112846
19329.56055 0.112846
19329.94922 0.112848
19330.33008 0.112851
19330.72070 0.112856
19331.10938 0.11286
19331.50000 0.112864
19331.88086 0.112868
19332.26953 0.112873
19332.66016 0.112877
19333.03906 0.112881
19333.42969 0.112886
19333.82031 0.11289
19334.21094 0.112894
19334.59961 0.112898
19334.98047 0.112903
19335.36914 0.112904
19335.75977 0.112905
19336.15039 0.112906
19336.52930 0.112907
19336.91992 0.112908
19337.31055 0.112909
19337.69922 0.11291
19338.08008 0.112911
19338.47070 0.112911
19338.85938 0.112912
19339.25000 0.112913
19339.63086 0.112914
19340.01953 0.112916
19340.41016 0.112926
19340.80078 0.112936
19341.17969 0.112946
19341.57031 0.112956
19341.96094 0.112966
19342.34961 0.112977
19342.73047 0.112987
19343.11914 0.112997
19343.50977 0.113007
19343.90039 0.113017
19344.28906 0.113027
19344.66992 0.113038
19345.06055 0.113046
19345.44922 0.113048
19345.83984 0.113049
19346.22070 0.11305
19346.60938 0.113052
19347.00000 0.113053
19347.39062 0.113055
19347.77930 0.113056
19348.16016 0.113057
19348.55078 0.113059
19348.93945 0.11306
19349.33008 0.113061
19349.71094 0.113063
19350.09961 0.113065
19350.49023 0.113069
19350.88086 0.113074
19351.26953 0.113078
19351.65039 0.113082
19352.03906 0.113087
19352.42969 0.113091
19352.82031 0.113095
19353.21094 0.1131
19353.58984 0.113104
19353.98047 0.113109
19354.36914 0.113113
19354.75977 0.113117
19355.14062 0.113124
19355.52930 0.113137
19355.91992 0.113149
19356.31055 0.113162
19356.69922 0.113174
19357.08008 0.113187
19357.47070 0.113199
19357.85938 0.113212
19358.25000 0.113224
19358.63086 0.113237
19359.01953 0.113249
19359.41016 0.113262
19359.80078 0.113274
19360.18945 0.11328
19360.57031 0.113279
19360.96094 0.113279
19361.34961 0.113278
19361.74023 0.113277
19362.13086 0.113277
19362.51953 0.113276
19362.90039 0.113275
19363.28906 0.113274
19363.67969 0.113274
19364.07031 0.113273
19364.46094 0.113272
19364.83984 0.113271
19365.23047 0.113279
19365.61914 0.113292
19366.00977 0.113304
19366.40039 0.113317
19366.77930 0.11333
19367.16992 0.113343
19367.56055 0.113355
19367.94922 0.113368
19368.33984 0.113381
19368.72070 0.113394
19369.10938 0.113406
19369.50000 0.113419
19369.89062 0.113432
19370.27930 0.113437
19370.66992 0.113438
19371.05078 0.113439
19371.43945 0.113441
19371.83008 0.113442
19372.22070 0.113444
19372.60938 0.113445
19373.00000 0.113446
19373.38086 0.113448
19373.76953 0.113449
19374.16016 0.11345
19374.55078 0.113452
19374.93945 0.113453
19375.32031 0.113462
19375.71094 0.113473
19376.09961 0.113484
19376.49023 0.113495
19376.88086 0.113506
19377.26953 0.113516
19377.65039 0.113527
19378.03906 0.113538
19378.42969 0.113549
19378.82031 0.113559
19379.21094 0.11357
19379.59961 0.113581
19379.98047 0.113592
19380.36914 0.113594
19380.75977 0.113596
19381.15039 0.113599
19381.53906 0.113601
19381.92969 0.113603
19382.32031 0.113605
19382.71094 0.113608
19383.08984 0.11361
19383.48047 0.113612
19383.86914 0.113614
19384.25977 0.113616
19384.65039 0.113618
19385.03906 0.113622
19385.41992 0.113636
19385.81055 0.113649
19386.19922 0.113663
19386.58984 0.113677
19386.98047 0.113691
19387.36914 0.113704
19387.75000 0.113718
19388.14062 0.113732
19388.52930 0.113746
19388.91992 0.113759
19389.31055 0.113773
19389.69922 0.113787
19390.08984 0.113798
19390.47070 0.113799
19390.85938 0.1138
19391.25000 0.113801
19391.64062 0.113802
19392.02930 0.113803
19392.41992 0.113805
19392.81055 0.113806
19393.19922 0.113807
19393.58008 0.113808
19393.97070 0.113809
19394.35938 0.11381
19394.75000 0.113811
19395.14062 0.113816
19395.52930 0.113829
19395.91992 0.113842
19396.30078 0.113855
19396.68945 0.113868
19397.08008 0.11388
19397.47070 0.113893
19397.85938 0.113906
19398.25000 0.113919
19398.64062 0.113932
19399.02930 0.113945
19399.41016 0.113958
19399.80078 0.11397
19400.18945 0.11398
19400.58008 0.113986
19400.97070 0.113991
19401.35938 0.113997
19401.75000 0.114003
19402.14062 0.114009
19402.52930 0.114015
19402.91016 0.11402
19403.30078 0.114026
19403.68945 0.114032
19404.08008 0.114038
19404.47070 0.114044
19404.85938 0.114049
19405.25000 0.114055
19405.64062 0.114061
19406.02930 0.114067
19406.41016 0.114073
19406.80078 0.114079
19407.18945 0.114085
19407.58008 0.114091
19407.97070 0.114097
19408.35938 0.114103
19408.75000 0.114109
19409.14062 0.114115
19409.52930 0.114121
19409.91992 0.114127
19410.30078 0.11414
19410.68945 0.114155
19411.08008 0.11417
19411.47070 0.114185
19411.85938 0.1142
19412.25000 0.114214
19412.64062 0.114229
19413.02930 0.114244
19413.41992 0.114259
19413.80078 0.114274
19414.19922 0.114289
19414.58008 0.114304
19414.97070 0.114318
19415.35938 0.114325
19415.75000 0.114332
19416.14062 0.114339
19416.52930 0.114345
19416.91992 0.114352
19417.31055 0.114358
19417.69922 0.114365
19418.08984 0.114371
19418.47070 0.114378
19418.85938 0.114384
19419.25000 0.114391
19419.64062 0.114397
19420.02930 0.114404
19420.41992 0.114414
19420.81055 0.114423
19421.19922 0.114432
19421.58984 0.114442
19421.98047 0.114451
19422.36914 0.114461
19422.75977 0.11447
19423.15039 0.11448
19423.53906 0.114489
19423.91992 0.114499
19424.31055 0.114508
19424.69922 0.114518
19425.08984 0.114527
19425.48047 0.114537
19425.86914 0.114547
19426.25977 0.114557
19426.65039 0.114567
19427.03906 0.114577
19427.42969 0.114587
19427.82031 0.114597
19428.21094 0.114607
19428.59961 0.114617
19428.99023 0.114627
19429.36914 0.114637
19429.75977 0.114646
19430.15039 0.114655
19430.53906 0.114662
19430.92969 0.114669
19431.32031 0.114676
19431.71094 0.114683
19432.09961 0.11469
19432.49023 0.114697
19432.88086 0.114704
19433.26953 0.114711
19433.66016 0.114718
19434.05078 0.114725
19434.43945 0.114733
19434.83008 0.114739
19435.22070 0.114744
19435.60938 0.114746
19436.00000 0.114749
19436.38086 0.114751
19436.77930 0.114754
19437.16016 0.114756
19437.55078 0.114759
19437.93945 0.114761
19438.33008 0.114764
19438.72070 0.114766
19439.10938 0.114768
19439.50000 0.114771
19439.89062 0.114773
19440.27930 0.11478
19440.66992 0.114787
19441.06055 0.114795
19441.44922 0.114803
19441.83984 0.114811
19442.23047 0.114818
19442.61914 0.114826
19443.00977 0.114834
19443.40039 0.114841
19443.78906 0.114849
19444.17969 0.114857
19444.57031 0.114865
19444.96094 0.114872
19445.34961 0.11488
19445.74023 0.114888
19446.13086 0.114896
19446.51953 0.114904
19446.90039 0.114912
19447.28906 0.11492
19447.68945 0.114927
19448.07031 0.114935
19448.46094 0.114943
19448.84961 0.114951
19449.24023 0.114959
19449.63086 0.114967
19450.01953 0.114975
19450.41016 0.114984
19450.80078 0.114993
19451.18945 0.115002
19451.58008 0.115011
19451.97070 0.11502
19452.35938 0.11503
19452.75000 0.115039
19453.14062 0.115048
19453.52930 0.115057
19453.91992 0.115066
19454.31055 0.115075
19454.69922 0.115085
19455.08984 0.115092
19455.48047 0.115095
19455.86914 0.115097
19456.25977 0.115099
19456.65039 0.115101
19457.03906 0.115104
19457.42969 0.115106
19457.82031 0.115108
19458.21094 0.115111
19458.59961 0.115113
19458.99023 0.115115
19459.38086 0.115117
19459.76953 0.11512
19460.16016 0.115124
19460.55078 0.115132
19460.93945 0.115139
19461.33008 0.115147
19461.72070 0.115154
19462.10938 0.115162
19462.50000 0.115169
19462.89062 0.115177
19463.27930 0.115184
19463.66992 0.115192
19464.06055 0.115199
19464.44922 0.115207
19464.83984 0.115214
19465.23047 0.115221
19465.61914 0.115228
19466.00977 0.115235
19466.40039 0.115241
19466.78906 0.115248
19467.17969 0.115255
19467.57031 0.115261
19467.96094 0.115268
19468.34961 0.115275
19468.74023 0.115281
19469.13086 0.115288
19469.51953 0.115295
19469.91016 0.115302
19470.30078 0.115312
19470.68945 0.115323
19471.08008 0.115334
19471.47070 0.115345
19471.86914 0.115356
19472.25000 0.115367
19472.64062 0.115378
19473.03906 0.115389
19473.42969 0.1154
19473.82031 0.115411
19474.21094 0.115422
19474.59961 0.115433
19474.99023 0.115444
19475.38086 0.115443
19475.76953 0.115441
19476.16016 0.115439
19476.55078 0.115437
19476.93945 0.115435
19477.33008 0.115434
19477.72070 0.115432
19478.10938 0.11543
19478.50000 0.115428
19478.89062 0.115426
19479.27930 0.115425
19479.66992 0.115423
19480.06055 0.115422
19480.44922 0.115426
19480.83984 0.115429
19481.23047 0.115433
19481.61914 0.115437
19482.00977 0.115441
19482.40039 0.115445
19482.78906 0.115448
19483.18945 0.115452
19483.58008 0.115456
19483.97070 0.11546
19484.35938 0.115463
19484.75000 0.115467
19485.14062 0.115472
19485.52930 0.11548
19485.91992 0.115488
19486.31055 0.115495
19486.69922 0.115503
19487.08984 0.115511
19487.48047 0.115518
19487.86914 0.115526
19488.25977 0.115533
19488.65039 0.115541
19489.03906 0.115549
19489.42969 0.115556
19489.82031 0.115564
19490.21094 0.115571
19490.60938 0.115578
19491.00000 0.115585
19491.39062 0.115592
19491.77930 0.115599
19492.16992 0.115606
19492.56055 0.115613
19492.94922 0.11562
19493.33984 0.115627
19493.73047 0.115634
19494.11914 0.115641
19494.50977 0.115648
19494.90039 0.115655
19495.28906 0.115656
19495.67969 0.115656
19496.07031 0.115656
19496.46094 0.115656
19496.85938 0.115656
19497.25000 0.115656
19497.64062 0.115656
19498.02930 0.115656
19498.41992 0.115656
19498.81055 0.115655
19499.19922 0.115655
19499.58984 0.115655
19499.98047 0.115655
19500.36914 0.11566
19500.75977 0.115665
19501.15039 0.115669
19501.53906 0.115674
19501.93945 0.115679
19502.33008 0.115684
19502.72070 0.115689
19503.10938 0.115694
19503.50000 0.115699
19503.89062 0.115704
19504.27930 0.115708
19504.66992 0.115713
19505.06055 0.115718
19505.46094 0.11572
19505.84961 0.115722
19506.24023 0.115724
19506.63086 0.115726
19507.01953 0.115728
19507.41016 0.11573
19507.80078 0.115732
19508.18945 0.115734
19508.58008 0.115736
19508.97070 0.115738
19509.35938 0.11574
19509.75000 0.115742
19510.15039 0.115745
19510.53906 0.115751
19510.92969 0.115757
19511.32031 0.115763
19511.71094 0.115768
19512.09961 0.115774
19512.49023 0.11578
19512.88086 0.115785
19513.26953 0.115791
19513.66992 0.115797
19514.06055 0.115803
19514.44922 0.115808
19514.83984 0.115814
19515.23047 0.115818
19515.61914 0.11582
19516.00977 0.115822
19516.40039 0.115824
19516.78906 0.115827
19517.18945 0.115829
19517.58008 0.115831
19517.97070 0.115833
19518.35938 0.115835
19518.75000 0.115838
19519.14062 0.11584
19519.52930 0.115842
19519.91992 0.115844
19520.31055 0.115849
19520.71094 0.115855
19521.09961 0.11586
19521.49023 0.115866
19521.88086 0.115871
19522.26953 0.115877
19522.66016 0.115882
19523.05078 0.115888
19523.44922 0.115893
19523.83984 0.115899
19524.23047 0.115905
19524.61914 0.11591
19525.00977 0.115915
19525.40039 0.11591
19525.78906 0.115905
19526.17969 0.1159
19526.57031 0.115895
19526.97070 0.11589
19527.35938 0.115885
19527.75000 0.11588
19528.14062 0.115875
19528.52930 0.11587
19528.91992 0.115865
19529.31055 0.11586
19529.71094 0.115855
19530.09961 0.115852
19530.49023 0.115855
19530.88086 0.115857
19531.26953 0.11586
19531.66016 0.115863
19532.05078 0.115866
19532.44922 0.115869
19532.83984 0.115871
19533.23047 0.115874
19533.61914 0.115877
19534.00977 0.11588
19534.40039 0.115883
19534.78906 0.115886
19535.18945 0.115887
19535.58008 0.115887
19535.97070 0.115887
19536.35938 0.115887
19536.75000 0.115888
19537.14062 0.115888
19537.53906 0.115888
19537.92969 0.115888
19538.32031 0.115888
19538.71094 0.115888
19539.09961 0.115888
19539.49023 0.115889
19539.88086 0.115889
19540.27930 0.115893
19540.66992 0.1159
19541.06055 0.115906
19541.44922 0.115913
19541.83984 0.115919
19542.23047 0.115926
19542.63086 0.115932
19543.01953 0.115938
19543.41016 0.115945
19543.80078 0.115951
19544.18945 0.115958
19544.58008 0.115964
19544.98047 0.115971
19545.36914 0.115967
19545.75977 0.115962
19546.15039 0.115957
19546.53906 0.115952
19546.93945 0.115947
19547.33008 0.115942
19547.72070 0.115937
19548.10938 0.115932
19548.50000 0.115927
19548.89062 0.115922
19549.28906 0.115917
19549.67969 0.115912
19550.07031 0.115908
19550.46094 0.115906
19550.84961 0.115905
19551.24023 0.115903
19551.64062 0.115902
19552.02930 0.1159
19552.41992 0.115898
19552.81055 0.115897
19553.21094 0.115895
19553.59961 0.115894
19553.99023 0.115892
19554.38086 0.11589
19554.76953 0.115889
19555.16016 0.115891
19555.55078 0.1159
19555.94922 0.115908
19556.33984 0.115916
19556.73047 0.115924
19557.11914 0.115932
19557.51953 0.11594
19557.91016 0.115949
19558.30078 0.115957
19558.68945 0.115965
19559.08008 0.115973
19559.47070 0.115981
19559.86914 0.11599
19560.25977 0.115989
19560.65039 0.115983
19561.03906 0.115978
19561.43945 0.115972
19561.83008 0.115967
19562.22070 0.115961
19562.60938 0.115956
19563.00000 0.11595
19563.39062 0.115945
19563.78906 0.11594
19564.17969 0.115934
19564.57031 0.115929
19564.96094 0.115923
19565.35938 0.115922
19565.75000 0.115921
19566.14062 0.11592
19566.52930 0.115919
19566.91992 0.115918
19567.32031 0.115917
19567.71094 0.115916
19568.09961 0.115915
19568.49023 0.115915
19568.88086 0.115914
19569.27930 0.115913
19569.66992 0.115912
19570.06055 0.115911
19570.46094 0.11591
19570.84961 0.11591
19571.24023 0.115909
19571.63086 0.115909
19572.01953 0.115908
19572.41992 0.115908
19572.81055 0.115907
19573.19922 0.115907
19573.58984 0.115906
19573.98047 0.115905
19574.38086 0.115905
19574.76953 0.115904
19575.16016 0.115903
19575.55078 0.1159
19575.94922 0.115897
19576.33984 0.115894
19576.73047 0.11589
19577.11914 0.115887
19577.51953 0.115884
19577.91016 0.115881
19578.30078 0.115878
19578.68945 0.115875
19579.08008 0.115872
19579.48047 0.115869
19579.86914 0.115866
19580.25977 0.115866
19580.65039 0.115869
19581.05078 0.115871
19581.43945 0.115874
19581.83008 0.115876
19582.22070 0.115879
19582.61914 0.115881
19583.00977 0.115884
19583.40039 0.115886
19583.78906 0.115889
19584.18945 0.115891
19584.58008 0.115893
19584.97070 0.115896
19585.35938 0.115889
19585.75977 0.115882
19586.15039 0.115874
19586.53906 0.115866
19586.92969 0.115859
19587.33008 0.115851
19587.72070 0.115844
19588.10938 0.115836
19588.50000 0.115829
19588.90039 0.115821
19589.28906 0.115814
19589.67969 0.115806
19590.07031 0.1158
19590.47070 0.115799
19590.85938 0.115799
19591.25000 0.115798
19591.64062 0.115797
19592.03906 0.115797
19592.42969 0.115796
19592.82031 0.115795
19593.22070 0.115794
19593.60938 0.115794
19594.00000 0.115793
19594.39062 0.115792
19594.78906 0.115792
19595.17969 0.115787
19595.57031 0.115777
19595.96094 0.115766
19596.35938 0.115756
19596.75000 0.115746
19597.14062 0.115736
19597.53906 0.115726
19597.92969 0.115716
19598.32031 0.115706
19598.71094 0.115696
19599.10938 0.115686
19599.50000 0.115676
19599.89062 0.115666
19600.28906 0.115665
19600.67969 0.115667
19601.07031 0.115669
19601.46094 0.115671
19601.85938 0.115673
19602.25000 0.115675
19602.64062 0.115677
19603.03906 0.115679
19603.42969 0.115682
19603.82031 0.115684
19604.21094 0.115686
19604.60938 0.115688
19605.00000 0.11569
19605.39062 0.115682
19605.78906 0.115675
19606.17969 0.115667
19606.57031 0.115659
19606.96094 0.115652
19607.35938 0.115644
19607.75000 0.115636
19608.14062 0.115628
19608.53906 0.115621
19608.92969 0.115613
19609.32031 0.115605
19609.71094 0.115598
19610.10938 0.115592
19610.50000 0.11559
19610.89062 0.115588
19611.28906 0.115587
19611.67969 0.115585
19612.07031 0.115583
19612.47070 0.115582
19612.85938 0.11558
19613.25000 0.115579
19613.65039 0.115577
19614.03906 0.115575
19614.42969 0.115574
19614.82031 0.115572
19615.22070 0.11557
19615.60938 0.115568
19616.00000 0.115565
19616.40039 0.115563
19616.78906 0.115561
19617.17969 0.115558
19617.58008 0.115556
19617.97070 0.115554
19618.35938 0.115551
19618.75977 0.115549
19619.15039 0.115547
19619.53906 0.115544
19619.93945 0.115542
19620.33008 0.115539
19620.72070 0.115537
19621.11914 0.115534
19621.50977 0.115531
19621.90039 0.115529
19622.28906 0.115526
19622.68945 0.115523
19623.08008 0.115521
19623.47070 0.115518
19623.86914 0.115515
19624.25977 0.115513
19624.65039 0.11551
19625.05078 0.115507
19625.43945 0.115501
19625.83008 0.115494
19626.23047 0.115488
19626.61914 0.115482
19627.01953 0.115475
19627.41016 0.115469
19627.80078 0.115463
19628.19922 0.115456
19628.58984 0.11545
19628.98047 0.115444
19629.36914 0.115437
19629.76953 0.115431
19630.16016 0.115425
19630.55078 0.115419
19630.94922 0.115413
19631.33984 0.115407
19631.74023 0.115401
19632.13086 0.115394
19632.51953 0.115388
19632.91992 0.115382
19633.31055 0.115376
19633.69922 0.11537
19634.09961 0.115364
19634.49023 0.115358
19634.88086 0.115352
19635.27930 0.115344
19635.66992 0.115335
19636.06055 0.115326
19636.46094 0.115317
19636.84961 0.115307
19637.24023 0.115298
19637.64062 0.11529
19638.02930 0.11528
19638.42969 0.115271
19638.82031 0.115262
19639.21094 0.115253
19639.60938 0.115244
19640.00000 0.115235
19640.39062 0.115237
19640.78906 0.115239
19641.17969 0.11524
19641.57031 0.115242
19641.97070 0.115244
19642.35938 0.115246
19642.75977 0.115247
19643.15039 0.115249
19643.53906 0.115251
19643.93945 0.115252
19644.33008 0.115254
19644.72070 0.115256
19645.11914 0.115257
19645.50977 0.115255
19645.90039 0.115254
19646.30078 0.115252
19646.68945 0.115251
19647.08984 0.11525
19647.48047 0.115248
19647.86914 0.115247
19648.26953 0.115245
19648.66016 0.115244
19649.05078 0.115242
19649.44922 0.115241
19649.83984 0.115239
19650.24023 0.115231
19650.63086 0.115219
19651.01953 0.115207
19651.41992 0.115194
19651.81055 0.115182
19652.21094 0.11517
19652.59961 0.115157
19652.99023 0.115145
19653.39062 0.115133
19653.77930 0.11512
19654.17969 0.115108
19654.57031 0.115096
19654.96094 0.115083
19655.35938 0.115081
19655.75000 0.115079
19656.14062 0.115078
19656.53906 0.115076
19656.92969 0.115075
19657.33008 0.115073
19657.72070 0.115072
19658.10938 0.115071
19658.50977 0.115069
19658.90039 0.115068
19659.30078 0.115066
19659.68945 0.115065
19660.08008 0.115062
19660.48047 0.115056
19660.86914 0.115051
19661.26953 0.115045
19661.66016 0.115039
19662.05078 0.115033
19662.44922 0.115027
19662.83984 0.115021
19663.24023 0.115016
19663.63086 0.11501
19664.02930 0.115004
19664.41992 0.114998
19664.81055 0.114992
19665.21094 0.114982
19665.59961 0.114969
19666.00000 0.114955
19666.39062 0.114942
19666.77930 0.114928
19667.17969 0.114915
19667.57031 0.114902
19667.97070 0.114888
19668.35938 0.114875
19668.75000 0.114861
19669.15039 0.114848
19669.53906 0.114834
19669.93945 0.114821
19670.33008 0.114819
19670.72070 0.11482
19671.11914 0.114821
19671.50977 0.114822
19671.91016 0.114823
19672.30078 0.114824
19672.69922 0.114825
19673.08984 0.114826
19673.48047 0.114827
19673.88086 0.114828
19674.26953 0.114829
19674.66992 0.11483
19675.06055 0.11483
19675.46094 0.114825
19675.84961 0.11482
19676.25000 0.114815
19676.64062 0.11481
19677.02930 0.114805
19677.42969 0.1148
19677.82031 0.114795
19678.22070 0.11479
19678.60938 0.114785
19679.00977 0.11478
19679.40039 0.114775
19679.78906 0.11477
19680.18945 0.11476
19680.58008 0.114744
19680.98047 0.114729
19681.36914 0.114714
19681.76953 0.114699
19682.16016 0.114684
19682.56055 0.114668
19682.94922 0.114653
19683.33984 0.114638
19683.74023 0.114623
19684.13086 0.114608
19684.52930 0.114592
19684.91992 0.114577
19685.32031 0.114575
19685.71094 0.114576
19686.10938 0.114577
19686.50000 0.114578
19686.89062 0.114579
19687.28906 0.11458
19687.67969 0.114581
19688.08008 0.114582
19688.47070 0.114583
19688.86914 0.114584
19689.25977 0.114585
19689.66016 0.114586
19690.05078 0.114585
19690.44922 0.114576
19690.83984 0.114568
19691.24023 0.114559
19691.63086 0.11455
19692.02930 0.114541
19692.41992 0.114532
19692.81055 0.114523
19693.21094 0.114514
19693.59961 0.114505
19694.00000 0.114497
19694.39062 0.114488
19694.78906 0.114479
19695.17969 0.114473
19695.58008 0.11447
19695.97070 0.114467
19696.36914 0.114464
19696.75977 0.114462
19697.16016 0.114459
19697.55078 0.114456
19697.94922 0.114453
19698.33984 0.11445
19698.74023 0.114448
19699.13086 0.114445
19699.52930 0.114442
19699.91992 0.114439
19700.31055 0.114435
19700.71094 0.11443
19701.09961 0.114426
19701.50000 0.114421
19701.89062 0.114416
19702.28906 0.114412
19702.67969 0.114407
19703.08008 0.114402
19703.47070 0.114398
19703.86914 0.114393
19704.25977 0.114388
19704.66016 0.114384
19705.05078 0.114378
19705.44922 0.114371
19705.83984 0.114363
19706.24023 0.114355
19706.63086 0.114348
19707.02930 0.11434
19707.41992 0.114332
19707.82031 0.114325
19708.21094 0.114317
19708.60938 0.114309
19709.00000 0.114302
19709.40039 0.114294
19709.78906 0.114286
19710.18945 0.114278
19710.58008 0.114268
19710.98047 0.114259
19711.36914 0.11425
19711.76953 0.114241
19712.16016 0.114231
19712.56055 0.114222
19712.94922 0.114213
19713.34961 0.114203
19713.74023 0.114194
19714.14062 0.114185
19714.52930 0.114175
19714.92969 0.114166
19715.32031 0.114156
19715.72070 0.114146
19716.10938 0.114137
19716.50977 0.114127
19716.90039 0.114117
19717.30078 0.114107
19717.69922 0.114097
19718.08984 0.114087
19718.48047 0.114077
19718.88086 0.114067
19719.27930 0.114058
19719.66992 0.114048
19720.07031 0.114038
19720.46094 0.114031
19720.85938 0.114025
19721.25000 0.114018
19721.65039 0.114011
19722.03906 0.114004
19722.43945 0.113997
19722.83008 0.11399
19723.23047 0.113983
19723.61914 0.113977
19724.01953 0.11397
19724.41016 0.113963
19724.81055 0.113956
19725.19922 0.113951
19725.59961 0.113949
19725.99023 0.113947
19726.39062 0.113945
19726.78906 0.113943
19727.17969 0.11394
19727.58008 0.113938
19727.97070 0.113936
19728.36914 0.113934
19728.75977 0.113932
19729.16016 0.113929
19729.55078 0.113927
19729.94922 0.113925
19730.33984 0.11392
19730.74023 0.113914
19731.13086 0.113909
19731.52930 0.113903
19731.92969 0.113898
19732.32031 0.113892
19732.72070 0.113887
19733.10938 0.113881
19733.50977 0.113876
19733.90039 0.11387
19734.30078 0.113865
19734.68945 0.11386
19735.08984 0.113854
19735.48047 0.11385
19735.88086 0.113845
19736.27930 0.113841
19736.66992 0.113836
19737.07031 0.113832
19737.46094 0.113827
19737.85938 0.113822
19738.25000 0.113818
19738.65039 0.113813
19739.03906 0.113809
19739.43945 0.113804
19739.83984 0.113799
19740.23047 0.113793
19740.63086 0.113784
19741.01953 0.113775
19741.41992 0.113766
19741.81055 0.113758
19742.21094 0.113749
19742.60938 0.11374
19743.00000 0.113731
19743.40039 0.113723
19743.78906 0.113714
19744.18945 0.113705
19744.58008 0.113697
19744.98047 0.113688
19745.36914 0.113687
19745.76953 0.113687
19746.16992 0.113687
19746.56055 0.113687
19746.96094 0.113687
19747.34961 0.113687
19747.75000 0.113687
19748.15039 0.113686
19748.53906 0.113686
19748.93945 0.113686
19749.33008 0.113686
19749.73047 0.113686
19750.13086 0.113683
19750.51953 0.113674
19750.91992 0.113666
19751.31055 0.113657
19751.71094 0.113648
19752.09961 0.11364
19752.50000 0.113631
19752.90039 0.113622
19753.28906 0.113614
19753.68945 0.113605
19754.08008 0.113596
19754.48047 0.113588
19754.86914 0.113579
19755.26953 0.113572
19755.66992 0.113567
19756.06055 0.113561
19756.46094 0.113555
19756.85938 0.113549
19757.25000 0.113544
19757.65039 0.113538
19758.03906 0.113532
19758.43945 0.113526
19758.83008 0.113521
19759.23047 0.113515
19759.63086 0.113509
19760.01953 0.113503
19760.41992 0.113496
19760.81055 0.113489
19761.21094 0.113482
19761.60938 0.113475
19762.00000 0.113468
19762.40039 0.113461
19762.78906 0.113453
19763.18945 0.113446
19763.58984 0.113439
19763.98047 0.113432
19764.38086 0.113425
19764.77930 0.113418
19765.16992 0.113412
19765.57031 0.113408
19765.96094 0.113405
19766.35938 0.113401
19766.75977 0.113397
19767.15039 0.113394
19767.55078 0.11339
19767.94922 0.113387
19768.33984 0.113383
19768.74023 0.113379
19769.13086 0.113376
19769.52930 0.113372
19769.92969 0.113368
19770.32031 0.113363
19770.72070 0.113358
19771.10938 0.113352
19771.50977 0.113347
19771.91016 0.113341
19772.30078 0.113336
19772.69922 0.113331
19773.09961 0.113325
19773.49023 0.11332
19773.89062 0.113314
19774.28906 0.113309
19774.67969 0.113303
19775.08008 0.113298
19775.47070 0.113297
19775.86914 0.113296
19776.26953 0.113294
19776.66016 0.113293
19777.06055 0.113292
19777.46094 0.11329
19777.84961 0.113289
19778.25000 0.113287
19778.64062 0.113286
19779.03906 0.113285
19779.43945 0.113283
19779.83008 0.113282
19780.23047 0.113278
19780.63086 0.113272
19781.01953 0.113266
19781.41992 0.11326
19781.82031 0.113254
19782.21094 0.113248
19782.60938 0.113242
19783.00977 0.113236
19783.40039 0.11323
19783.80078 0.113225
19784.19922 0.113219
19784.58984 0.113213
19784.99023 0.113207
19785.38086 0.11321
19785.77930 0.113214
19786.17969 0.113218
19786.57031 0.113222
19786.97070 0.113226
19787.36914 0.11323
19787.75977 0.113234
19788.16016 0.113238
19788.56055 0.113242
19788.94922 0.113246
19789.34961 0.11325
19789.75000 0.113254
19790.14062 0.113254
19790.53906 0.113246
19790.93945 0.113239
19791.33008 0.113231
19791.73047 0.113223
19792.13086 0.113216
19792.51953 0.113208
19792.91992 0.1132
19793.32031 0.113193
19793.71094 0.113185
19794.10938 0.113177
19794.50977 0.11317
19794.90039 0.113162
19795.30078 0.113159
19795.69922 0.113157
19796.08984 0.113155
19796.49023 0.113153
19796.89062 0.113151
19797.27930 0.113148
19797.67969 0.113146
19798.08008 0.113144
19798.47070 0.113142
19798.86914 0.11314
19799.26953 0.113138
19799.66016 0.113136
19800.06055 0.113134
19800.46094 0.113131
19800.84961 0.113129
19801.25000 0.113126
19801.65039 0.113124
19802.03906 0.113121
19802.43945 0.113118
19802.83984 0.113116
19803.24023 0.113113
19803.63086 0.11311
19804.02930 0.113108
19804.42969 0.113105
19804.82031 0.113102
19805.22070 0.113099
19805.61914 0.113096
19806.00977 0.113093
19806.41016 0.11309
19806.81055 0.113087
19807.21094 0.113083
19807.59961 0.11308
19808.00000 0.113077
19808.40039 0.113073
19808.78906 0.11307
19809.18945 0.113067
19809.58984 0.113064
19809.98047 0.113061
19810.38086 0.11306
19810.77930 0.11306
19811.17969 0.113059
19811.57031 0.113059
19811.97070 0.113059
19812.36914 0.113058
19812.75977 0.113058
19813.16016 0.113058
19813.56055 0.113057
19813.96094 0.113057
19814.34961 0.113057
19814.75000 0.113056
19815.15039 0.113055
19815.53906 0.113053
19815.93945 0.11305
19816.33984 0.113048
19816.73047 0.113046
19817.13086 0.113043
19817.52930 0.113041
19817.92969 0.113039
19818.32031 0.113036
19818.72070 0.113034
19819.11914 0.113031
19819.50977 0.113029
19819.91016 0.113027
19820.31055 0.113026
19820.71094 0.113025
19821.09961 0.113024
19821.50000 0.113023
19821.90039 0.113023
19822.28906 0.113022
19822.68945 0.113021
19823.08984 0.113021
19823.49023 0.11302
19823.88086 0.11302
19824.27930 0.113019
19824.67969 0.113018
19825.08008 0.113018
19825.47070 0.113021
19825.86914 0.113023
19826.26953 0.113026
19826.66992 0.113029
19827.06055 0.113031
19827.46094 0.113034
19827.85938 0.113036
19828.25977 0.113039
19828.65039 0.113041
19829.05078 0.113044
19829.44922 0.113047
19829.83984 0.113049
19830.24023 0.113047
19830.64062 0.113042
19831.03906 0.113037
19831.42969 0.113033
19831.83008 0.113028
19832.23047 0.113023
19832.63086 0.113018
19833.01953 0.113013
19833.41992 0.113008
19833.82031 0.113003
19834.22070 0.112998
19834.60938 0.112993
19835.00977 0.112989
19835.41016 0.112986
19835.81055 0.112982
19836.21094 0.112979
19836.59961 0.112976
19837.00000 0.112973
19837.40039 0.112969
19837.78906 0.112966
19838.18945 0.112963
19838.58984 0.11296
19838.99023 0.112956
19839.38086 0.112953
19839.77930 0.11295
19840.17969 0.112951
19840.58008 0.112958
19840.97070 0.112965
19841.36914 0.112972
19841.76953 0.112979
19842.16992 0.112986
19842.57031 0.112993
19842.96094 0.113
19843.35938 0.113007
19843.75977 0.113014
19844.16016 0.113021
19844.55078 0.113028
19844.94922 0.113035
19845.34961 0.113034
19845.75000 0.113032
19846.14062 0.113031
19846.53906 0.113029
19846.93945 0.113027
19847.33984 0.113025
19847.74023 0.113023
19848.13086 0.113021
19848.52930 0.113019
19848.92969 0.113017
19849.33008 0.113015
19849.72070 0.113013
19850.11914 0.113012
19850.51953 0.113014
19850.91992 0.113015
19851.32031 0.113016
19851.71094 0.113018
19852.10938 0.113019
19852.50977 0.11302
19852.91016 0.113022
19853.31055 0.113023
19853.69922 0.113025
19854.09961 0.113026
19854.50000 0.113028
19854.90039 0.113029
19855.28906 0.11303
19855.68945 0.113032
19856.08984 0.113033
19856.49023 0.113035
19856.89062 0.113036
19857.28906 0.113037
19857.67969 0.113039
19858.08008 0.11304
19858.48047 0.113042
19858.88086 0.113043
19859.27930 0.113045
19859.66992 0.113046
19860.07031 0.113048
19860.47070 0.113056
19860.86914 0.113063
19861.26953 0.11307
19861.66016 0.113077
19862.06055 0.113084
19862.46094 0.113091
19862.85938 0.113098
19863.25977 0.113105
19863.65039 0.113112
19864.05078 0.113119
19864.44922 0.113126
19864.84961 0.113133
19865.25000 0.113134
19865.64062 0.113132
19866.03906 0.11313
19866.43945 0.113128
19866.83984 0.113126
19867.24023 0.113123
19867.63086 0.113121
19868.02930 0.113119
19868.42969 0.113117
19868.83008 0.113115
19869.23047 0.113112
19869.63086 0.11311
19870.01953 0.113108
19870.41992 0.113109
19870.82031 0.113109
19871.22070 0.11311
19871.61914 0.11311
19872.01953 0.113111
19872.41016 0.113112
19872.81055 0.113112
19873.21094 0.113113
19873.60938 0.113113
19874.00977 0.113114
19874.40039 0.113115
19874.80078 0.113115
19875.19922 0.113118
19875.59961 0.113124
19876.00000 0.11313
19876.40039 0.113135
19876.78906 0.113141
19877.18945 0.113147
19877.58984 0.113152
19877.99023 0.113158
19878.39062 0.113164
19878.78906 0.11317
19879.18945 0.113175
19879.58008 0.113181
19879.98047 0.113187
19880.38086 0.113185
19880.77930 0.113184
19881.17969 0.113183
19881.58008 0.113181
19881.97070 0.11318
19882.36914 0.113178
19882.76953 0.113177
19883.16992 0.113176
19883.57031 0.113174
19883.97070 0.113173
19884.36914 0.113171
19884.75977 0.11317
19885.16016 0.113173
19885.56055 0.113181
19885.96094 0.11319
19886.35938 0.113199
19886.75977 0.113208
19887.15039 0.113216
19887.55078 0.113225
19887.94922 0.113234
19888.34961 0.113242
19888.75000 0.113251
19889.15039 0.11326
19889.55078 0.113268
19889.94922 0.113277
19890.33984 0.113282
19890.74023 0.113286
19891.14062 0.11329
19891.53906 0.113294
19891.93945 0.113298
19892.33984 0.113302
19892.74023 0.113306
19893.13086 0.11331
19893.52930 0.113314
19893.92969 0.113318
19894.33008 0.113322
19894.73047 0.113326
19895.13086 0.113329
19895.52930 0.113332
19895.92969 0.113335
19896.32031 0.113337
19896.72070 0.11334
19897.11914 0.113342
19897.51953 0.113345
19897.91992 0.113348
19898.32031 0.11335
19898.72070 0.113353
19899.11914 0.113355
19899.50977 0.113358
19899.91016 0.113361
19900.31055 0.113369
19900.71094 0.113378
19901.10938 0.113388
19901.50977 0.113398
19901.91016 0.113407
19902.31055 0.113417
19902.71094 0.113427
19903.09961 0.113436
19903.50000 0.113446
19903.90039 0.113456
19904.30078 0.113466
19904.69922 0.113475
19905.09961 0.113483
19905.50000 0.113484
19905.90039 0.113485
19906.28906 0.113486
19906.68945 0.113487
19907.08984 0.113488
19907.49023 0.113489
19907.89062 0.11349
19908.28906 0.113492
19908.68945 0.113493
19909.08984 0.113494
19909.49023 0.113495
19909.89062 0.113496
19910.28906 0.113497
19910.67969 0.113498
19911.08008 0.113499
19911.48047 0.1135
19911.88086 0.113501
19912.27930 0.113502
19912.67969 0.113503
19913.08008 0.113504
19913.48047 0.113505
19913.88086 0.113506
19914.27930 0.113507
19914.67969 0.113508
19915.07031 0.113511
19915.47070 0.113521
19915.86914 0.113532
19916.26953 0.113542
19916.66992 0.113553
19917.07031 0.113563
19917.47070 0.113574
19917.86914 0.113585
19918.26953 0.113595
19918.66992 0.113606
19919.07031 0.113616
19919.46094 0.113627
19919.85938 0.113638
19920.25977 0.113642
19920.66016 0.113642
19921.06055 0.113642
19921.46094 0.113643
19921.85938 0.113643
19922.25977 0.113644
19922.66016 0.113644
19923.06055 0.113645
19923.46094 0.113645
19923.85938 0.113646
19924.25977 0.113646
19924.66016 0.113647
19925.05078 0.113648
19925.44922 0.113654
19925.84961 0.11366
19926.25000 0.113666
19926.65039 0.113671
19927.05078 0.113677
19927.44922 0.113683
19927.84961 0.113689
19928.25000 0.113695
19928.65039 0.1137
19929.05078 0.113706
19929.44922 0.113712
19929.84961 0.113718
19930.25000 0.11372
19930.65039 0.113721
19931.03906 0.113721
19931.44922 0.113722
19931.83984 0.113722
19932.24023 0.113723
19932.64062 0.113723
19933.03906 0.113724
19933.43945 0.113724
19933.83984 0.113725
19934.24023 0.113725
19934.64062 0.113726
19935.03906 0.113728
19935.43945 0.113742
19935.83984 0.113757
19936.24023 0.113771
19936.64062 0.113786
19937.03906 0.113801
19937.43945 0.113815
19937.83984 0.11383
19938.24023 0.113844
19938.64062 0.113859
19939.03906 0.113874
19939.43945 0.113888
19939.83984 0.113903
19940.23047 0.113913
19940.63086 0.113921
19941.02930 0.113928
19941.42969 0.113936
19941.83008 0.113943
19942.23047 0.113951
19942.63086 0.113958
19943.02930 0.113966
19943.42969 0.113973
19943.83008 0.113981
19944.23047 0.113988
19944.63086 0.113996
19945.02930 0.114003
19945.42969 0.114012
19945.83008 0.11402
19946.23047 0.114029
19946.63086 0.114037
19947.02930 0.114046
19947.42969 0.114055
19947.83008 0.114063
19948.23047 0.114072
19948.63086 0.11408
19949.02930 0.114089
19949.42969 0.114097
19949.83008 0.114106
19950.23047 0.114114
19950.63086 0.114123
19951.02930 0.114132
19951.42969 0.114141
19951.83008 0.11415
19952.23047 0.114159
19952.63086 0.114168
19953.02930 0.114177
19953.42969 0.114186
19953.83008 0.114195
19954.23047 0.114204
19954.63086 0.114213
19955.02930 0.114221
19955.42969 0.114227
19955.83008 0.114232
19956.23047 0.114237
19956.63086 0.114242
19957.02930 0.114248
19957.42969 0.114253
19957.83008 0.114258
19958.23047 0.114264
19958.63086 0.114269
19959.02930 0.114274
19959.42969 0.11428
19959.83008 0.114285
19960.23047 0.114294
19960.63086 0.114306
19961.02930 0.114318
19961.42969 0.11433
19961.83008 0.114342
19962.23047 0.114355
19962.63086 0.114367
19963.02930 0.114379
19963.42969 0.114391
19963.83008 0.114403
19964.23047 0.114415
19964.63086 0.114427
19965.02930 0.114439
19965.42969 0.114443
19965.83008 0.114447
19966.23047 0.114451
19966.63086 0.114455
19967.02930 0.114459
19967.42969 0.114463
19967.83008 0.114467
19968.23047 0.114471
19968.63086 0.114475
19969.02930 0.11448
19969.42969 0.114484
19969.83008 0.114488
19970.23047 0.114493
19970.63086 0.114499
19971.02930 0.114505
19971.42969 0.114511
19971.83008 0.114517
19972.23047 0.114523
19972.63086 0.114529
19973.02930 0.114535
19973.42969 0.114542
19973.83008 0.114548
19974.23047 0.114554
19974.63086 0.11456
19975.02930 0.114566
19975.42969 0.114577
19975.83008 0.114588
19976.23047 0.114599
19976.63086 0.11461
19977.03906 0.11462
19977.43945 0.114631
19977.83984 0.114642
19978.24023 0.114653
19978.64062 0.114664
19979.03906 0.114674
19979.43945 0.114685
19979.83984 0.114696
19980.24023 0.11471
19980.64062 0.114725
19981.03906 0.11474
19981.43945 0.114756
19981.83984 0.114771
19982.24023 0.114786
19982.64062 0.114802
19983.03906 0.114817
19983.43945 0.114833
19983.83984 0.114848
19984.24023 0.114863
19984.64062 0.114879
19985.03906 0.114893
19985.43945 0.114902
19985.83984 0.11491
19986.24023 0.114918
19986.65039 0.114926
19987.05078 0.114934
19987.44922 0.114942
19987.84961 0.11495
19988.25000 0.114958
19988.65039 0.114966
19989.05078 0.114975
19989.44922 0.114983
19989.84961 0.114991
19990.25000 0.114996
19990.65039 0.114999
19991.05078 0.115002
19991.44922 0.115005
19991.84961 0.115008
19992.25000 0.115011
19992.65039 0.115014
19993.05078 0.115017
19993.46094 0.11502
19993.85938 0.115023
19994.25977 0.115026
19994.66016 0.115029
19995.06055 0.115034
19995.46094 0.115053
19995.85938 0.115071
19996.25977 0.11509
19996.66016 0.115109
19997.06055 0.115127
19997.46094 0.115146
19997.86914 0.115165
19998.26953 0.115183
19998.66992 0.115202
19999.07031 0.115221
19999.47070 0.115239
19999.86914 0.115258
20000.26953 0.115278
20000.66992 0.115297
20001.07031 0.115317
20001.47070 0.115337
20001.86914 0.115357
20002.26953 0.115377
20002.66992 0.115397
20003.07031 0.115417
20003.48047 0.115437
20003.88086 0.115457
20004.27930 0.115477
20004.67969 0.115497
20005.08008 0.115519
20005.48047 0.115548
20005.88086 0.115578
20006.27930 0.115608
20006.67969 0.115637
20007.08008 0.115667
20007.49023 0.115697
20007.89062 0.115726
20008.28906 0.115756
20008.68945 0.115786
20009.08984 0.115816
20009.49023 0.115845
20009.89062 0.115875
20010.28906 0.115897
20010.68945 0.115916
20011.08984 0.115935
20011.50000 0.115954
20011.90039 0.115973
20012.30078 0.115992
20012.69922 0.116011
20013.09961 0.116029
20013.50000 0.116048
20013.90039 0.116068
20014.30078 0.116086
20014.71094 0.116105
20015.10938 0.116124
20015.50977 0.116143
20015.91016 0.116161
20016.31055 0.116179
20016.71094 0.116198
20017.10938 0.116216
20017.50977 0.116234
20017.91016 0.116253
20018.31055 0.116271
20018.72070 0.11629
20019.11914 0.116308
20019.51953 0.116326
20019.91992 0.116345
20020.32031 0.116369
20020.72070 0.116394
20021.11914 0.11642
20021.52930 0.116446
20021.92969 0.116471
20022.33008 0.116497
20022.73047 0.116522
20023.13086 0.116548
20023.52930 0.116574
20023.92969 0.116599
20024.33008 0.116625
20024.73047 0.11665
20025.14062 0.116676
20025.53906 0.116701
20025.93945 0.116726
20026.33984 0.116752
20026.74023 0.116777
20027.14062 0.116802
20027.53906 0.116828
20027.94922 0.116853
20028.34961 0.116878
20028.75000 0.116903
20029.15039 0.116929
20029.55078 0.116954
20029.94922 0.116979
20030.34961 0.117005
20030.75977 0.11703
20031.16016 0.117056
20031.56055 0.117081
20031.96094 0.117107
20032.35938 0.117132
20032.75977 0.117158
20033.16016 0.117183
20033.57031 0.117209
20033.97070 0.117235
20034.36914 0.11726
20034.76953 0.117286
20035.16992 0.117309
20035.57031 0.11733
20035.97070 0.117351
20036.38086 0.117372
20036.77930 0.117392
20037.17969 0.117413
20037.58008 0.117434
20037.98047 0.117455
20038.38086 0.117475
20038.78906 0.117496
20039.18945 0.117517
20039.58984 0.117538
20039.99023 0.117558
20040.39062 0.117584
20040.78906 0.11761
20041.19922 0.117635
20041.59961 0.117661
20042.00000 0.117686
20042.40039 0.117712
20042.80078 0.117737
20043.19922 0.117763
20043.60938 0.117788
20044.00977 0.117814
20044.41016 0.11784
20044.81055 0.117865
20045.21094 0.11789
20045.61914 0.117914
20046.01953 0.117938
20046.41992 0.117962
20046.82031 0.117985
20047.22070 0.118009
20047.61914 0.118033
20048.02930 0.118057
20048.42969 0.118081
20048.83008 0.118105
20049.23047 0.118129
20049.63086 0.118153
20050.02930 0.118177
20050.43945 0.118204
20050.83984 0.118232
20051.24023 0.118259
20051.64062 0.118287
20052.03906 0.118314
20052.44922 0.118341
20052.84961 0.118369
20053.25000 0.118396
20053.65039 0.118423
20054.05078 0.118451
20054.46094 0.118478
20054.85938 0.118506
20055.25977 0.118533
20055.66016 0.11856
20056.06055 0.118588
20056.46094 0.118615
20056.86914 0.118642
20057.26953 0.11867
20057.66992 0.118697
20058.07031 0.118724
20058.47070 0.118752
20058.88086 0.118779
20059.27930 0.118806
20059.67969 0.118834
20060.08008 0.11886
20060.48047 0.118882
20060.89062 0.118904
20061.28906 0.118926
20061.68945 0.118947
20062.08984 0.118969
20062.49023 0.118991
20062.90039 0.119013
20063.30078 0.119035
20063.69922 0.119057
20064.09961 0.119079
20064.50977 0.119101
20064.91016 0.119123
20065.31055 0.119146
20065.71094 0.119169
20066.10938 0.119193
20066.51953 0.119216
20066.91992 0.119239
20067.32031 0.119263
20067.72070 0.119286
20068.13086 0.119309
20068.52930 0.119333
20068.92969 0.119356
20069.33008 0.11938
20069.73047 0.119403
20070.13086 0.119429
20070.53906 0.119459
20070.93945 0.11949
20071.33984 0.119521
20071.74023 0.119551
20072.15039 0.119582
20072.55078 0.119612
20072.94922 0.119643
20073.34961 0.119673
20073.75977 0.119704
20074.16016 0.119735
20074.56055 0.119765
20074.96094 0.119796
20075.36914 0.119823
20075.76953 0.119849
20076.16992 0.119876
20076.57031 0.119903
20076.97070 0.119929
20077.38086 0.119956
20077.77930 0.119983
20078.17969 0.120009
20078.58008 0.120036
20078.99023 0.120063
20079.39062 0.120089
20079.78906 0.120116
20080.18945 0.12014
20080.59961 0.120161
20081.00000 0.120181
20081.40039 0.120202
20081.80078 0.120223
20082.21094 0.120244
20082.60938 0.120265
20083.00977 0.120286
20083.41016 0.120306
20083.82031 0.120327
20084.22070 0.120348
20084.61914 0.120369
20085.01953 0.12039
20085.42969 0.120418
20085.83008 0.120445
20086.23047 0.120473
20086.63086 0.1205
20087.03906 0.120528
20087.43945 0.120556
20087.83984 0.120583
20088.24023 0.120611
20088.65039 0.120638
20089.05078 0.120666
20089.44922 0.120693
20089.84961 0.120721
20090.25977 0.120748
20090.66016 0.120775
20091.06055 0.120802
20091.46094 0.120829
20091.86914 0.120856
20092.26953 0.120882
20092.66992 0.120909
20093.08008 0.120936
20093.48047 0.120963
20093.88086 0.12099
20094.27930 0.121017
20094.68945 0.121044
20095.08984 0.12107
20095.49023 0.121095
20095.89062 0.12112
20096.30078 0.121144
20096.69922 0.121169
20097.09961 0.121194
20097.50977 0.121219
20097.91016 0.121244
20098.31055 0.121268
20098.71094 0.121293
20099.11914 0.121318
20099.51953 0.121343
20099.91992 0.121368
20100.33008 0.121393
20100.73047 0.121419
20101.13086 0.121446
20101.52930 0.121472
20101.93945 0.121498
20102.33984 0.121524
20102.74023 0.12155
20103.15039 0.121576
20103.55078 0.121602
20103.94922 0.121629
20104.34961 0.121655
20104.75977 0.121681
20105.16016 0.121708
20105.56055 0.121736
20105.97070 0.121764
20106.36914 0.121792
20106.76953 0.12182
20107.17969 0.121848
20107.58008 0.121876
20107.98047 0.121904
20108.38086 0.121932
20108.78906 0.12196
20109.18945 0.121988
20109.58984 0.122017
20110.00000 0.122045
20110.40039 0.122073
20110.80078 0.122101
20111.21094 0.122129
20111.60938 0.122157
20112.00977 0.122185
20112.41016 0.122213
20112.82031 0.122241
20113.22070 0.12227
20113.61914 0.122298
20114.02930 0.122326
20114.42969 0.122354
20114.83008 0.122382
20115.24023 0.122411
20115.64062 0.12244
20116.03906 0.12247
20116.44922 0.122499
20116.84961 0.122529
20117.25000 0.122558
20117.65039 0.122588
20118.06055 0.122617
20118.46094 0.122647
20118.86914 0.122676
20119.26953 0.122705
20119.66992 0.122735
20120.07031 0.122763
20120.48047 0.122785
20120.88086 0.122807
20121.27930 0.122828
20121.68945 0.12285
20122.08984 0.122872
20122.49023 0.122894
20122.90039 0.122916
20123.30078 0.122938
20123.69922 0.12296
20124.10938 0.122982
20124.50977 0.123004
20124.91016 0.123025
20125.32031 0.12306
20125.72070 0.123097
20126.11914 0.123135
20126.52930 0.123173
20126.92969 0.12321
20127.33008 0.123248
20127.74023 0.123285
20128.14062 0.123323
20128.53906 0.12336
20128.94922 0.123398
20129.34961 0.123436
20129.75000 0.123473
20130.16016 0.123505
20130.56055 0.123525
20130.96094 0.123546
20131.36914 0.123566
20131.76953 0.123587
20132.16992 0.123607
20132.58008 0.123628
20132.98047 0.123649
20133.38086 0.123669
20133.78906 0.12369
20134.18945 0.12371
20134.59961 0.123731
20135.00000 0.123752
20135.40039 0.123772
20135.81055 0.123793
20136.21094 0.123814
20136.60938 0.123835
20137.01953 0.123856
20137.41992 0.123876
20137.82031 0.123897
20138.23047 0.123918
20138.63086 0.123939
20139.03906 0.12396
20139.43945 0.123981
20139.83984 0.124001
20140.25000 0.124029
20140.65039 0.124062
20141.05078 0.124094
20141.46094 0.124127
20141.85938 0.124159
20142.25977 0.124192
20142.66992 0.124224
20143.07031 0.124257
20143.47070 0.124289
20143.88086 0.124322
20144.27930 0.124355
20144.68945 0.124387
20145.08984 0.124418
20145.49023 0.124445
20145.90039 0.124471
20146.30078 0.124498
20146.71094 0.124525
20147.10938 0.124551
20147.50977 0.124578
20147.91992 0.124604
20148.32031 0.124631
20148.72070 0.124658
20149.13086 0.124684
20149.52930 0.124711
20149.93945 0.124738
20150.33984 0.124761
20150.74023 0.124784
20151.15039 0.124806
20151.55078 0.124829
20151.96094 0.124852
20152.35938 0.124874
20152.75977 0.124897
20153.16992 0.12492
20153.57031 0.124943
20153.97070 0.124965
20154.38086 0.124988
20154.77930 0.125011
20155.18945 0.125036
20155.58984 0.125064
20155.99023 0.125093
20156.40039 0.125121
20156.80078 0.125149
20157.21094 0.125177
20157.60938 0.125205
20158.00977 0.125234
20158.41992 0.125262
20158.82031 0.12529
20159.23047 0.125318
20159.63086 0.125346
20160.02930 0.125375
20160.43945 0.125409
20160.83984 0.125443
20161.25000 0.125476
20161.65039 0.12551
20162.05078 0.125544
20162.46094 0.125578
20162.85938 0.125611
20163.26953 0.125645
20163.66992 0.125679
20164.07031 0.125713
20164.48047 0.125747
20164.88086 0.12578
20165.28906 0.125806
20165.68945 0.125828
20166.09961 0.125849
20166.50000 0.125871
20166.90039 0.125893
20167.31055 0.125915
20167.71094 0.125937
20168.11914 0.125959
20168.51953 0.125981
20168.91992 0.126002
20169.33008 0.126024
20169.73047 0.126046
20170.14062 0.126069
20170.53906 0.126094
20170.94922 0.126119
20171.34961 0.126143
20171.75000 0.126168
20172.16016 0.126193
20172.56055 0.126218
20172.97070 0.126242
20173.36914 0.126267
20173.77930 0.126292
20174.17969 0.126317
20174.58008 0.126341
20174.99023 0.126366
20175.39062 0.126397
20175.80078 0.126428
20176.19922 0.126459
20176.60938 0.12649
20177.00977 0.126521
20177.41016 0.126552
20177.82031 0.126583
20178.22070 0.126614
20178.63086 0.126645
20179.02930 0.126676
20179.43945 0.126707
20179.83984 0.126738
20180.25000 0.126763
20180.65039 0.126784
20181.05078 0.126805
20181.46094 0.126827
20181.85938 0.126848
20182.26953 0.126869
20182.66992 0.126891
20183.08008 0.126912
20183.48047 0.126933
20183.89062 0.126955
20184.28906 0.126976
20184.69922 0.126998
20185.09961 0.12702
20185.50000 0.127048
20185.91016 0.127076
20186.31055 0.127103
20186.72070 0.127131
20187.11914 0.127159
20187.52930 0.127186
20187.92969 0.127214
20188.33984 0.127242
20188.74023 0.127269
20189.14062 0.127297
20189.55078 0.127325
20189.96094 0.127352
20190.35938 0.127382
20190.75977 0.127412
20191.16992 0.127442
20191.57031 0.127472
20191.98047 0.127503
20192.38086 0.127533
20192.78906 0.127563
20193.18945 0.127593
20193.59961 0.127623
20194.00000 0.127653
20194.41016 0.127684
20194.81055 0.127714
20195.21094 0.127738
20195.61914 0.127757
20196.02930 0.127776
20196.42969 0.127795
20196.83008 0.127814
20197.24023 0.127833
20197.64062 0.127852
20198.05078 0.127871
20198.44922 0.12789
20198.85938 0.127909
20199.25977 0.127928
20199.66992 0.127947
20200.07031 0.127966
20200.48047 0.127987
20200.88086 0.128008
20201.28906 0.12803
20201.68945 0.128051
20202.09961 0.128072
20202.50000 0.128093
20202.91016 0.128114
20203.31055 0.128136
20203.72070 0.128157
20204.11914 0.128178
20204.52930 0.128199
20204.92969 0.12822
20205.33984 0.128242
20205.74023 0.128264
20206.15039 0.128286
20206.55078 0.128308
20206.96094 0.12833
20207.35938 0.128351
20207.76953 0.128373
20208.16992 0.128395
20208.58008 0.128417
20208.98047 0.128439
20209.39062 0.128461
20209.78906 0.128482
20210.19922 0.128507
20210.59961 0.128535
20211.00977 0.128563
20211.41016 0.128591
20211.82031 0.128618
20212.22070 0.128646
20212.63086 0.128674
20213.02930 0.128702
20213.43945 0.12873
20213.83984 0.128758
20214.25000 0.128785
20214.65039 0.128813
20215.06055 0.128841
20215.46094 0.128869
20215.86914 0.128896
20216.26953 0.128924
20216.67969 0.128951
20217.08008 0.128979
20217.49023 0.129006
20217.89062 0.129034
20218.30078 0.129062
20218.69922 0.129089
20219.10938 0.129117
20219.50977 0.129144
20219.91992 0.129172
20220.32031 0.129189
20220.73047 0.129204
20221.13086 0.129219
20221.53906 0.129234
20221.94922 0.129248
20222.34961 0.129263
20222.75977 0.129278
20223.16016 0.129292
20223.57031 0.129307
20223.97070 0.129322
20224.38086 0.129336
20224.77930 0.129351
20225.18945 0.129371
20225.58984 0.129396
20226.00000 0.129422
20226.40039 0.129447
20226.81055 0.129472
20227.21094 0.129498
20227.61914 0.129524
20228.02930 0.129549
20228.42969 0.129574
20228.83984 0.1296
20229.24023 0.129625
20229.65039 0.129651
20230.05078 0.129676
20230.46094 0.129702
20230.85938 0.129728
20231.26953 0.129753
20231.66992 0.129779
20232.08008 0.129805
20232.49023 0.129831
20232.89062 0.129857
20233.30078 0.129883
20233.69922 0.129908
20234.10938 0.129934
20234.50977 0.12996
20234.91992 0.129986
20235.32031 0.130008
20235.73047 0.130029
20236.13086 0.13005
20236.53906 0.13007
20236.94922 0.130091
20237.34961 0.130112
20237.75977 0.130133
20238.16016 0.130154
20238.57031 0.130175
20238.97070 0.130196
20239.38086 0.130216
20239.78906 0.130237
20240.18945 0.130258
20240.59961 0.13028
20241.00000 0.130302
20241.41016 0.130323
20241.81055 0.130345
20242.22070 0.130367
20242.61914 0.130388
20243.02930 0.13041
20243.43945 0.130432
20243.83984 0.130453
20244.25000 0.130475
20244.65039 0.130497
20245.06055 0.130517
20245.46094 0.130527
20245.86914 0.130537
20246.27930 0.130548
20246.67969 0.130558
20247.08984 0.130569
20247.49023 0.130579
20247.90039 0.130589
20248.30078 0.1306
20248.71094 0.13061
20249.11914 0.130621
20249.51953 0.130631
20249.92969 0.130641
20250.33008 0.130666
20250.74023 0.130693
20251.15039 0.13072
20251.55078 0.130748
20251.96094 0.130775
20252.35938 0.130802
20252.76953 0.13083
20253.17969 0.130857
20253.58008 0.130885
20253.99023 0.130912
20254.39062 0.130939
20254.80078 0.130967
20255.21094 0.130991
20255.60938 0.131013
20256.01953 0.131034
20256.41992 0.131055
20256.83008 0.131076
20257.23047 0.131098
20257.64062 0.131119
20258.05078 0.13114
20258.44922 0.131161
20258.85938 0.131183
20259.26953 0.131204
20259.66992 0.131225
20260.08008 0.131245
20260.48047 0.13126
20260.89062 0.131275
20261.28906 0.13129
20261.69922 0.131305
20262.10938 0.13132
20262.50977 0.131334
20262.91992 0.131349
20263.33008 0.131364
20263.73047 0.131379
20264.14062 0.131394
20264.53906 0.131409
20264.94922 0.131423
20265.35938 0.13144
20265.75977 0.131456
20266.16992 0.131473
20266.57031 0.13149
20266.98047 0.131507
20267.39062 0.131523
20267.78906 0.13154
20268.19922 0.131557
20268.60938 0.131573
20269.00977 0.13159
20269.41992 0.131607
20269.82031 0.131624
20270.23047 0.131641
20270.64062 0.131659
20271.03906 0.131678
20271.44922 0.131696
20271.85938 0.131714
20272.25977 0.131732
20272.66992 0.13175
20273.07031 0.131769
20273.48047 0.131787
20273.89062 0.131805
20274.28906 0.131823
20274.69922 0.131842
20275.10938 0.131861
20275.50977 0.131884
20275.91992 0.131907
20276.33008 0.13193
20276.73047 0.131953
20277.14062 0.131975
20277.53906 0.131998
20277.94922 0.132021
20278.35938 0.132044
20278.75977 0.132067
20279.16992 0.13209
20279.58008 0.132113
20279.98047 0.132136
20280.39062 0.13215
20280.78906 0.132163
20281.19922 0.132176
20281.60938 0.13219
20282.01953 0.132203
20282.41992 0.132216
20282.83008 0.132229
20283.23047 0.132243
20283.64062 0.132256
20284.05078 0.132269
20284.46094 0.132283
20284.85938 0.132296
20285.26953 0.132313
20285.66992 0.132332
20286.08008 0.132351
20286.49023 0.132371
20286.89062 0.13239
20287.30078 0.132409
20287.71094 0.132428
20288.10938 0.132447
20288.51953 0.132466
20288.92969 0.132486
20289.33008 0.132505
20289.74023 0.132524
20290.15039 0.132543
20290.55078 0.13256
20290.96094 0.132578
20291.36914 0.132596
20291.76953 0.132613
20292.17969 0.132631
20292.58984 0.132649
20292.99023 0.132666
20293.40039 0.132684
20293.81055 0.132702
20294.21094 0.13272
20294.61914 0.132737
20295.02930 0.132755
20295.42969 0.13277
20295.83984 0.132785
20296.25000 0.132801
20296.65039 0.132816
20297.06055 0.132831
20297.47070 0.132846
20297.86914 0.132862
20298.27930 0.132877
20298.68945 0.132892
20299.08984 0.132907
20299.50000 0.132923
20299.91016 0.132938
20300.31055 0.132949
20300.72070 0.132959
20301.13086 0.132969
20301.53906 0.132979
20301.93945 0.132989
20302.34961 0.132999
20302.75977 0.133009
20303.16016 0.133019
20303.57031 0.133028
20303.98047 0.133038
20304.38086 0.133048
20304.78906 0.133058
20305.19922 0.13307
20305.60938 0.133084
20306.00977 0.133098
20306.41992 0.133112
20306.83008 0.133127
20307.23047 0.133141
20307.64062 0.133155
20308.05078 0.133169
20308.44922 0.133183
20308.85938 0.133197
20309.26953 0.133211
20309.66992 0.133225
20310.08008 0.133239
20310.49023 0.133251
20310.90039 0.133263
20311.30078 0.133275
20311.71094 0.133287
20312.11914 0.133299
20312.51953 0.133311
20312.92969 0.133323
20313.33984 0.133335
20313.75000 0.133348
20314.15039 0.13336
20314.56055 0.133372
20314.97070 0.133384
20315.36914 0.133404
20315.77930 0.133424
20316.18945 0.133445
20316.59961 0.133466
20317.00000 0.133486
20317.41016 0.133507
20317.82031 0.133527
20318.22070 0.133548
20318.63086 0.133569
20319.03906 0.133589
20319.44922 0.13361
20319.84961 0.133631
20320.25977 0.13364
20320.66992 0.133643
20321.07031 0.133647
20321.48047 0.13365
20321.89062 0.133653
20322.30078 0.133656
20322.69922 0.133659
20323.10938 0.133662
20323.51953 0.133666
20323.92969 0.133669
20324.33008 0.133672
20324.74023 0.133675
20325.15039 0.133682
20325.55078 0.133697
20325.96094 0.133711
20326.36914 0.133725
20326.77930 0.133739
20327.17969 0.133753
20327.58984 0.133768
20328.00000 0.133782
20328.41016 0.133796
20328.81055 0.13381
20329.22070 0.133824
20329.63086 0.133839
20330.03906 0.133853
20330.43945 0.133868
20330.84961 0.133884
20331.25977 0.133899
20331.66992 0.133915
20332.07031 0.13393
20332.48047 0.133946
20332.89062 0.133961
20333.30078 0.133976
20333.69922 0.133992
20334.10938 0.134007
20334.51953 0.134023
20334.92969 0.134038
20335.33008 0.134047
20335.74023 0.134053
20336.15039 0.13406
20336.56055 0.134067
20336.96094 0.134074
20337.36914 0.134081
20337.77930 0.134088
20338.18945 0.134095
20338.58984 0.134101
20339.00000 0.134108
20339.41016 0.134115
20339.82031 0.134122
20340.22070 0.134132
20340.63086 0.134145
20341.03906 0.134158
20341.44922 0.134171
20341.85938 0.134184
20342.25977 0.134197
20342.66992 0.13421
20343.08008 0.134223
20343.49023 0.134236
20343.89062 0.134249
20344.30078 0.134262
20344.71094 0.134274
20345.11914 0.134288
20345.52930 0.134301
20345.92969 0.134314
20346.33984 0.134327
20346.75000 0.134341
20347.16016 0.134354
20347.56055 0.134368
20347.97070 0.134381
20348.38086 0.134394
20348.78906 0.134407
20349.19922 0.134421
20349.59961 0.134434
20350.00977 0.134447
20350.41992 0.134449
20350.83008 0.13445
20351.23047 0.134451
20351.64062 0.134453
20352.05078 0.134454
20352.46094 0.134456
20352.86914 0.134457
20353.26953 0.134458
20353.67969 0.13446
20354.08984 0.134461
20354.50000 0.134463
20354.91016 0.134464
20355.31055 0.134471
20355.72070 0.134479
20356.13086 0.134487
20356.53906 0.134495
20356.94922 0.134504
20357.34961 0.134512
20357.75977 0.13452
20358.16992 0.134528
20358.58008 0.134536
20358.98047 0.134545
20359.39062 0.134553
20359.80078 0.134561
20360.21094 0.13457
20360.61914 0.13458
20361.02930 0.134589
20361.42969 0.134599
20361.83984 0.134608
20362.25000 0.134618
20362.66016 0.134627
20363.07031 0.134637
20363.47070 0.134647
20363.88086 0.134656
20364.28906 0.134666
20364.69922 0.134675
20365.10938 0.134683
20365.50977 0.134688
20365.91992 0.134692
20366.33008 0.134696
20366.74023 0.134701
20367.15039 0.134705
20367.55078 0.134709
20367.96094 0.134714
20368.36914 0.134718
20368.77930 0.134722
20369.18945 0.134727
20369.59961 0.134731
20370.00000 0.134735
20370.41016 0.134743
20370.82031 0.13475
20371.23047 0.134758
20371.64062 0.134765
20372.05078 0.134773
20372.46094 0.13478
20372.85938 0.134788
20373.26953 0.134795
20373.67969 0.134802
20374.08984 0.13481
20374.50000 0.134817
20374.90039 0.134825
20375.31055 0.134835
20375.72070 0.134846
20376.13086 0.134858
20376.53906 0.134869
20376.94922 0.13488
20377.34961 0.134891
20377.75977 0.134903
20378.16992 0.134914
20378.58008 0.134925
20378.99023 0.134936
20379.40039 0.134948
20379.80078 0.134959
20380.21094 0.134968
20380.61914 0.134975
20381.02930 0.134981
20381.43945 0.134988
20381.84961 0.134995
20382.25977 0.135002
20382.66016 0.135009
20383.07031 0.135015
20383.48047 0.135022
20383.89062 0.135029
20384.30078 0.135036
20384.71094 0.135042
20385.11914 0.13505
20385.51953 0.135059
20385.92969 0.135068
20386.33984 0.135076
20386.75000 0.135085
20387.16016 0.135094
20387.57031 0.135103
20387.97070 0.135112
20388.38086 0.135121
20388.78906 0.13513
20389.19922 0.135138
20389.60938 0.135147
20390.01953 0.135156
20390.42969 0.135161
20390.83984 0.135166
20391.24023 0.135171
20391.65039 0.135175
20392.06055 0.13518
20392.47070 0.135185
20392.88086 0.13519
20393.28906 0.135195
20393.69922 0.1352
20394.10938 0.135204
20394.50977 0.135209
20394.91992 0.135214
20395.33008 0.135217
20395.74023 0.135221
20396.15039 0.135224
20396.56055 0.135227
20396.97070 0.13523
20397.38086 0.135233
20397.77930 0.135236
20398.18945 0.13524
20398.59961 0.135243
20399.00977 0.135246
20399.41992 0.135249
20399.83008 0.135252
20400.24023 0.13526
20400.65039 0.135272
20401.05078 0.135283
20401.46094 0.135295
20401.86914 0.135306
20402.27930 0.135318
20402.68945 0.135329
20403.09961 0.135341
20403.50977 0.135353
20403.91992 0.135364
20404.33008 0.135376
20404.73047 0.135387
20405.14062 0.135397
20405.55078 0.135404
20405.96094 0.135411
20406.36914 0.135418
20406.77930 0.135425
20407.18945 0.135432
20407.59961 0.135439
20408.00977 0.135446
20408.41992 0.135453
20408.82031 0.13546
20409.23047 0.135466
20409.64062 0.135473
20410.05078 0.13548
20410.46094 0.135484
20410.86914 0.135487
20411.27930 0.135491
20411.68945 0.135494
20412.09961 0.135498
20412.50977 0.135502
20412.91992 0.135506
20413.32031 0.135509
20413.73047 0.135513
20414.14062 0.135516
20414.55078 0.13552
20414.96094 0.135524
20415.36914 0.13553
20415.77930 0.135536
20416.18945 0.135542
20416.59961 0.135549
20417.00977 0.135555
20417.41992 0.135562
20417.82031 0.135568
20418.23047 0.135574
20418.64062 0.13558
20419.05078 0.135587
20419.46094 0.135593
20419.86914 0.135599
20420.27930 0.135611
20420.68945 0.135625
20421.09961 0.135639
20421.50977 0.135653
20421.91992 0.135666
20422.33008 0.13568
20422.74023 0.135694
20423.14062 0.135708
20423.55078 0.135722
20423.96094 0.135736
20424.36914 0.135749
20424.77930 0.135764
20425.18945 0.135774
20425.59961 0.135781
20426.00977 0.135788
20426.41992 0.135795
20426.83008 0.135802
20427.24023 0.135809
20427.65039 0.135816
20428.06055 0.135823
20428.47070 0.13583
20428.88086 0.135837
20429.28906 0.135844
20429.69922 0.135851
20430.10938 0.135857
20430.50977 0.135862
20430.91992 0.135867
20431.33008 0.135872
20431.74023 0.135877
20432.15039 0.135881
20432.56055 0.135886
20432.97070 0.135891
20433.38086 0.135896
20433.78906 0.135901
20434.19922 0.135905
20434.60938 0.13591
20435.01953 0.135915
20435.42969 0.135925
20435.83984 0.135935
20436.25000 0.135945
20436.66016 0.135956
20437.07031 0.135966
20437.48047 0.135976
20437.88086 0.135986
20438.28906 0.135996
20438.71094 0.136006
20439.11914 0.136016
20439.51953 0.136026
20439.92969 0.136037
20440.33984 0.136042
20440.75000 0.136046
20441.16016 0.13605
20441.57031 0.136054
20441.98047 0.136058
20442.39062 0.136063
20442.80078 0.136067
20443.21094 0.136071
20443.61914 0.136075
20444.02930 0.136079
20444.43945 0.136083
20444.84961 0.136087
20445.25977 0.136094
20445.66992 0.136102
20446.08008 0.13611
20446.49023 0.136118
20446.90039 0.136125
20447.31055 0.136133
20447.72070 0.136141
20448.13086 0.136149
20448.53906 0.136157
20448.94922 0.136165
20449.35938 0.136173
20449.76953 0.136181
20450.17969 0.136188
20450.58984 0.136196
20451.00000 0.136204
20451.41016 0.136212
20451.82031 0.13622
20452.23047 0.136228
20452.64062 0.136236
20453.05078 0.136244
20453.46094 0.136252
20453.86914 0.13626
20454.27930 0.136268
20454.68945 0.136275
20455.09961 0.136283
20455.50977 0.136288
20455.91992 0.136293
20456.33008 0.136298
20456.74023 0.136302
20457.15039 0.136307
20457.56055 0.136313
20457.96094 0.136317
20458.38086 0.136322
20458.78906 0.136327
20459.19922 0.136332
20459.60938 0.136337
20460.01953 0.136342
20460.42969 0.136348
20460.83984 0.136354
20461.25000 0.136359
20461.66016 0.136365
20462.07031 0.136371
20462.48047 0.136377
20462.89062 0.136382
20463.30078 0.136388
20463.71094 0.136394
20464.11914 0.1364
20464.52930 0.136405
20464.93945 0.136411
20465.34961 0.136418
20465.75977 0.136426
20466.16992 0.136434
20466.58008 0.136441
20466.99023 0.136449
20467.40039 0.136457
20467.81055 0.136464
20468.22070 0.136472
20468.63086 0.13648
20469.03906 0.136488
20469.44922 0.136495
20469.85938 0.136503
20470.26953 0.136517
20470.67969 0.136535
20471.08984 0.136553
20471.50000 0.136571
20471.91016 0.136589
20472.32031 0.136607
20472.73047 0.136625
20473.14062 0.136644
20473.55078 0.136662
20473.96094 0.13668
20474.36914 0.136698
20474.77930 0.136716
20475.18945 0.13673
20475.59961 0.136739
20476.00977 0.136749
20476.41992 0.136758
20476.83008 0.136767
20477.24023 0.136777
20477.66016 0.136787
20478.07031 0.136796
20478.48047 0.136805
20478.89062 0.136815
20479.30078 0.136824
20479.71094 0.136834
20480.11914 0.136843
20480.52930 0.136851
20480.93945 0.136859
20481.34961 0.136867
20481.75977 0.136875
20482.16992 0.136883
20482.58008 0.136891
20482.99023 0.136899
20483.40039 0.136907
20483.81055 0.136915
20484.22070 0.136923
20484.63086 0.136931
20485.03906 0.136939
20485.46094 0.136943
20485.86914 0.136947
20486.27930 0.136951
20486.68945 0.136956
20487.09961 0.13696
20487.50977 0.136964
20487.91992 0.136968
20488.33008 0.136972
20488.74023 0.136977
20489.15039 0.136981
20489.56055 0.136985
20489.97070 0.136989
20490.38086 0.136999
20490.78906 0.13701
20491.19922 0.137021
20491.60938 0.137031
20492.02930 0.137042
20492.43945 0.137053
20492.84961 0.137063
20493.25977 0.137074
20493.66992 0.137085
20494.08008 0.137095
20494.49023 0.137106
20494.90039 0.137117
20495.31055 0.137122
20495.72070 0.137126
20496.13086 0.13713
20496.53906 0.137133
20496.94922 0.137137
20497.35938 0.137141
20497.77930 0.137145
20498.18945 0.137149
20498.59961 0.137153
20499.00977 0.137156
20499.41992 0.13716
20499.83008 0.137164
20500.24023 0.137178
20500.65039 0.1372
20501.06055 0.137222
20501.47070 0.137244
20501.88086 0.137266
20502.28906 0.137288
20502.71094 0.13731
20503.11914 0.137332
20503.52930 0.137354
20503.93945 0.137376
20504.34961 0.137398
20504.75977 0.13742
20505.16992 0.137435
20505.58008 0.137439
20505.99023 0.137443
20506.40039 0.137447
20506.81055 0.137452
20507.22070 0.137456
20507.64062 0.13746
20508.05078 0.137464
20508.46094 0.137468
20508.86914 0.137472
20509.27930 0.137476
20509.68945 0.137481
20510.09961 0.137487
20510.50977 0.137498
20510.91992 0.137509
20511.33984 0.137521
20511.75000 0.137532
20512.16016 0.137544
20512.57031 0.137555
20512.98047 0.137567
20513.39062 0.137578
20513.80078 0.13759
20514.21094 0.137601
20514.63086 0.137613
20515.03906 0.137625
20515.44922 0.137641
20515.85938 0.137657
20516.26953 0.137673
20516.67969 0.137689
20517.08984 0.137706
20517.50000 0.137722
20517.91016 0.137738
20518.33008 0.137755
20518.74023 0.137771
20519.15039 0.137787
20519.56055 0.137803
20519.97070 0.13782
20520.38086 0.137824
20520.78906 0.137827
20521.19922 0.137831
20521.61914 0.137834
20522.02930 0.137838
20522.43945 0.137841
20522.84961 0.137844
20523.25977 0.137848
20523.66992 0.137851
20524.08008 0.137854
20524.49023 0.137858
20524.91016 0.137861
20525.32031 0.137875
20525.73047 0.137892
20526.14062 0.137909
20526.55078 0.137926
20526.96094 0.137942
20527.36914 0.137959
20527.78906 0.137976
20528.19922 0.137993
20528.60938 0.13801
20529.01953 0.138027
20529.42969 0.138044
20529.83984 0.138061
20530.25000 0.138073
20530.66992 0.138084
20531.08008 0.138094
20531.49023 0.138105
20531.90039 0.138115
20532.31055 0.138125
20532.72070 0.138136
20533.13086 0.138146
20533.53906 0.138156
20533.96094 0.138167
20534.36914 0.138177
20534.77930 0.138188
20535.18945 0.138197
20535.59961 0.138205
20536.01953 0.138214
20536.42969 0.138222
20536.83984 0.138231
20537.25000 0.138239
20537.66016 0.138247
20538.07031 0.138256
20538.48047 0.138264
20538.90039 0.138272
20539.31055 0.138281
20539.72070 0.138289
20540.13086 0.138301
20540.53906 0.138319
20540.96094 0.138338
20541.36914 0.138356
20541.77930 0.138374
20542.18945 0.138393
20542.59961 0.138411
20543.00977 0.13843
20543.41992 0.138448
20543.83984 0.138466
20544.25000 0.138485
20544.66016 0.138503
20545.07031 0.138522
20545.48047 0.138545
20545.89062 0.138567
20546.31055 0.138589
20546.72070 0.138612
20547.13086 0.138634
20547.53906 0.138657
20547.94922 0.138679
20548.36914 0.138701
20548.77930 0.138724
20549.18945 0.138746
20549.59961 0.138768
20550.00977 0.13879
20550.42969 0.138795
20550.83984 0.138799
20551.25000 0.138803
20551.66016 0.138808
20552.07031 0.138812
20552.48047 0.138816
20552.90039 0.138821
20553.31055 0.138825
20553.72070 0.138829
20554.13086 0.138834
20554.53906 0.138838
20554.96094 0.138842
20555.36914 0.138871
20555.77930 0.138902
20556.18945 0.138934
20556.59961 0.138965
20557.01953 0.138997
20557.42969 0.139028
20557.83984 0.13906
20558.25000 0.139091
20558.66016 0.139122
20559.08008 0.139154
20559.49023 0.139185
20559.90039 0.139217
20560.31055 0.139234
20560.72070 0.139246
20561.14062 0.139259
20561.55078 0.139271
20561.96094 0.139283
20562.36914 0.139295
20562.78906 0.139308
20563.19922 0.13932
20563.60938 0.139332
20564.01953 0.139345
20564.42969 0.139357
20564.84961 0.13937
20565.25977 0.13939
20565.66992 0.139415
20566.08008 0.139441
20566.49023 0.139466
20566.91016 0.139492
20567.32031 0.139517
20567.73047 0.139543
20568.14062 0.139568
20568.55078 0.139593
20568.97070 0.139619
20569.38086 0.139644
20569.78906 0.13967
20570.19922 0.139687
20570.61914 0.139698
20571.02930 0.139708
20571.43945 0.139718
20571.84961 0.139728
20572.26953 0.139738
20572.67969 0.139748
20573.08984 0.139758
20573.50000 0.139768
20573.91016 0.139779
20574.33008 0.139789
20574.74023 0.139799
20575.15039 0.139813
20575.56055 0.139833
20575.98047 0.139853
20576.39062 0.139873
20576.80078 0.139893
20577.21094 0.139913
20577.61914 0.139933
20578.03906 0.139954
20578.44922 0.139974
20578.85938 0.139994
20579.27930 0.140014
20579.68945 0.140034
20580.09961 0.140056
20580.50977 0.140083
20580.92969 0.14011
20581.33984 0.140137
20581.75000 0.140164
20582.16016 0.140191
20582.57031 0.140218
20582.99023 0.140246
20583.40039 0.140273
20583.81055 0.1403
20584.22070 0.140327
20584.64062 0.140354
20585.05078 0.14038
20585.46094 0.1404
20585.88086 0.140421
20586.28906 0.140441
20586.69922 0.140461
20587.10938 0.140481
20587.52930 0.140502
20587.93945 0.140522
20588.34961 0.140542
20588.75977 0.140562
20589.17969 0.140582
20589.58984 0.140603
20590.00000 0.140623
20590.41016 0.140646
20590.83008 0.140669
20591.24023 0.140692
20591.65039 0.140715
20592.06055 0.140737
20592.48047 0.14076
20592.89062 0.140783
20593.30078 0.140806
20593.71094 0.140829
20594.13086 0.140852
20594.53906 0.140875
20594.94922 0.140898
20595.36914 0.140919
20595.77930 0.14094
20596.18945 0.140961
20596.60938 0.140983
20597.01953 0.141004
20597.42969 0.141025
20597.83984 0.141046
20598.25977 0.141068
20598.66992 0.141089
20599.08008 0.14111
20599.49023 0.141131
20599.91016 0.141153
20600.32031 0.141177
20600.73047 0.141203
20601.15039 0.141228
20601.56055 0.141254
20601.97070 0.141279
20602.38086 0.141305
20602.80078 0.14133
20603.21094 0.141356
20603.61914 0.141381
20604.03906 0.141407
20604.44922 0.141432
20604.85938 0.141458
20605.27930 0.14149
20605.68945 0.141526
20606.09961 0.141562
20606.50977 0.141598
20606.92969 0.141634
20607.33984 0.14167
20607.75000 0.141705
20608.16992 0.141741
20608.58008 0.141777
20608.99023 0.141813
20609.40039 0.141849
20609.82031 0.141885
20610.23047 0.14191
20610.64062 0.141927
20611.06055 0.141945
20611.47070 0.141962
20611.88086 0.141979
20612.30078 0.141996
20612.71094 0.142013
20613.11914 0.14203
20613.53906 0.142047
20613.94922 0.142065
20614.35938 0.142082
20614.77930 0.142099
20615.18945 0.142124
20615.59961 0.142159
20616.00977 0.142194
20616.42969 0.142229
20616.83984 0.142264
20617.25000 0.142299
20617.66992 0.142334
20618.08008 0.142369
20618.49023 0.142403
20618.91016 0.142438
20619.32031 0.142473
20619.73047 0.142508
20620.15039 0.142542
20620.56055 0.142572
20620.97070 0.142602
20621.39062 0.142633
20621.80078 0.142663
20622.21094 0.142694
20622.63086 0.142724
20623.03906 0.142754
20623.44922 0.142785
20623.86914 0.142815
20624.27930 0.142846
20624.68945 0.142876
20625.10938 0.142905
20625.51953 0.142928
20625.92969 0.142951
20626.34961 0.142974
20626.75977 0.142997
20627.16992 0.14302
20627.58984 0.143043
20628.00000 0.143066
20628.41016 0.143089
20628.83008 0.143112
20629.24023 0.143135
20629.65039 0.143158
20630.07031 0.143182
20630.48047 0.143216
20630.89062 0.143249
20631.31055 0.143282
20631.72070 0.143314
20632.13086 0.143347
20632.55078 0.14338
20632.96094 0.143413
20633.38086 0.143446
20633.78906 0.143479
20634.19922 0.143512
20634.61914 0.143545
20635.02930 0.143578
20635.43945 0.143603
20635.85938 0.143628
20636.26953 0.143653
20636.67969 0.143679
20637.09961 0.143704
20637.50977 0.143729
20637.91992 0.143755
20638.33984 0.14378
20638.75000 0.143805
20639.16992 0.143831
20639.58008 0.143856
20639.99023 0.143881
20640.41016 0.143921
20640.82031 0.143962
20641.23047 0.144002
20641.65039 0.144043
20642.06055 0.144083
20642.47070 0.144124
20642.89062 0.144164
20643.30078 0.144205
20643.71094 0.144245
20644.13086 0.144286
20644.53906 0.144326
20644.96094 0.144367
20645.36914 0.144398
20645.78906 0.144427
20646.19922 0.144456
20646.60938 0.144486
20647.02930 0.144515
20647.43945 0.144545
20647.84961 0.144574
20648.26953 0.144604
20648.67969 0.144633
20649.09961 0.144663
20649.50977 0.144692
20649.91992 0.144722
20650.33984 0.144752
20650.75000 0.144783
20651.16016 0.144814
20651.58008 0.144844
20651.99023 0.144875
20652.41016 0.144906
20652.82031 0.144937
20653.23047 0.144968
20653.65039 0.144999
20654.06055 0.145029
20654.47070 0.14506
20654.89062 0.145091
20655.30078 0.145119
20655.72070 0.145145
20656.13086 0.145172
20656.53906 0.145199
20656.96094 0.145225
20657.36914 0.145252
20657.78906 0.145279
20658.19922 0.145305
20658.61914 0.145332
20659.02930 0.145359
20659.43945 0.145385
20659.85938 0.145412
20660.26953 0.145449
20660.68945 0.14549
20661.09961 0.145532
20661.50977 0.145574
20661.92969 0.145616
20662.33984 0.145658
20662.75977 0.1457
20663.16992 0.145742
20663.58008 0.145784
20664.00000 0.145826
20664.41016 0.145868
20664.83008 0.14591
20665.24023 0.145948
20665.65039 0.145983
20666.07031 0.146019
20666.48047 0.146054
20666.90039 0.14609
20667.31055 0.146125
20667.73047 0.146161
20668.14062 0.146196
20668.55078 0.146231
20668.97070 0.146267
20669.38086 0.146302
20669.80078 0.146338
20670.21094 0.146368
20670.63086 0.146394
20671.03906 0.14642
20671.44922 0.146446
20671.86914 0.146472
20672.27930 0.146497
20672.69922 0.146523
20673.10938 0.146549
20673.52930 0.146575
20673.93945 0.146601
20674.34961 0.146627
20674.76953 0.146652
20675.17969 0.146682
20675.59961 0.146718
20676.00977 0.146753
20676.42969 0.146788
20676.83984 0.146823
20677.25000 0.146858
20677.66992 0.146893
20678.08008 0.146928
20678.50000 0.146963
20678.91016 0.146998
20679.33008 0.147033
20679.74023 0.147069
20680.16016 0.147102
20680.57031 0.147134
20680.98047 0.147165
20681.40039 0.147196
20681.81055 0.147228
20682.23047 0.147259
20682.64062 0.14729
20683.06055 0.147321
20683.47070 0.147353
20683.89062 0.147384
20684.30078 0.147416
20684.71094 0.147447
20685.13086 0.147481
20685.53906 0.147523
20685.96094 0.147565
20686.36914 0.147606
20686.78906 0.147648
20687.19922 0.14769
20687.61914 0.147731
20688.02930 0.147773
20688.44922 0.147815
20688.85938 0.147857
20689.27930 0.147898
20689.68945 0.14794
20690.10938 0.147977
20690.51953 0.148003
20690.92969 0.148028
20691.34961 0.148053
20691.75977 0.148078
20692.17969 0.148103
20692.58984 0.148128
20693.00977 0.148154
20693.41992 0.148179
20693.83984 0.148204
20694.25000 0.148229
20694.66992 0.148254
20695.08008 0.148282
20695.50000 0.148322
20695.91016 0.148362
20696.33008 0.148401
20696.74023 0.148441
20697.16016 0.148481
20697.57031 0.14852
20697.98047 0.14856
20698.40039 0.1486
20698.81055 0.148639
20699.23047 0.148679
20699.64062 0.148719
20700.06055 0.148755
20700.47070 0.148771
20700.89062 0.148787
20701.30078 0.148803
20701.72070 0.148819
20702.13086 0.148835
20702.55078 0.148851
20702.96094 0.148868
20703.38086 0.148884
20703.78906 0.1489
20704.21094 0.148916
20704.61914 0.148932
20705.03906 0.14895
20705.44922 0.148989
20705.86914 0.149028
20706.27930 0.149067
20706.69922 0.149106
20707.10938 0.149145
20707.52930 0.149184
20707.93945 0.149223
20708.35938 0.149262
20708.76953 0.149301
20709.18945 0.14934
20709.59961 0.149379
20710.01953 0.149417
20710.42969 0.149436
20710.84961 0.149455
20711.25977 0.149474
20711.67969 0.149493
20712.08984 0.149512
20712.50977 0.149531
20712.91992 0.14955
20713.33984 0.149569
20713.75000 0.149588
20714.16992 0.149607
20714.58008 0.149626
20715.00000 0.149645
20715.41016 0.149667
20715.83008 0.149689
20716.24023 0.14971
20716.66016 0.149732
20717.08008 0.149754
20717.49023 0.149775
20717.91016 0.149797
20718.32031 0.149819
20718.74023 0.14984
20719.15039 0.149862
20719.57031 0.149884
20719.98047 0.149905
20720.40039 0.149919
20720.81055 0.149932
20721.23047 0.149945
20721.64062 0.149958
20722.06055 0.149972
20722.47070 0.149985
20722.89062 0.149998
20723.30078 0.150011
20723.72070 0.150024
20724.13086 0.150038
20724.55078 0.150051
20724.96094 0.150064
20725.38086 0.150088
20725.80078 0.150114
20726.21094 0.150139
20726.63086 0.150165
20727.03906 0.15019
20727.46094 0.150216
20727.86914 0.150241
20728.28906 0.150267
20728.69922 0.150292
20729.11914 0.150317
20729.53906 0.150343
20729.94922 0.150368
20730.36914 0.150382
20730.77930 0.150394
20731.19922 0.150406
20731.60938 0.150418
20732.02930 0.15043
20732.43945 0.150443
20732.85938 0.150455
20733.26953 0.150467
20733.68945 0.150479
20734.10938 0.150491
20734.51953 0.150503
20734.93945 0.150515
20735.34961 0.150529
20735.76953 0.150543
20736.17969 0.150557
20736.59961 0.150571
20737.00977 0.150585
20737.42969 0.150599
20737.84961 0.150614
20738.25977 0.150628
20738.67969 0.150642
20739.08984 0.150656
20739.50977 0.15067
20739.91992 0.150684
20740.33984 0.150692
20740.75977 0.150699
20741.16992 0.150706
20741.58984 0.150713
20742.00000 0.15072
20742.41992 0.150727
20742.83008 0.150734
20743.25000 0.150741
20743.66016 0.150748
20744.08008 0.150755
20744.50000 0.150762
20744.91016 0.150769
20745.33008 0.150783
20745.74023 0.150799
20746.16016 0.150814
20746.58008 0.15083
20746.99023 0.150846
20747.41016 0.150862
20747.82031 0.150878
20748.24023 0.150893
20748.65039 0.150909
20749.07031 0.150925
20749.49023 0.150941
20749.90039 0.150957
20750.32031 0.150956
20750.73047 0.150951
20751.15039 0.150945
20751.56055 0.15094
20751.98047 0.150935
20752.40039 0.150929
20752.81055 0.150924
20753.23047 0.150918
20753.64062 0.150913
20754.06055 0.150907
20754.48047 0.150902
20754.89062 0.150896
20755.31055 0.150888
20755.72070 0.150879
20756.14062 0.15087
20756.56055 0.150861
20756.97070 0.150852
20757.39062 0.150842
20757.80078 0.150833
20758.22070 0.150824
20758.64062 0.150815
20759.05078 0.150806
20759.47070 0.150796
20759.88086 0.150787
20760.30078 0.150778
20760.72070 0.150769
20761.13086 0.150759
20761.55078 0.15075
20761.96094 0.15074
20762.38086 0.150731
20762.80078 0.150722
20763.21094 0.150712
20763.63086 0.150703
20764.03906 0.150694
20764.46094 0.150684
20764.88086 0.150675
20765.28906 0.150661
20765.71094 0.150646
20766.13086 0.15063
20766.53906 0.150615
20766.96094 0.150599
20767.38086 0.150584
20767.78906 0.150568
20768.21094 0.150553
20768.61914 0.150537
20769.03906 0.150522
20769.46094 0.150506
20769.86914 0.15049
20770.28906 0.150477
20770.71094 0.150465
20771.11914 0.150452
20771.53906 0.15044
20771.94922 0.150428
20772.36914 0.150415
20772.78906 0.150403
20773.19922 0.150391
20773.61914 0.150378
20774.03906 0.150366
20774.44922 0.150353
20774.86914 0.150341
20775.28906 0.150317
20775.69922 0.150289
20776.11914 0.150261
20776.52930 0.150232
20776.94922 0.150204
20777.36914 0.150175
20777.77930 0.150147
20778.19922 0.150118
20778.61914 0.15009
20779.02930 0.150061
20779.44922 0.150033
20779.86914 0.150004
20780.27930 0.149965
20780.69922 0.149922
20781.11914 0.149878
20781.52930 0.149835
20781.94922 0.149791
20782.35938 0.149748
20782.77930 0.149704
20783.19922 0.149661
20783.60938 0.149617
20784.02930 0.149574
20784.44922 0.14953
20784.85938 0.149487
20785.27930 0.149445
20785.69922 0.149403
20786.10938 0.149362
20786.52930 0.149321
20786.94922 0.14928
20787.35938 0.149238
20787.77930 0.149197
20788.19922 0.149155
20788.60938 0.149114
20789.02930 0.149073
20789.44922 0.149031
20789.85938 0.14899
20790.27930 0.148946
20790.69922 0.148902
20791.10938 0.148858
20791.52930 0.148813
20791.94922 0.148769
20792.35938 0.148724
20792.77930 0.14868
20793.19922 0.148635
20793.60938 0.148591
20794.02930 0.148546
20794.44922 0.148502
20794.85938 0.148457
20795.27930 0.148405
20795.69922 0.14835
20796.10938 0.148294
20796.52930 0.148239
20796.94922 0.148183
20797.35938 0.148128
20797.77930 0.148073
20798.19922 0.148017
20798.60938 0.147961
20799.02930 0.147906
20799.44922 0.14785
20799.86914 0.147795
20800.27930 0.147737
20800.69922 0.147677
20801.11914 0.147618
20801.52930 0.147558
20801.94922 0.147498
20802.36914 0.147439
20802.77930 0.147379
20803.19922 0.14732
20803.61914 0.14726
20804.02930 0.1472
20804.44922 0.147141
20804.86914 0.147081
20805.28906 0.147018
20805.69922 0.146954
20806.11914 0.14689
20806.53906 0.146825
20806.94922 0.146761
20807.36914 0.146697
20807.78906 0.146632
20808.19922 0.146568
20808.61914 0.146504
20809.03906 0.146439
20809.46094 0.146375
20809.86914 0.146311
20810.28906 0.14624
20810.71094 0.146167
20811.11914 0.146094
20811.53906 0.146021
20811.96094 0.145948
20812.36914 0.145875
20812.78906 0.145802
20813.21094 0.145729
20813.61914 0.145656
20814.03906 0.145583
20814.46094 0.14551
20814.88086 0.145436
20815.28906 0.145347
20815.71094 0.145251
20816.13086 0.145155
20816.53906 0.145059
20816.96094 0.144963
20817.38086 0.144867
20817.80078 0.14477
20818.21094 0.144674
20818.63086 0.144578
20819.05078 0.144482
20819.47070 0.144385
20819.88086 0.144289
20820.30078 0.144193
20820.72070 0.144096
20821.13086 0.144
20821.55078 0.143903
20821.97070 0.143807
20822.39062 0.14371
20822.80078 0.143613
20823.22070 0.143516
20823.64062 0.14342
20824.06055 0.143323
20824.47070 0.143226
20824.89062 0.143129
20825.31055 0.143021
20825.72070 0.14291
20826.14062 0.142798
20826.56055 0.142686
20826.98047 0.142574
20827.39062 0.142462
20827.81055 0.14235
20828.23047 0.142238
20828.65039 0.142126
20829.06055 0.142014
20829.48047 0.141902
20829.90039 0.141789
20830.32031 0.141679
20830.73047 0.141569
20831.15039 0.141458
20831.57031 0.141348
20831.99023 0.141238
20832.40039 0.141127
20832.82031 0.141017
20833.24023 0.140906
20833.66016 0.140796
20834.07031 0.140685
20834.49023 0.140575
20834.91016 0.140464
20835.33008 0.140334
20835.74023 0.140199
20836.16016 0.140064
20836.58008 0.139928
20837.00000 0.139793
20837.41992 0.139657
20837.83008 0.139522
20838.25000 0.139386
20838.66992 0.139251
20839.08984 0.139115
20839.50000 0.138979
20839.91992 0.138844
20840.33984 0.138717
20840.75977 0.138592
20841.16992 0.138467
20841.58984 0.138342
20842.00977 0.138217
20842.42969 0.138092
20842.84961 0.137966
20843.25977 0.137842
20843.67969 0.137716
20844.09961 0.137591
20844.51953 0.137466
20844.92969 0.13734
20845.34961 0.137199
20845.76953 0.137054
20846.18945 0.136909
20846.60938 0.136765
20847.01953 0.13662
20847.43945 0.136475
20847.85938 0.13633
20848.27930 0.136186
20848.68945 0.136041
20849.10938 0.135896
20849.52930 0.13575
20849.94922 0.135605
20850.36914 0.135447
20850.77930 0.135286
20851.19922 0.135125
20851.61914 0.134964
20852.03906 0.134803
20852.46094 0.134642
20852.86914 0.134481
20853.28906 0.13432
20853.71094 0.134159
20854.13086 0.133997
20854.53906 0.133836
20854.96094 0.133675
20855.38086 0.133506
20855.80078 0.133336
20856.22070 0.133166
20856.63086 0.132996
20857.05078 0.132826
20857.47070 0.132655
20857.89062 0.132485
20858.31055 0.132315
20858.72070 0.132145
20859.14062 0.131974
20859.56055 0.131804
20859.98047 0.131633
20860.40039 0.131474
20860.81055 0.131315
20861.23047 0.131155
20861.65039 0.130996
20862.07031 0.130837
20862.49023 0.130678
20862.90039 0.130518
20863.32031 0.130359
20863.74023 0.130199
20864.16016 0.130039
20864.58008 0.12988
20865.00000 0.12972
20865.41016 0.129537
20865.83008 0.129353
20866.25000 0.129169
20866.66992 0.128985
20867.08984 0.128801
20867.50000 0.128616
20867.91992 0.128431
20868.33984 0.128247
20868.75977 0.128063
20869.17969 0.127879
20869.59961 0.127694
20870.00977 0.12751
20870.42969 0.127333
20870.84961 0.127155
20871.26953 0.126977
20871.68945 0.1268
20872.10938 0.126622
20872.51953 0.126445
20872.93945 0.126267
20873.35938 0.126089
20873.77930 0.125911
20874.19922 0.125733
20874.61914 0.125556
20875.02930 0.125376
20875.44922 0.125171
20875.86914 0.124967
20876.28906 0.124763
20876.71094 0.12456
20877.11914 0.124356
20877.53906 0.124151
20877.96094 0.123947
20878.38086 0.123743
20878.80078 0.123539
20879.22070 0.123334
20879.64062 0.12313
20880.05078 0.122925
20880.47070 0.122718
20880.89062 0.12251
20881.31055 0.122303
20881.73047 0.122096
20882.15039 0.121889
20882.57031 0.121681
20882.98047 0.121474
20883.40039 0.121267
20883.82031 0.121058
20884.24023 0.120851
20884.66016 0.120644
20885.08008 0.120434
20885.50000 0.120213
20885.91016 0.119992
20886.33008 0.119772
20886.75000 0.11955
20887.16992 0.11933
20887.58984 0.119109
20888.00977 0.118888
20888.42969 0.118667
20888.83984 0.118446
20889.25977 0.118225
20889.67969 0.118004
20890.09961 0.117786
20890.51953 0.117574
20890.93945 0.117364
20891.35938 0.117152
20891.77930 0.116942
20892.18945 0.116731
20892.60938 0.11652
20893.02930 0.116309
20893.44922 0.116098
20893.86914 0.115887
20894.28906 0.115676
20894.71094 0.115464
20895.13086 0.115252
20895.53906 0.115037
20895.96094 0.114822
20896.38086 0.114607
20896.80078 0.114392
20897.22070 0.114177
20897.64062 0.113961
20898.06055 0.113747
20898.47070 0.113532
20898.89062 0.113316
20899.31055 0.113101
20899.73047 0.112885
20900.15039 0.112666
20900.57031 0.112439
20900.99023 0.112212
20901.41016 0.111985
20901.83008 0.111758
20902.25000 0.11153
20902.66016 0.111303
20903.08008 0.111076
20903.50000 0.110849
20903.91992 0.110621
20904.33984 0.110394
20904.75977 0.110166
20905.17969 0.109941
20905.59961 0.109717
20906.01953 0.109495
20906.43945 0.109271
20906.84961 0.109049
20907.26953 0.108825
20907.68945 0.108602
20908.10938 0.108379
20908.52930 0.108156
20908.94922 0.107932
20909.36914 0.107709
20909.78906 0.107485
20910.21094 0.107255
20910.61914 0.107017
20911.03906 0.106778
20911.46094 0.10654
20911.88086 0.106302
20912.30078 0.106064
20912.72070 0.105825
20913.14062 0.105587
20913.56055 0.105349
20913.98047 0.10511
20914.40039 0.104872
20914.82031 0.104633
20915.24023 0.104393
20915.65039 0.104154
20916.07031 0.103914
20916.49023 0.103675
20916.91016 0.103434
20917.33008 0.103194
20917.75000 0.102954
20918.16992 0.102714
20918.58984 0.102473
20919.00977 0.102234
20919.42969 0.101993
20919.84961 0.101752
20920.26953 0.101513
20920.68945 0.101273
20921.10938 0.101032
20921.51953 0.100793
20921.93945 0.100553
20922.35938 0.100312
20922.77930 0.100073
20923.19922 0.099833
20923.61914 0.099592
20924.03906 0.099353
20924.46094 0.099112
20924.88086 0.098871
20925.30078 0.098634
20925.72070 0.098399
20926.14062 0.098164
20926.56055 0.097928
20926.97070 0.097693
20927.39062 0.097457
20927.81055 0.097221
20928.23047 0.096984
20928.65039 0.096749
20929.07031 0.096513
20929.49023 0.096277
20929.91016 0.09604
20930.33008 0.095807
20930.75000 0.095573
20931.16992 0.095339
20931.58984 0.095104
20932.00977 0.09487
20932.42969 0.094637
20932.84961 0.094402
20933.26953 0.094168
20933.68945 0.093933
20934.10938 0.093699
20934.52930 0.093465
20934.94922 0.093231
20935.36914 0.092999
20935.78906 0.092767
20936.21094 0.092536
20936.61914 0.092305
20937.03906 0.092074
20937.46094 0.091842
20937.88086 0.09161
20938.30078 0.091379
20938.72070 0.091147
20939.14062 0.090915
20939.56055 0.090684
20939.98047 0.090452
20940.40039 0.090214
20940.82031 0.089976
20941.24023 0.089738
20941.66016 0.089499
20942.08008 0.089261
20942.50000 0.089023
20942.91992 0.088785
20943.33984 0.088547
20943.75977 0.088308
20944.17969 0.08807
20944.59961 0.087831
20945.01953 0.087592
20945.43945 0.087355
20945.85938 0.087118
20946.27930 0.086881
20946.69922 0.086644
20947.11914 0.086406
20947.53906 0.086169
20947.96094 0.085932
20948.38086 0.085695
20948.78906 0.085458
20949.21094 0.085221
20949.63086 0.084983
20950.05078 0.084745
20950.47070 0.084505
20950.89062 0.084265
20951.31055 0.084025
20951.73047 0.083785
20952.15039 0.083545
20952.57031 0.083305
20952.99023 0.083064
20953.41016 0.082824
20953.83008 0.082584
20954.25000 0.082343
20954.66992 0.082103
20955.08984 0.081865
20955.50977 0.081638
20955.92969 0.08141
20956.34961 0.081183
20956.76953 0.080955
20957.18945 0.080728
20957.61914 0.080499
20958.03906 0.080271
20958.46094 0.080044
20958.86914 0.079816
20959.28906 0.079588
20959.71094 0.07936
20960.13086 0.079135
20960.55078 0.078918
20960.97070 0.0787
20961.39062 0.078482
20961.81055 0.078264
20962.23047 0.078046
20962.65039 0.077828
20963.08008 0.077609
20963.50000 0.077391
20963.91992 0.077173
20964.33984 0.076955
20964.75977 0.076737
20965.17969 0.076516
20965.59961 0.076292
20966.01953 0.076068
20966.43945 0.075844
20966.85938 0.075618
20967.27930 0.075394
20967.69922 0.07517
20968.11914 0.074945
20968.53906 0.074721
20968.96094 0.074496
20969.38086 0.074271
20969.80078 0.074046
20970.22070 0.07383
20970.64062 0.073622
20971.06055 0.073414
20971.48047 0.073206
20971.90039 0.072997
20972.32031 0.072788
20972.74023 0.07258
20973.16016 0.072372
20973.58008 0.072163
20974.00000 0.071954
20974.41992 0.071745
20974.83984 0.071537
20975.25977 0.071322
20975.67969 0.071103
20976.09961 0.070884
20976.51953 0.070666
20976.93945 0.070447
20977.36914 0.070227
20977.78906 0.070009
20978.21094 0.06979
20978.63086 0.069571
20979.05078 0.069351
20979.47070 0.069132
20979.89062 0.068913
20980.31055 0.068691
20980.73047 0.068466
20981.15039 0.068242
20981.57031 0.068018
20981.99023 0.067793
20982.41016 0.067569
20982.83008 0.067345
20983.25000 0.06712
20983.66992 0.066896
20984.08984 0.066672
20984.50977 0.066447
20984.92969 0.066222
20985.34961 0.066011
20985.76953 0.065802
20986.19922 0.065591
20986.61914 0.065382
20987.03906 0.065173
20987.46094 0.064963
20987.88086 0.064754
20988.30078 0.064543
20988.72070 0.064334
20989.14062 0.064125
20989.56055 0.063914
20989.98047 0.063705
20990.40039 0.063519
20990.82031 0.063333
20991.24023 0.063148
20991.66016 0.062963
20992.08008 0.062778
20992.50000 0.062593
20992.92969 0.062407
20993.34961 0.062222
20993.76953 0.062036
20994.18945 0.061851
20994.60938 0.061665
20995.02930 0.061479
20995.44922 0.061289
20995.86914 0.061098
20996.28906 0.060907
20996.71094 0.060716
20997.13086 0.060526
20997.55078 0.060334
20997.97070 0.060144
20998.40039 0.059952
20998.82031 0.059762
20999.24023 0.059571
20999.66016 0.05938
21000.08008 0.059189
21000.50000 0.058995
21000.91992 0.058802
21001.33984 0.058608
21001.75977 0.058415
21002.17969 0.058221
21002.59961 0.058028
21003.02930 0.057835
21003.44922 0.057642
21003.86914 0.057448
21004.28906 0.057254
21004.71094 0.057061
21005.13086 0.056869
21005.55078 0.056685
21005.97070 0.056499
21006.39062 0.056314
21006.81055 0.056128
21007.23047 0.055944
21007.66016 0.055758
21008.08008 0.055573
21008.50000 0.055387
21008.91992 0.055202
21009.33984 0.055017
21009.75977 0.054831
21010.17969 0.054646
21010.59961 0.05446
21011.02930 0.054274
21011.44922 0.054089
21011.86914 0.053903
21012.28906 0.053718
21012.71094 0.053532
21013.13086 0.053346
21013.55078 0.053161
21013.97070 0.052975
21014.39062 0.05279
21014.81055 0.052604
21015.24023 0.05242
21015.66016 0.052237
21016.08008 0.052053
21016.50000 0.051869
21016.91992 0.051686
21017.33984 0.051502
21017.75977 0.051318
21018.17969 0.051135
21018.60938 0.050952
21019.02930 0.050768
21019.44922 0.050585
21019.86914 0.050401
21020.28906 0.050229
21020.71094 0.050064
21021.13086 0.049898
21021.55078 0.049732
21021.97070 0.049566
21022.40039 0.0494
21022.82031 0.049234
21023.24023 0.049068
21023.66016 0.048902
21024.08008 0.048736
21024.50000 0.04857
21024.92969 0.048404
21025.34961 0.048247
21025.76953 0.04809
21026.18945 0.047934
21026.60938 0.047778
21027.02930 0.047623
21027.44922 0.047466
21027.88086 0.04731
21028.30078 0.047154
21028.72070 0.046999
21029.14062 0.046843
21029.56055 0.046686
21029.98047 0.04653
21030.40039 0.046374
21030.82031 0.046218
21031.25000 0.046061
21031.66992 0.045904
21032.08984 0.045748
21032.50977 0.045591
21032.92969 0.045435
21033.34961 0.045279
21033.77930 0.045122
21034.19922 0.044965
21034.61914 0.044809
21035.03906 0.044653
21035.46094 0.044508
21035.88086 0.044362
21036.30078 0.044216
21036.73047 0.04407
21037.15039 0.043924
21037.57031 0.043778
21037.99023 0.043632
21038.41016 0.043487
21038.83008 0.043341
21039.25977 0.043195
21039.67969 0.043049
21040.09961 0.0429
21040.51953 0.042742
21040.93945 0.042585
21041.36914 0.042427
21041.78906 0.04227
21042.21094 0.042112
21042.63086 0.041955
21043.05078 0.041798
21043.47070 0.04164
21043.89062 0.041482
21044.32031 0.041325
21044.74023 0.041167
21045.16016 0.041014
21045.58008 0.040869
21046.00000 0.040724
21046.42969 0.040579
21046.84961 0.040434
21047.26953 0.040289
21047.68945 0.040144
21048.10938 0.039999
21048.53906 0.039854
21048.96094 0.039709
21049.38086 0.039564
21049.80078 0.039419
21050.22070 0.03928
21050.64062 0.039147
21051.07031 0.039013
21051.49023 0.03888
21051.91016 0.038747
21052.33008 0.038614
21052.75000 0.03848
21053.17969 0.038347
21053.59961 0.038214
21054.01953 0.038081
21054.43945 0.037947
21054.85938 0.037814
21055.28906 0.037688
21055.71094 0.037564
21056.13086 0.037441
21056.55078 0.037318
21056.97070 0.037194
21057.39062 0.037071
21057.82031 0.036948
21058.24023 0.036825
21058.66016 0.036701
21059.08008 0.036577
21059.50977 0.036454
21059.92969 0.036331
21060.34961 0.036204
21060.76953 0.036077
21061.18945 0.035949
21061.61914 0.035822
21062.03906 0.035694
21062.46094 0.035567
21062.88086 0.035439
21063.30078 0.035312
21063.73047 0.035184
21064.15039 0.035057
21064.57031 0.03493
21064.99023 0.034802
21065.41016 0.034688
21065.83984 0.034574
21066.25977 0.03446
21066.67969 0.034346
21067.09961 0.034232
21067.52930 0.034118
21067.94922 0.034004
21068.36914 0.03389
21068.78906 0.033776
21069.21094 0.033662
21069.64062 0.033548
21070.06055 0.033434
21070.48047 0.033318
21070.90039 0.033203
21071.33008 0.033088
21071.75000 0.032973
21072.16992 0.032857
21072.58984 0.032742
21073.01953 0.032626
21073.43945 0.032511
21073.85938 0.032396
21074.27930 0.03228
21074.71094 0.032165
21075.13086 0.032049
21075.55078 0.03193
21075.97070 0.03181
21076.39062 0.031691
21076.82031 0.031573
21077.24023 0.031453
21077.66016 0.031334
21078.08008 0.031215
21078.50977 0.031097
21078.92969 0.030977
21079.34961 0.030858
21079.76953 0.030739
21080.19922 0.030627
21080.61914 0.030522
21081.03906 0.030418
21081.46094 0.030313
21081.89062 0.030208
21082.31055 0.030104
21082.73047 0.029999
21083.15039 0.029894
21083.58008 0.02979
21084.00000 0.029685
21084.41992 0.02958
21084.83984 0.029476
21085.26953 0.029376
21085.68945 0.029281
21086.10938 0.029185
21086.53906 0.029089
21086.96094 0.028993
21087.38086 0.028897
21087.80078 0.028801
21088.22070 0.028705
21088.65039 0.028609
21089.07031 0.028513
21089.49023 0.028417
21089.91992 0.028321
21090.33984 0.028231
21090.75977 0.028142
21091.17969 0.028053
21091.60938 0.027965
21092.02930 0.027875
21092.44922 0.027787
21092.86914 0.027697
21093.30078 0.027609
21093.72070 0.02752
21094.14062 0.027431
21094.57031 0.027342
21094.99023 0.027253
21095.41016 0.027161
21095.83008 0.027068
21096.25977 0.026975
21096.67969 0.026882
21097.09961 0.02679
21097.52930 0.026697
21097.94922 0.026605
21098.36914 0.026512
21098.78906 0.026419
21099.22070 0.026326
21099.64062 0.026234
21100.06055 0.02614
21100.48047 0.026038
21100.91016 0.025936
21101.33008 0.025834
21101.75000 0.025732
21102.17969 0.025631
21102.59961 0.025528
21103.01953 0.025427
21103.44922 0.025325
21103.86914 0.025222
21104.28906 0.025121
21104.71094 0.025019
21105.14062 0.02492
21105.56055 0.024829
21105.98047 0.024738
21106.41016 0.024647
21106.83008 0.024556
21107.25000 0.024464
21107.67969 0.024373
21108.09961 0.024282
21108.51953 0.02419
21108.93945 0.024099
21109.36914 0.024008
21109.78906 0.023916
21110.21094 0.023837
21110.64062 0.023769
21111.06055 0.0237
21111.48047 0.023633
21111.91016 0.023564
21112.33008 0.023496
21112.75000 0.023428
21113.17969 0.02336
21113.59961 0.023292
21114.01953 0.023224
21114.44922 0.023156
21114.86914 0.023088
21115.28906 0.023011
21115.71094 0.02293
21116.14062 0.02285
21116.56055 0.022769
21116.98047 0.022688
21117.41016 0.022608
21117.83008 0.022527
21118.25000 0.022446
21118.67969 0.022366
21119.09961 0.022285
21119.51953 0.022204
21119.94922 0.022123
21120.36914 0.022046
21120.78906 0.021969
21121.22070 0.021891
21121.64062 0.021815
21122.06055 0.021737
21122.49023 0.02166
21122.91016 0.021583
21123.33008 0.021506
21123.75977 0.021429
21124.17969 0.021352
21124.59961 0.021274
21125.02930 0.021198
21125.44922 0.021133
21125.86914 0.021067
21126.30078 0.021002
21126.72070 0.020937
21127.14062 0.020872
21127.57031 0.020806
21127.99023 0.020741
21128.41016 0.020676
21128.83984 0.02061
21129.25977 0.020545
21129.67969 0.02048
21130.10938 0.020413
21130.52930 0.020341
21130.96094 0.020269
21131.38086 0.020198
21131.80078 0.020126
21132.22070 0.020055
21132.65039 0.019983
21133.07031 0.019911
21133.50000 0.019839
21133.91992 0.019768
21134.33984 0.019696
21134.76953 0.019624
21135.18945 0.019552
21135.60938 0.019478
21136.03906 0.019404
21136.46094 0.019331
21136.88086 0.019257
21137.31055 0.019183
21137.73047 0.01911
21138.15039 0.019036
21138.58008 0.018962
21139.00000 0.018889
21139.42969 0.018815
21139.84961 0.018741
21140.26953 0.018672
21140.69922 0.018605
21141.11914 0.018538
21141.53906 0.018471
21141.97070 0.018404
21142.39062 0.018337
21142.81055 0.01827
21143.24023 0.018203
21143.66016 0.018136
21144.08984 0.018068
21144.50977 0.018001
21144.92969 0.017934
21145.35938 0.017883
21145.77930 0.017834
21146.21094 0.017786
21146.63086 0.017737
21147.05078 0.017688
21147.48047 0.01764
21147.90039 0.017591
21148.32031 0.017543
21148.75000 0.017494
21149.16992 0.017445
21149.59961 0.017397
21150.01953 0.017348
21150.43945 0.017286
21150.86914 0.017224
21151.28906 0.017162
21151.71094 0.017101
21152.14062 0.017039
21152.56055 0.016977
21152.99023 0.016915
21153.41016 0.016853
21153.83984 0.016791
21154.25977 0.01673
21154.67969 0.016668
21155.10938 0.016608
21155.52930 0.016555
21155.96094 0.016502
21156.38086 0.016449
21156.80078 0.016396
21157.23047 0.016343
21157.65039 0.01629
21158.07031 0.016237
21158.50000 0.016183
21158.91992 0.01613
21159.34961 0.016077
21159.76953 0.016024
21160.19922 0.015974
21160.61914 0.015928
21161.03906 0.015881
21161.47070 0.015835
21161.89062 0.015788
21162.32031 0.015741
21162.74023 0.015695
21163.16016 0.015648
21163.58984 0.015602
21164.00977 0.015555
21164.43945 0.015508
21164.85938 0.015462
21165.28906 0.015412
21165.71094 0.01536
21166.13086 0.015307
21166.56055 0.015255
21166.98047 0.015203
21167.41016 0.015151
21167.83008 0.015099
21168.25000 0.015047
21168.67969 0.014995
21169.09961 0.014943
21169.52930 0.01489
21169.94922 0.014838
21170.36914 0.014788
21170.80078 0.014738
21171.22070 0.014687
21171.65039 0.014637
21172.07031 0.014587
21172.50000 0.014536
21172.91992 0.014486
21173.34961 0.014436
21173.76953 0.014386
21174.19922 0.014335
21174.61914 0.014285
21175.03906 0.014236
21175.47070 0.014191
21175.89062 0.014145
21176.32031 0.0141
21176.74023 0.014055
21177.16992 0.01401
21177.58984 0.013965
21178.00977 0.01392
21178.43945 0.013875
21178.85938 0.01383
21179.28906 0.013785
21179.71094 0.013739
21180.14062 0.013694
21180.56055 0.013648
21180.99023 0.013601
21181.41016 0.013555
21181.83008 0.013509
21182.25977 0.013462
21182.67969 0.013416
21183.10938 0.01337
21183.52930 0.013323
21183.96094 0.013277
21184.38086 0.013231
21184.81055 0.013184
21185.23047 0.01314
21185.66016 0.013097
21186.08008 0.013054
21186.50000 0.013012
21186.92969 0.012969
21187.34961 0.012926
21187.77930 0.012883
21188.19922 0.01284
21188.63086 0.012798
21189.05078 0.012755
21189.48047 0.012712
21189.90039 0.012669
21190.33008 0.012627
21190.75000 0.012584
21191.17969 0.012541
21191.59961 0.012498
21192.02930 0.012455
21192.44922 0.012412
21192.86914 0.012369
21193.30078 0.012326
21193.72070 0.012283
21194.15039 0.012241
21194.57031 0.012198
21195.00000 0.012155
21195.41992 0.012106
21195.84961 0.012058
21196.26953 0.01201
21196.69922 0.011962
21197.11914 0.011914
21197.55078 0.011865
21197.97070 0.011817
21198.40039 0.011769
21198.82031 0.011721
21199.25000 0.011672
21199.66992 0.011624
21200.09961 0.011582
21200.51953 0.011559
21200.94922 0.011537
21201.36914 0.011515
21201.78906 0.011492
21202.22070 0.01147
21202.65039 0.011448
21203.07031 0.011425
21203.50000 0.011403
21203.91992 0.011381
21204.34961 0.011358
21204.76953 0.011336
21205.19922 0.011306
21205.61914 0.011268
21206.03906 0.011231
21206.47070 0.011193
21206.89062 0.011155
21207.32031 0.011117
21207.75000 0.011079
21208.16992 0.011041
21208.59961 0.011003
21209.01953 0.010966
21209.44922 0.010928
21209.86914 0.01089
21210.28906 0.010847
21210.72070 0.010802
21211.15039 0.010757
21211.57031 0.010712
21212.00000 0.010666
21212.41992 0.010621
21212.84961 0.010576
21213.26953 0.010531
21213.69922 0.010486
21214.11914 0.010441
21214.55078 0.010396
21214.97070 0.01035
21215.40039 0.01032
21215.82031 0.01029
21216.25000 0.010261
21216.66992 0.010231
21217.09961 0.010202
21217.51953 0.010172
21217.94922 0.010142
21218.36914 0.010113
21218.80078 0.010083
21219.22070 0.010053
21219.65039 0.010024
21220.07031 0.009996
21220.50000 0.009974
21220.92969 0.009953
21221.34961 0.009931
21221.77930 0.00991
21222.19922 0.009889
21222.63086 0.009867
21223.05078 0.009846
21223.48047 0.009824
21223.90039 0.009803
21224.33008 0.009781
21224.75000 0.00976
21225.17969 0.009734
21225.59961 0.009703
21226.02930 0.009672
21226.46094 0.009641
21226.88086 0.00961
21227.31055 0.009579
21227.73047 0.009547
21228.16016 0.009516
21228.58008 0.009485
21229.00977 0.009454
21229.42969 0.009423
21229.85938 0.009391
21230.27930 0.009364
21230.71094 0.009338
21231.13086 0.009312
21231.56055 0.009286
21231.99023 0.00926
21232.41016 0.009234
21232.83984 0.009208
21233.25977 0.009182
21233.68945 0.009156
21234.10938 0.00913
21234.53906 0.009104
21234.96094 0.009078
21235.39062 0.009052
21235.82031 0.009027
21236.24023 0.009001
21236.66992 0.008976
21237.08984 0.00895
21237.51953 0.008925
21237.93945 0.008899
21238.36914 0.008873
21238.78906 0.008848
21239.22070 0.008822
21239.65039 0.008797
21240.07031 0.008769
21240.50000 0.008731
21240.91992 0.008694
21241.34961 0.008656
21241.77930 0.008619
21242.19922 0.008581
21242.63086 0.008543
21243.05078 0.008506
21243.48047 0.008468
21243.90039 0.008431
21244.33008 0.008393
21244.75977 0.008355
21245.17969 0.008321
21245.60938 0.008289
21246.02930 0.008258
21246.46094 0.008227
21246.88086 0.008196
21247.31055 0.008165
21247.74023 0.008134
21248.16016 0.008103
21248.58984 0.008071
21249.00977 0.00804
21249.43945 0.008009
21249.86914 0.007978
21250.28906 0.007958
21250.72070 0.007944
21251.14062 0.00793
21251.57031 0.007916
21251.99023 0.007902
21252.41992 0.007888
21252.84961 0.007874
21253.26953 0.00786
21253.69922 0.007846
21254.11914 0.007832
21254.55078 0.007818
21254.98047 0.007804
21255.40039 0.007787
21255.83008 0.007769
21256.25000 0.007752
21256.67969 0.007734
21257.10938 0.007716
21257.52930 0.007699
21257.96094 0.007681
21258.38086 0.007664
21258.81055 0.007646
21259.24023 0.007629
21259.66016 0.007611
21260.08984 0.007593
21260.51953 0.007572
21260.93945 0.007551
21261.36914 0.00753
21261.78906 0.007509
21262.22070 0.007488
21262.64062 0.007467
21263.07031 0.007446
21263.50000 0.007426
21263.91992 0.007405
21264.34961 0.007384
21264.77930 0.007363
21265.19922 0.00734
21265.63086 0.007314
21266.05078 0.007288
21266.48047 0.007262
21266.91016 0.007237
21267.33008 0.007211
21267.75977 0.007185
21268.18945 0.007159
21268.60938 0.007134
21269.03906 0.007108
21269.46094 0.007082
21269.89062 0.007056
21270.32031 0.007033
21270.74023 0.00701
21271.16992 0.006987
21271.59961 0.006963
21272.01953 0.00694
21272.44922 0.006917
21272.86914 0.006894
21273.30078 0.006871
21273.73047 0.006848
21274.15039 0.006825
21274.58008 0.006802
21275.00977 0.006779
21275.42969 0.006751
21275.85938 0.006723
21276.28906 0.006696
21276.71094 0.006668
21277.14062 0.00664
21277.56055 0.006613
21277.99023 0.006585
21278.41992 0.006557
21278.83984 0.006529
21279.26953 0.006502
21279.69922 0.006474
21280.11914 0.006451
21280.55078 0.006438
21280.98047 0.006425
21281.40039 0.006412
21281.83008 0.006399
21282.25977 0.006387
21282.67969 0.006374
21283.10938 0.006361
21283.53906 0.006348
21283.96094 0.006335
21284.39062 0.006322
21284.82031 0.00631
21285.24023 0.006293
21285.66992 0.006274
21286.09961 0.006254
21286.51953 0.006235
21286.94922 0.006216
21287.38086 0.006197
21287.80078 0.006177
21288.23047 0.006158
21288.65039 0.006139
21289.08008 0.006119
21289.50977 0.0061
21289.93945 0.006081
21290.35938 0.00607
21290.78906 0.006062
21291.21094 0.006053
21291.64062 0.006044
21292.07031 0.006036
21292.50000 0.006027
21292.91992 0.006018
21293.34961 0.006009
21293.77930 0.006001
21294.19922 0.005992
21294.63086 0.005983
21295.06055 0.005973
21295.48047 0.005952
21295.91016 0.00593
21296.33984 0.005909
21296.75977 0.005888
21297.18945 0.005866
21297.61914 0.005845
21298.03906 0.005824
21298.47070 0.005802
21298.90039 0.005781
21299.32031 0.00576
21299.75000 0.005738
21300.17969 0.005715
21300.60938 0.005689
21301.02930 0.005664
21301.46094 0.005638
21301.88086 0.005613
21302.31055 0.005587
21302.74023 0.005561
21303.16992 0.005536
21303.58984 0.00551
21304.01953 0.005485
21304.44922 0.005459
21304.88086 0.005433
21305.30078 0.005423
21305.73047 0.005419
21306.15039 0.005414
21306.58008 0.00541
21307.00977 0.005406
21307.43945 0.005401
21307.85938 0.005397
21308.28906 0.005392
21308.72070 0.005388
21309.14062 0.005384
21309.57031 0.005379
21310.00000 0.005375
21310.42969 0.005359
21310.84961 0.005342
21311.27930 0.005326
21311.71094 0.00531
21312.13086 0.005293
21312.56055 0.005277
21312.99023 0.005261
21313.41992 0.005244
21313.83984 0.005228
21314.26953 0.005212
21314.69922 0.005195
21315.11914 0.005176
21315.55078 0.005151
21315.98047 0.005126
21316.41016 0.0051
21316.83008 0.005075
21317.25977 0.00505
21317.68945 0.005024
21318.11914 0.004999
21318.53906 0.004974
21318.97070 0.004948
21319.40039 0.004923
21319.82031 0.004898
21320.25000 0.004881
21320.67969 0.004871
21321.10938 0.00486
21321.52930 0.00485
21321.96094 0.00484
21322.39062 0.00483
21322.81055 0.004819
21323.24023 0.004809
21323.66992 0.004799
21324.09961 0.004788
21324.51953 0.004778
21324.94922 0.004768
21325.38086 0.004764
21325.81055 0.004761
21326.23047 0.004758
21326.66016 0.004755
21327.08984 0.004752
21327.51953 0.004749
21327.93945 0.004746
21328.36914 0.004743
21328.80078 0.00474
21329.23047 0.004737
21329.65039 0.004734
21330.08008 0.004727
21330.50977 0.004704
21330.93945 0.004681
21331.35938 0.004658
21331.78906 0.004636
21332.22070 0.004613
21332.65039 0.00459
21333.07031 0.004567
21333.50000 0.004544
21333.92969 0.004521
21334.35938 0.004499
21334.77930 0.004476
21335.21094 0.004459
21335.64062 0.004448
21336.07031 0.004437
21336.49023 0.004426
21336.91992 0.004415
21337.34961 0.004404
21337.77930 0.004393
21338.21094 0.004382
21338.63086 0.004371
21339.06055 0.00436
21339.49023 0.004349
21339.91016 0.004338
21340.33984 0.004329
21340.76953 0.004319
21341.19922 0.00431
21341.63086 0.004301
21342.05078 0.004291
21342.48047 0.004282
21342.91016 0.004272
21343.33984 0.004263
21343.75977 0.004254
21344.18945 0.004244
21344.61914 0.004235
21345.05078 0.004226
21345.47070 0.004219
21345.90039 0.004211
21346.33008 0.004204
21346.75977 0.004197
21347.18945 0.00419
21347.61914 0.004183
21348.03906 0.004176
21348.47070 0.004168
21348.90039 0.004161
21349.33008 0.004154
21349.75000 0.004147
21350.17969 0.004138
21350.60938 0.004128
21351.03906 0.004117
21351.46094 0.004106
21351.89062 0.004096
21352.32031 0.004085
21352.75000 0.004074
21353.17969 0.004063
21353.60938 0.004053
21354.02930 0.004042
21354.46094 0.004031
21354.89062 0.004021
21355.32031 0.004012
21355.74023 0.004004
21356.16992 0.003995
21356.59961 0.003987
21357.02930 0.003979
21357.46094 0.003971
21357.88086 0.003962
21358.31055 0.003954
21358.74023 0.003946
21359.16992 0.003938
21359.59961 0.003929
21360.02930 0.003921
21360.44922 0.00391
21360.88086 0.003899
21361.31055 0.003888
21361.74023 0.003878
21362.16992 0.003867
21362.58984 0.003856
21363.01953 0.003845
21363.44922 0.003834
21363.88086 0.003823
21364.31055 0.003813
21364.73047 0.003802
21365.16016 0.003785
21365.58984 0.003758
21366.01953 0.003732
21366.44922 0.003705
21366.86914 0.003678
21367.30078 0.003652
21367.73047 0.003625
21368.16016 0.003599
21368.58984 0.003572
21369.01953 0.003545
21369.44922 0.003519
21369.86914 0.003492
21370.30078 0.003485
21370.73047 0.003487
21371.16016 0.003489
21371.58984 0.00349
21372.01953 0.003492
21372.43945 0.003493
21372.86914 0.003495
21373.30078 0.003497
21373.73047 0.003498
21374.16016 0.0035
21374.58984 0.003501
21375.00977 0.003503
21375.43945 0.003491
21375.86914 0.00348
21376.30078 0.003468
21376.73047 0.003457
21377.16016 0.003445
21377.58008 0.003434
21378.00977 0.003422
21378.43945 0.003411
21378.86914 0.003399
21379.30078 0.003388
21379.73047 0.003377
21380.15039 0.003365
21380.58008 0.003353
21381.00977 0.003342
21381.43945 0.00333
21381.86914 0.003319
21382.30078 0.003307
21382.73047 0.003295
21383.15039 0.003284
21383.58008 0.003272
21384.00977 0.003261
21384.43945 0.003249
21384.86914 0.003237
21385.30078 0.003228
21385.73047 0.003219
21386.15039 0.00321
21386.58008 0.003201
21387.00977 0.003192
21387.43945 0.003183
21387.86914 0.003174
21388.30078 0.003166
21388.73047 0.003157
21389.15039 0.003148
21389.58008 0.003139
21390.00977 0.00313
21390.43945 0.003127
21390.86914 0.003124
21391.30078 0.00312
21391.73047 0.003117
21392.16016 0.003114
21392.58008 0.00311
21393.00977 0.003107
21393.43945 0.003103
21393.86914 0.0031
21394.30078 0.003097
21394.73047 0.003093
21395.16016 0.003092
21395.58984 0.003095
21396.00977 0.003098
21396.43945 0.003101
21396.86914 0.003104
21397.30078 0.003107
21397.73047 0.00311
21398.16016 0.003112
21398.58984 0.003115
21399.01953 0.003118
21399.44922 0.003121
21399.88086 0.003124
21400.30078 0.003113
21400.73047 0.003097
21401.16016 0.003082
21401.58984 0.003066
21402.01953 0.00305
21402.44922 0.003034
21402.88086 0.003018
21403.30078 0.003002
21403.73047 0.002986
21404.16016 0.00297
21404.58984 0.002954
21405.01953 0.002939
21405.44922 0.002929
21405.88086 0.002919
21406.31055 0.00291
21406.74023 0.0029
21407.16992 0.00289
21407.59961 0.002881
21408.02930 0.002871
21408.44922 0.002862
21408.88086 0.002852
21409.31055 0.002842
21409.74023 0.002833
21410.16992 0.002821
21410.59961 0.002807
21411.02930 0.002793
21411.46094 0.002779
21411.89062 0.002764
21412.31055 0.00275
21412.74023 0.002736
21413.16992 0.002722
21413.59961 0.002708
21414.02930 0.002693
21414.46094 0.002679
21414.89062 0.002665
21415.32031 0.002665
21415.75000 0.00267
21416.17969 0.002675
21416.60938 0.00268
21417.03906 0.002685
21417.46094 0.00269
21417.89062 0.002695
21418.32031 0.0027
21418.75000 0.002705
21419.17969 0.00271
21419.60938 0.002715
21420.03906 0.002719
21420.47070 0.00271
21420.90039 0.002701
21421.33008 0.002691
21421.75977 0.002682
21422.18945 0.002673
21422.61914 0.002664
21423.05078 0.002655
21423.48047 0.002646
21423.90039 0.002636
21424.33008 0.002627
21424.75977 0.002618
21425.18945 0.00261
21425.61914 0.002604
21426.05078 0.002598
21426.48047 0.002591
21426.91016 0.002585
21427.33984 0.002579
21427.76953 0.002572
21428.19922 0.002566
21428.63086 0.00256
21429.06055 0.002554
21429.49023 0.002547
21429.91992 0.002541
21430.34961 0.002531
21430.77930 0.00252
21431.21094 0.002509
21431.63086 0.002498
21432.06055 0.002486
21432.49023 0.002475
21432.91992 0.002464
21433.34961 0.002453
21433.77930 0.002442
21434.21094 0.002431
21434.64062 0.00242
21435.07031 0.00241
21435.50000 0.002403
21435.92969 0.002397
21436.35938 0.00239
21436.78906 0.002384
21437.22070 0.002377
21437.65039 0.002371
21438.08008 0.002365
21438.50977 0.002358
21438.93945 0.002352
21439.36914 0.002345
21439.80078 0.002339
21440.23047 0.002335
21440.66016 0.002332
21441.08984 0.00233
21441.51953 0.002327
21441.94922 0.002325
21442.36914 0.002323
21442.80078 0.00232
21443.23047 0.002318
21443.66016 0.002315
21444.08984 0.002313
21444.51953 0.00231
21444.94922 0.002308
21445.38086 0.002308
21445.81055 0.002308
21446.24023 0.002308
21446.66992 0.002308
21447.09961 0.002309
21447.52930 0.002309
21447.96094 0.002309
21448.39062 0.002309
21448.82031 0.002309
21449.25000 0.00231
21449.67969 0.00231
21450.10938 0.002306
21450.53906 0.00229
21450.97070 0.002274
21451.40039 0.002258
21451.83008 0.002242
21452.25977 0.002226
21452.68945 0.00221
21453.11914 0.002193
21453.55078 0.002177
21453.98047 0.002161
21454.41016 0.002145
21454.83984 0.002129
21455.26953 0.002114
21455.69922 0.0021
21456.13086 0.002086
21456.56055 0.002072
21456.99023 0.002058
21457.41992 0.002044
21457.84961 0.00203
21458.27930 0.002016
21458.71094 0.002002
21459.14062 0.001988
21459.57031 0.001974
21460.00000 0.001961
21460.42969 0.001964
21460.85938 0.001968
21461.28906 0.001972
21461.72070 0.001976
21462.15039 0.00198
21462.58008 0.001984
21463.00977 0.001988
21463.43945 0.001992
21463.86914 0.001996
21464.30078 0.002
21464.73047 0.002004
21465.16016 0.002006
21465.58984 0.002004
21466.01953 0.002003
21466.44922 0.002002
21466.88086 0.002001
21467.31055 0.001999
21467.74023 0.001998
21468.17969 0.001997
21468.60938 0.001995
21469.03906 0.001994
21469.46094 0.001993
21469.90039 0.001992
21470.33008 0.001988
21470.75977 0.001983
21471.18945 0.001978
21471.61914 0.001973
21472.05078 0.001968
21472.48047 0.001964
21472.91016 0.001959
21473.33984 0.001954
21473.76953 0.001949
21474.19922 0.001944
21474.63086 0.001939
21475.06055 0.001933
21475.49023 0.00192
21475.91992 0.001906
21476.34961 0.001892
21476.77930 0.001879
21477.21094 0.001865
21477.64062 0.001851
21478.07031 0.001838
21478.50000 0.001824
21478.92969 0.00181
21479.36914 0.001797
21479.78906 0.001783
21480.22070 0.00178
21480.66016 0.001788
21481.08984 0.001796
21481.51953 0.001803
21481.94922 0.001811
21482.38086 0.001819
21482.81055 0.001826
21483.24023 0.001834
21483.66992 0.001842
21484.09961 0.001849
21484.52930 0.001857
21484.96094 0.001865
21485.39062 0.001855
21485.82031 0.001844
21486.25000 0.001833
21486.67969 0.001821
21487.11914 0.00181
21487.53906 0.001799
21487.97070 0.001788
21488.41016 0.001776
21488.83984 0.001765
21489.26953 0.001754
21489.69922 0.001743
21490.13086 0.001732
21490.56055 0.001723
21490.99023 0.001713
21491.41992 0.001704
21491.84961 0.001695
21492.27930 0.001686
21492.71094 0.001677
21493.14062 0.001667
21493.57031 0.001658
21494.00977 0.001649
21494.43945 0.00164
21494.86914 0.00163
21495.30078 0.001629
21495.73047 0.00163
21496.16016 0.001632
21496.58984 0.001633
21497.01953 0.001635
21497.44922 0.001636
21497.88086 0.001638
21498.31055 0.001639
21498.74023 0.001641
21499.17969 0.001642
21499.60938 0.001644
21500.03906 0.001644
21500.47070 0.001634
21500.90039 0.001625
21501.33008 0.001615
21501.75977 0.001605
21502.18945 0.001595
21502.61914 0.001585
21503.05078 0.001576
21503.48047 0.001566
21503.91992 0.001556
21504.34961 0.001546
21504.77930 0.001536
21505.21094 0.001532
21505.64062 0.001533
21506.07031 0.001534
21506.50000 0.001535
21506.92969 0.001536
21507.35938 0.001537
21507.78906 0.001538
21508.22070 0.001539
21508.66016 0.00154
21509.08984 0.001541
21509.51953 0.001542
21509.94922 0.001544
21510.38086 0.00155
21510.81055 0.001558
21511.24023 0.001566
21511.66992 0.001573
21512.10938 0.001581
21512.53906 0.001589
21512.97070 0.001596
21513.40039 0.001604
21513.83008 0.001612
21514.25977 0.001619
21514.68945 0.001627
21515.11914 0.001629
21515.55078 0.001619
21515.99023 0.001608
21516.41992 0.001597
21516.84961 0.001586
21517.27930 0.001575
21517.71094 0.001564
21518.14062 0.001554
21518.57031 0.001543
21519.00000 0.001532
21519.43945 0.001521
21519.86914 0.00151
21520.30078 0.001502
21520.73047 0.001494
21521.16016 0.001487
21521.58984 0.00148
21522.01953 0.001473
21522.46094 0.001465
21522.89062 0.001458
21523.32031 0.001451
21523.75000 0.001443
21524.17969 0.001436
21524.60938 0.001429
21525.03906 0.001422
21525.47070 0.001415
21525.91016 0.001408
21526.33984 0.001401
21526.76953 0.001395
21527.19922 0.001388
21527.63086 0.001381
21528.06055 0.001374
21528.49023 0.001368
21528.92969 0.001361
21529.35938 0.001354
21529.78906 0.001347
21530.22070 0.001348
21530.65039 0.001357
21531.08008 0.001366
21531.51953 0.001375
21531.94922 0.001384
21532.38086 0.001392
21532.81055 0.001401
21533.24023 0.00141
21533.66992 0.001419
21534.09961 0.001428
21534.53906 0.001436
21534.97070 0.001445
21535.40039 0.001437
21535.83008 0.001427
21536.25977 0.001417
21536.68945 0.001407
21537.13086 0.001397
21537.56055 0.001388
21537.99023 0.001378
21538.41992 0.001368
21538.84961 0.001358
21539.27930 0.001348
21539.71094 0.001338
21540.15039 0.001331
21540.58008 0.00133
21541.00977 0.001329
21541.43945 0.001328
21541.86914 0.001327
21542.30078 0.001326
21542.74023 0.001325
21543.16992 0.001324
21543.59961 0.001323
21544.02930 0.001322
21544.46094 0.00132
21544.90039 0.001319
21545.33008 0.001314
21545.75977 0.001308
21546.18945 0.001302
21546.61914 0.001296
21547.05078 0.00129
21547.49023 0.001284
21547.91992 0.001278
21548.34961 0.001272
21548.77930 0.001266
21549.21094 0.001259
21549.65039 0.001253
21550.08008 0.001249
21550.50977 0.001251
21550.93945 0.001253
21551.36914 0.001256
21551.81055 0.001258
21552.24023 0.00126
21552.66992 0.001263
21553.09961 0.001265
21553.52930 0.001267
21553.96094 0.001269
21554.40039 0.001272
21554.83008 0.001274
21555.25977 0.001265
21555.68945 0.001249
21556.13086 0.001233
21556.56055 0.001216
21556.99023 0.0012
21557.41992 0.001184
21557.84961 0.001168
21558.28906 0.001151
21558.72070 0.001135
21559.15039 0.001119
21559.58008 0.001103
21560.00977 0.001087
21560.44922 0.0011
21560.88086 0.001112
21561.31055 0.001124
21561.74023 0.001136
21562.16992 0.001148
21562.60938 0.001161
21563.03906 0.001173
21563.47070 0.001185
21563.90039 0.001197
21564.33984 0.001209
21564.76953 0.001222
21565.19922 0.001226
21565.63086 0.00122
21566.06055 0.001215
21566.50000 0.00121
21566.92969 0.001205
21567.35938 0.0012
21567.78906 0.001194
21568.22070 0.001189
21568.66016 0.001184
21569.08984 0.001179
21569.51953 0.001174
21569.96094 0.001168
21570.39062 0.001173
21570.82031 0.001179
21571.25000 0.001185
21571.67969 0.00119
21572.11914 0.001196
21572.55078 0.001202
21572.98047 0.001208
21573.41016 0.001214
21573.84961 0.001219
21574.27930 0.001225
21574.71094 0.001231
21575.14062 0.00123
21575.57031 0.001215
21576.00977 0.0012
21576.43945 0.001184
21576.86914 0.001169
21577.30078 0.001154
21577.74023 0.001139
21578.16992 0.001124
21578.59961 0.001109
21579.03906 0.001093
21579.47070 0.001078
21579.90039 0.001063
21580.33008 0.001064
21580.75977 0.001069
21581.19922 0.001074
21581.63086 0.001079
21582.06055 0.001085
21582.49023 0.00109
21582.92969 0.001095
21583.35938 0.001101
21583.78906 0.001106
21584.22070 0.001111
21584.66016 0.001117
21585.08984 0.001119
21585.51953 0.00111
21585.96094 0.0011
21586.39062 0.001091
21586.82031 0.001082
21587.25000 0.001073
21587.68945 0.001063
21588.11914 0.001054
21588.55078 0.001045
21588.98047 0.001035
21589.41992 0.001026
21589.84961 0.001017
21590.27930 0.00101
21590.71094 0.001005
21591.15039 0.001
21591.58008 0.000995
21592.00977 0.00099
21592.44922 0.000985
21592.88086 0.00098
21593.31055 0.000975
21593.74023 0.00097
21594.17969 0.000965
21594.60938 0.00096
21595.03906 0.000957
21595.47070 0.000963
21595.91016 0.00097
21596.33984 0.000977
21596.76953 0.000984
21597.21094 0.000991
21597.64062 0.000998
21598.07031 0.001005
21598.50000 0.001011
21598.93945 0.001018
21599.36914 0.001025
21599.80078 0.001032
21600.24023 0.001029
21600.66992 0.001017
21601.09961 0.001006
21601.53906 0.000994
21601.97070 0.000983
21602.40039 0.000971
21602.83008 0.00096
21603.26953 0.000948
21603.69922 0.000937
21604.13086 0.000925
21604.56055 0.000914
21605.00000 0.000902
21605.42969 0.000907
21605.85938 0.000912
21606.30078 0.000917
21606.73047 0.000921
21607.16016 0.000926
21607.59961 0.000931
21608.02930 0.000936
21608.46094 0.000941
21608.90039 0.000945
21609.33008 0.00095
21609.75977 0.000955
21610.19922 0.000953
21610.63086 0.000942
21611.06055 0.000931
21611.49023 0.00092
21611.92969 0.000909
21612.35938 0.000899
21612.78906 0.000888
21613.23047 0.000877
21613.66016 0.000866
21614.08984 0.000855
21614.52930 0.000844
21614.96094 0.000834
21615.39062 0.000843
21615.83008 0.000854
21616.25977 0.000865
21616.68945 0.000876
21617.13086 0.000887
21617.56055 0.000898
21617.99023 0.000909
21618.42969 0.00092
21618.85938 0.000931
21619.28906 0.000942
21619.72070 0.000953
21620.16016 0.000957
21620.58984 0.000948
21621.02930 0.000939
21621.46094 0.00093
21621.89062 0.000922
21622.32031 0.000913
21622.75977 0.000904
21623.18945 0.000895
21623.61914 0.000887
21624.06055 0.000878
21624.49023 0.000869
21624.92969 0.00086
21625.35938 0.000853
21625.78906 0.000846
21626.22070 0.000839
21626.66016 0.000832
21627.08984 0.000825
21627.52930 0.000818
21627.96094 0.000811
21628.39062 0.000804
21628.83008 0.000797
21629.25977 0.00079
21629.68945 0.000782
21630.13086 0.00078
21630.56055 0.000787
21630.99023 0.000794
21631.42969 0.000801
21631.85938 0.000808
21632.28906 0.000815
21632.73047 0.000822
21633.16016 0.000829
21633.58984 0.000837
21634.02930 0.000844
21634.46094 0.000851
21634.89062 0.000858
21635.33008 0.000855
21635.75977 0.000849
21636.19922 0.000844
21636.63086 0.000838
21637.06055 0.000832
21637.50000 0.000826
21637.92969 0.00082
21638.36914 0.000814
21638.80078 0.000808
21639.23047 0.000802
21639.66992 0.000797
21640.09961 0.000792
21640.52930 0.000793
21640.97070 0.000793
21641.40039 0.000794
21641.83008 0.000795
21642.26953 0.000795
21642.69922 0.000796
21643.13086 0.000796
21643.57031 0.000797
21644.00000 0.000797
21644.43945 0.000798
21644.86914 0.000799
21645.30078 0.000796
21645.74023 0.000791
21646.16992 0.000787
21646.60938 0.000782
21647.03906 0.000778
21647.47070 0.000773
21647.91016 0.000769
21648.33984 0.000764
21648.77930 0.00076
21649.21094 0.000755
21649.64062 0.000751
21650.08008 0.000749
21650.50977 0.000759
21650.93945 0.000768
21651.38086 0.000778
21651.81055 0.000787
21652.25000 0.000797
21652.67969 0.000807
21653.10938 0.000816
21653.55078 0.000826
21653.98047 0.000835
21654.41992 0.000845
21654.84961 0.000855
21655.27930 0.000858
21655.72070 0.000859
21656.15039 0.000859
21656.58984 0.00086
21657.01953 0.00086
21657.44922 0.000861
21657.89062 0.000862
21658.32031 0.000862
21658.75977 0.000863
21659.18945 0.000863
21659.61914 0.000864
21660.06055 0.000862
21660.49023 0.000844
21660.92969 0.000827
21661.35938 0.000809
21661.78906 0.000792
21662.23047 0.000774
21662.66016 0.000757
21663.09961 0.000739
21663.52930 0.000722
21663.96094 0.000705
21664.40039 0.000687
21664.83008 0.00067
21665.26953 0.000665
21665.69922 0.000669
21666.14062 0.000672
21666.57031 0.000675
21667.00977 0.000679
21667.43945 0.000682
21667.86914 0.000686
21668.31055 0.000689
21668.74023 0.000693
21669.17969 0.000696
21669.60938 0.0007
21670.03906 0.000701
21670.48047 0.000685
21670.91016 0.000669
21671.34961 0.000653
21671.77930 0.000637
21672.22070 0.00062
21672.65039 0.000604
21673.08984 0.000588
21673.51953 0.000572
21673.94922 0.000556
21674.39062 0.000539
21674.82031 0.000523
21675.25977 0.000522
21675.68945 0.000532
21676.13086 0.000541
21676.56055 0.00055
21676.99023 0.00056
21677.42969 0.000569
21677.85938 0.000578
21678.30078 0.000588
21678.73047 0.000597
21679.16992 0.000607
21679.59961 0.000616
21680.03906 0.000625
21680.47070 0.000626
21680.90039 0.000627
21681.33984 0.000628
21681.76953 0.000629
21682.21094 0.000631
21682.64062 0.000632
21683.08008 0.000633
21683.50977 0.000634
21683.94922 0.000635
21684.38086 0.000637
21684.82031 0.000638
21685.25000 0.000641
21685.68945 0.000646
21686.11914 0.000651
21686.55078 0.000655
21686.99023 0.00066
21687.41992 0.000665
21687.85938 0.00067
21688.28906 0.000675
21688.73047 0.000679
21689.16016 0.000684
21689.59961 0.000689
21690.02930 0.000693
21690.47070 0.000686
21690.90039 0.000679
21691.33984 0.000673
21691.76953 0.000666
21692.21094 0.000659
21692.64062 0.000652
21693.07031 0.000645
21693.50977 0.000638
21693.93945 0.000632
21694.38086 0.000625
21694.81055 0.000618
21695.25000 0.00061
21695.67969 0.000601
21696.11914 0.000592
21696.55078 0.000584
21696.99023 0.000575
21697.41992 0.000566
21697.85938 0.000557
21698.28906 0.000549
21698.73047 0.00054
21699.16016 0.000531
21699.59961 0.000522
21700.02930 0.000514
21700.47070 0.000512
21700.90039 0.000511
21701.33984 0.000509
21701.76953 0.000508
21702.21094 0.000506
21702.64062 0.000504
21703.08008 0.000503
21703.50977 0.000501
21703.94922 0.000499
21704.38086 0.000498
21704.82031 0.000496
21705.25000 0.000499
21705.68945 0.000506
21706.11914 0.000512
21706.56055 0.000518
21706.99023 0.000525
21707.42969 0.000531
21707.85938 0.000538
21708.30078 0.000544
21708.73047 0.000551
21709.16992 0.000557
21709.59961 0.000563
21710.03906 0.000569
21710.47070 0.000571
21710.91016 0.000573
21711.33984 0.000575
21711.77930 0.000577
21712.21094 0.000579
21712.65039 0.000581
21713.08008 0.000583
21713.51953 0.000584
21713.94922 0.000586
21714.39062 0.000588
21714.82031 0.00059
21715.25977 0.000587
21715.68945 0.000582
21716.13086 0.000576
21716.56055 0.00057
21717.00000 0.000564
21717.43945 0.000558
21717.86914 0.000553
21718.30078 0.000547
21718.74023 0.000541
21719.17969 0.000535
21719.60938 0.00053
21720.05078 0.000525
21720.48047 0.000531
21720.91992 0.000538
21721.34961 0.000544
21721.78906 0.00055
21722.22070 0.000557
21722.66016 0.000563
21723.08984 0.000569
21723.52930 0.000576
21723.96094 0.000582
21724.40039 0.000588
21724.83984 0.000595
21725.26953 0.000591
21725.71094 0.000582
21726.14062 0.000572
21726.58008 0.000562
21727.00977 0.000553
21727.44922 0.000543
21727.88086 0.000534
21728.32031 0.000524
21728.75000 0.000514
21729.18945 0.000505
21729.63086 0.000495
21730.06055 0.000485
21730.50000 0.000472
21730.92969 0.000459
21731.36914 0.000445
21731.80078 0.000432
21732.24023 0.000419
21732.66992 0.000405
23905.93750 0.0
