# %ECSV 0.9
# ---
# datatype:
# - {name: wavelength, unit: Angstrom, datatype: float32}
# - {name: response, datatype: float32}
# meta: !!omap
# - {band_name: F113N}
# - {group_name: NICMOS1}
wavelength response
10058.36426 0.0
11175.95996 0.000401
11176.16016 0.000399
11176.34961 0.000397
11176.54980 0.000394
11176.74023 0.000391
11176.94043 0.000388
11177.12988 0.000385
11177.33008 0.000382
11177.51953 0.00038
11177.71973 0.000377
11177.91016 0.000374
11178.11035 0.000377
11178.29980 0.000384
11178.50000 0.000391
11178.69043 0.000399
11178.88965 0.000406
11179.08008 0.000413
11179.28027 0.00042
11179.46973 0.000428
11179.66992 0.000435
11179.86035 0.000442
11180.05957 0.00045
11180.25000 0.00046
11180.45020 0.00047
11180.65039 0.00048
11180.83984 0.00049
11181.04004 0.0005
11181.23047 0.000509
11181.42969 0.000519
11181.62012 0.000529
11181.82031 0.000539
11182.00977 0.000549
11182.20996 0.000554
11182.40039 0.000559
11182.59961 0.000564
11182.79004 0.000569
11182.99023 0.000574
11183.17969 0.000579
11183.37988 0.000584
11183.57031 0.000589
11183.76953 0.000594
11183.95996 0.000599
11184.16016 0.000599
11184.34961 0.000599
11184.54980 0.000599
11184.74023 0.000598
11184.94043 0.000598
11185.12988 0.000597
11185.33008 0.000597
11185.53027 0.000597
11185.71973 0.000596
11185.91992 0.000596
11186.11035 0.000607
11186.30957 0.000626
11186.50000 0.000645
11186.70020 0.000664
11186.88965 0.000684
11187.08984 0.000703
11187.28027 0.000722
11187.48047 0.000741
11187.66992 0.00076
11187.87012 0.00078
11188.05957 0.000794
11188.25977 0.000798
11188.45020 0.000802
11188.65039 0.000806
11188.83984 0.00081
11189.04004 0.000814
11189.24023 0.000818
11189.42969 0.000822
11189.62988 0.000826
11189.82031 0.00083
11190.01953 0.000835
11190.20996 0.000848
11190.41016 0.000861
11190.59961 0.000874
11190.79980 0.000887
11190.99023 0.0009
11191.19043 0.000913
11191.37988 0.000926
11191.58008 0.000939
11191.78027 0.000952
11191.96973 0.000965
11192.16992 0.000975
11192.36035 0.000984
11192.55957 0.000993
11192.75000 0.001002
11192.95020 0.001011
11193.13965 0.00102
11193.33984 0.001029
11193.53027 0.001038
11193.73047 0.001047
11193.91992 0.001056
11194.12012 0.00107
11194.32031 0.001088
11194.50977 0.001106
11194.70996 0.001124
11194.90039 0.001141
11195.09961 0.001159
11195.29004 0.001177
11195.49023 0.001195
11195.67969 0.001212
11195.87988 0.00123
11196.07031 0.001246
11196.26953 0.00126
11196.45996 0.001274
11196.66016 0.001288
11196.86035 0.001302
11197.04980 0.001316
11197.25000 0.00133
11197.44043 0.001344
11197.63965 0.001357
11197.83008 0.001371
11198.03027 0.001386
11198.21973 0.001404
11198.41992 0.001422
11198.62012 0.001441
11198.80957 0.001459
11199.00977 0.001477
11199.20020 0.001495
11199.40039 0.001514
11199.58984 0.001532
11199.79004 0.00155
11199.98047 0.001568
11200.17969 0.00161
11200.37988 0.001654
11200.57031 0.001697
11200.76953 0.001741
11200.95996 0.001784
11201.16016 0.001828
11201.34961 0.001872
11201.54980 0.001916
11201.74023 0.001959
11201.94043 0.002003
11202.12988 0.002033
11202.33008 0.002056
11202.53027 0.00208
11202.71973 0.002103
11202.91992 0.002127
11203.11035 0.002151
11203.30957 0.002174
11203.50000 0.002198
11203.70020 0.002221
11203.88965 0.002245
11204.08984 0.002274
11204.29004 0.002309
11204.48047 0.002345
11204.67969 0.00238
11204.87012 0.002415
11205.07031 0.002451
11205.25977 0.002486
11205.45996 0.002522
11205.65039 0.002557
11205.84961 0.002593
11206.04980 0.002631
11206.24023 0.002681
11206.44043 0.002732
11206.62988 0.002782
11206.83008 0.002832
11207.01953 0.002882
11207.21973 0.002932
11207.41992 0.002982
11207.61035 0.003032
11207.80957 0.003082
11208.00000 0.003132
11208.20020 0.003179
11208.38965 0.003224
11208.58984 0.00327
11208.79004 0.003316
11208.98047 0.003362
11209.17969 0.003408
11209.37012 0.003454
11209.57031 0.0035
11209.75977 0.003546
11209.95996 0.003592
11210.15039 0.003656
11210.34961 0.003725
11210.54980 0.003793
11210.74023 0.003862
11210.94043 0.003931
11211.12988 0.004
11211.33008 0.004069
11211.51953 0.004137
11211.71973 0.004206
11211.91992 0.004275
11212.11035 0.004349
11212.30957 0.004427
11212.50000 0.004505
11212.70020 0.004583
11212.88965 0.004661
11213.08984 0.004738
11213.29004 0.004817
11213.48047 0.004894
11213.67969 0.004972
11213.87012 0.00505
11214.07031 0.005135
11214.25977 0.00523
11214.45996 0.005326
11214.66016 0.005421
11214.84961 0.005517
11215.04980 0.005613
11215.24023 0.005708
11215.44043 0.005804
11215.62988 0.0059
11215.83008 0.005996
11216.03027 0.006095
11216.21973 0.006219
11216.41992 0.006343
11216.61035 0.006468
11216.80957 0.006592
11217.00977 0.006717
11217.20020 0.006841
11217.40039 0.006965
11217.58984 0.007089
11217.79004 0.007214
11217.98047 0.007338
11218.17969 0.00748
11218.37988 0.007624
11218.57031 0.007768
11218.76953 0.007913
11218.95996 0.008056
11219.16016 0.008201
11219.36035 0.008344
11219.54980 0.008488
11219.75000 0.008632
11219.94043 0.008776
11220.13965 0.008965
11220.33008 0.009173
11220.53027 0.009382
11220.73047 0.009589
11220.91992 0.009797
11221.12012 0.010005
11221.30957 0.010213
11221.50977 0.01042
11221.70996 0.010629
11221.90039 0.010837
11222.09961 0.011048
11222.29004 0.011265
11222.49023 0.011481
11222.69043 0.011697
11222.87988 0.011914
11223.08008 0.01213
11223.26953 0.012346
11223.46973 0.012562
11223.66992 0.012779
11223.86035 0.012995
11224.05957 0.013236
11224.25000 0.01354
11224.45020 0.013844
11224.63965 0.014147
11224.83984 0.014451
11225.04004 0.014754
11225.23047 0.015058
11225.42969 0.015362
11225.62012 0.015664
11225.82031 0.015969
11226.01953 0.016274
11226.20996 0.016595
11226.41016 0.016917
11226.59961 0.017239
11226.79980 0.017559
11227.00000 0.017881
11227.19043 0.018203
11227.38965 0.018525
11227.58008 0.018846
11227.78027 0.019168
11227.98047 0.01949
11228.16992 0.019913
11228.37012 0.020352
11228.55957 0.020791
11228.75977 0.021227
11228.95996 0.021666
11229.15039 0.022105
11229.34961 0.022544
11229.54004 0.022981
11229.74023 0.02342
11229.94043 0.023859
11230.12988 0.024307
11230.33008 0.024756
11230.51953 0.025208
11230.71973 0.02566
11230.91992 0.026112
11231.11035 0.026561
11231.30957 0.027013
11231.50000 0.027465
11231.70020 0.027917
11231.90039 0.028367
11232.08984 0.028882
11232.29004 0.029469
11232.49023 0.030055
11232.67969 0.030639
11232.87988 0.031225
11233.07031 0.031812
11233.26953 0.032398
11233.46973 0.032984
11233.66016 0.033568
11233.86035 0.034154
11234.04980 0.034732
11234.25000 0.035284
11234.45020 0.035837
11234.63965 0.036387
11234.83984 0.03694
11235.03027 0.037493
11235.23047 0.038046
11235.42969 0.038598
11235.62012 0.039151
11235.82031 0.039701
11236.00977 0.040264
11236.20996 0.040953
11236.41016 0.041642
11236.59961 0.042331
11236.79980 0.04302
11237.00000 0.043709
11237.19043 0.044394
11237.38965 0.045083
11237.58008 0.045772
11237.78027 0.046461
11237.98047 0.047149
11238.16992 0.047868
11238.37012 0.04859
11238.57031 0.049312
11238.75977 0.050031
11238.95996 0.050753
11239.15039 0.051476
11239.34961 0.052198
11239.54980 0.05292
11239.74023 0.053643
11239.94043 0.054365
11240.12988 0.055052
11240.33008 0.055723
11240.53027 0.056393
11240.71973 0.057064
11240.91992 0.057731
11241.12012 0.058402
11241.30957 0.059073
11241.50977 0.059743
11241.70020 0.060414
11241.90039 0.061085
11242.09961 0.061765
11242.29004 0.062455
11242.49023 0.063145
11242.69043 0.063835
11242.87988 0.064526
11243.08008 0.065216
11243.26953 0.065906
11243.46973 0.066596
11243.66992 0.067286
11243.86035 0.067976
11244.05957 0.06863
11244.25977 0.069198
11244.45020 0.069766
11244.65039 0.070334
11244.83984 0.070902
11245.04004 0.071471
11245.24023 0.072039
11245.42969 0.072607
11245.62988 0.073175
11245.83008 0.073743
11246.01953 0.074306
11246.21973 0.074828
11246.41992 0.075349
11246.61035 0.07587
11246.80957 0.076392
11247.00000 0.076913
11247.20020 0.077435
11247.40039 0.077956
11247.58984 0.078478
11247.79004 0.078999
11247.99023 0.079521
11248.17969 0.079914
11248.37988 0.080297
11248.57031 0.080679
11248.76953 0.081064
11248.96973 0.081447
11249.16016 0.08183
11249.36035 0.082212
11249.55957 0.082595
11249.75000 0.082978
11249.95020 0.083361
11250.15039 0.083676
11250.33984 0.083968
11250.54004 0.084259
11250.73047 0.084551
11250.92969 0.084844
11251.12988 0.085136
11251.32031 0.085428
11251.51953 0.08572
11251.71973 0.086011
11251.91016 0.086303
11252.11035 0.08651
11252.30957 0.086649
11252.50000 0.086789
11252.70020 0.086928
11252.90039 0.087067
11253.08984 0.087207
11253.29004 0.087346
11253.48047 0.087485
11253.67969 0.087624
11253.87988 0.087764
11254.07031 0.087871
11254.26953 0.087926
11254.46973 0.087981
11254.66016 0.088035
11254.86035 0.08809
11255.05957 0.088145
11255.25000 0.088199
11255.45020 0.088254
11255.65039 0.088309
11255.83984 0.088363
11256.04004 0.088404
11256.24023 0.088386
11256.42969 0.088368
11256.62988 0.08835
11256.82031 0.088332
11257.01953 0.088314
11257.21973 0.088296
11257.41016 0.088278
11257.61035 0.088261
11257.80957 0.088243
11258.00000 0.088224
11258.20020 0.088153
11258.40039 0.088083
11258.58984 0.088013
11258.79004 0.087943
11258.99023 0.087873
11259.17969 0.087802
11259.37988 0.087732
11259.58008 0.087662
11259.76953 0.087592
11259.96973 0.087522
11260.16992 0.087445
11260.36035 0.087369
11260.55957 0.087292
11260.75000 0.087215
11260.95020 0.087138
11261.15039 0.087062
11261.33984 0.086985
11261.54004 0.086908
11261.74023 0.086831
11261.92969 0.086754
11262.12988 0.086665
11262.33008 0.086571
11262.51953 0.086476
11262.71973 0.086381
11262.91992 0.086286
11263.11035 0.086192
11263.30957 0.086097
11263.50977 0.086002
11263.70020 0.085907
11263.90039 0.085812
11264.09961 0.085726
11264.29004 0.085647
11264.49023 0.085568
11264.69043 0.085489
11264.87988 0.085411
11265.08008 0.085332
11265.28027 0.085253
11265.46973 0.085174
11265.66992 0.085095
11265.87012 0.085017
11266.05957 0.084944
11266.25977 0.084885
11266.45996 0.084826
11266.65039 0.084767
11266.84961 0.084708
11267.04980 0.084649
11267.24023 0.08459
11267.44043 0.084531
11267.63965 0.084472
11267.83008 0.084413
11268.03027 0.084359
11268.23047 0.084334
11268.41992 0.084309
11268.62012 0.084284
11268.82031 0.084258
11269.00977 0.084233
11269.20996 0.084208
11269.41016 0.084183
11269.59961 0.084158
11269.79980 0.084132
11270.00000 0.084107
11270.19043 0.084107
11270.38965 0.084108
11270.58984 0.084109
11270.79004 0.084109
11270.98047 0.08411
11271.17969 0.08411
11271.37988 0.084111
11271.57031 0.084112
11271.76953 0.084112
11271.96973 0.084113
11272.16016 0.084131
11272.36035 0.084153
11272.55957 0.084176
11272.75000 0.084198
11272.95020 0.08422
11273.15039 0.084242
11273.33984 0.084264
11273.54004 0.084286
11273.74023 0.084308
11273.92969 0.084331
11274.12988 0.084382
11274.33008 0.084449
11274.51953 0.084515
11274.71973 0.084582
11274.91992 0.084648
11275.11035 0.084714
11275.30957 0.084781
11275.50977 0.084847
11275.70020 0.084914
11275.90039 0.08498
11276.09961 0.085059
11276.29004 0.085151
11276.49023 0.085242
11276.69043 0.085334
11276.88965 0.085425
11277.08008 0.085517
11277.28027 0.085608
11277.48047 0.0857
11277.66992 0.085791
11277.87012 0.085883
11278.07031 0.085981
11278.25977 0.086094
11278.45996 0.086206
11278.66016 0.086318
11278.84961 0.08643
11279.04980 0.086542
11279.25000 0.086654
11279.45020 0.086766
11279.63965 0.086878
11279.83984 0.08699
11280.04004 0.087108
11280.23047 0.087256
11280.42969 0.087404
11280.62988 0.087551
11280.82031 0.087699
11281.01953 0.087847
11281.21973 0.087994
11281.41016 0.088142
11281.61035 0.08829
11281.80957 0.088437
11282.00000 0.088585
11282.20020 0.088732
11282.40039 0.088877
11282.59961 0.089024
11282.79004 0.08917
11282.99023 0.089316
11283.19043 0.089463
11283.37988 0.089609
11283.58008 0.089755
11283.78027 0.089901
11283.96973 0.090048
11284.16992 0.090216
11284.37012 0.090388
11284.57031 0.09056
11284.75977 0.090732
11284.95996 0.090903
11285.16016 0.091075
11285.34961 0.091247
11285.54980 0.091419
11285.75000 0.09159
11285.94043 0.091762
11286.13965 0.091929
11286.33984 0.092093
11286.54004 0.092257
11286.73047 0.092422
11286.92969 0.092587
11287.12988 0.092751
11287.32031 0.092915
11287.51953 0.09308
11287.71973 0.093245
11287.91992 0.09341
11288.11035 0.093571
11288.30957 0.09373
11288.50977 0.093889
11288.70020 0.094049
11288.90039 0.094207
11289.09961 0.094367
11289.29004 0.094526
11289.49023 0.094686
11289.69043 0.094845
11289.87988 0.095003
11290.08008 0.095166
11290.28027 0.095333
11290.48047 0.0955
11290.66992 0.095667
11290.87012 0.095833
11291.07031 0.095999
11291.25977 0.096166
11291.45996 0.096333
11291.66016 0.0965
11291.86035 0.096667
11292.04980 0.096828
11292.25000 0.096973
11292.45020 0.097119
11292.63965 0.097265
11292.83984 0.09741
11293.04004 0.097556
11293.24023 0.097702
11293.42969 0.097848
11293.62988 0.097993
11293.83008 0.098139
11294.01953 0.098285
11294.21973 0.098437
11294.41992 0.098589
11294.62012 0.098742
11294.80957 0.098894
11295.00977 0.099046
11295.20996 0.099197
11295.40039 0.09935
11295.59961 0.099502
11295.79980 0.099654
11296.00000 0.099806
11296.19043 0.09992
11296.38965 0.100033
11296.58984 0.100146
11296.79004 0.100259
11296.98047 0.100372
11297.17969 0.100486
11297.37988 0.100599
11297.57031 0.100712
11297.76953 0.100825
11297.96973 0.100937
11298.16992 0.101048
11298.36035 0.101158
11298.55957 0.101267
11298.75977 0.101377
11298.95020 0.101487
11299.15039 0.101597
11299.34961 0.101706
11299.54980 0.101816
11299.74023 0.101926
11299.94043 0.102036
11300.13965 0.102123
11300.33008 0.1022
11300.53027 0.102277
11300.73047 0.102354
11300.92969 0.102431
11301.12012 0.102508
11301.32031 0.102585
11301.51953 0.102662
11301.71973 0.102739
11301.91016 0.102816
11302.11035 0.102885
11302.30957 0.102947
11302.50000 0.103009
11302.70020 0.103071
11302.90039 0.103133
11303.09961 0.103195
11303.29004 0.103257
11303.49023 0.103319
11303.69043 0.103381
11303.88965 0.103443
11304.08008 0.103493
11304.28027 0.103529
11304.48047 0.103564
11304.67969 0.103599
11304.87012 0.103635
11305.07031 0.10367
11305.26953 0.103705
11305.45996 0.10374
11305.66016 0.103776
11305.86035 0.103811
11306.05957 0.103842
11306.25000 0.10386
11306.45020 0.103879
11306.65039 0.103898
11306.84961 0.103916
11307.04004 0.103935
11307.24023 0.103954
11307.44043 0.103972
11307.63965 0.103991
11307.83008 0.10401
11308.03027 0.104026
11308.23047 0.104028
11308.42969 0.104029
11308.62012 0.104031
11308.82031 0.104032
11309.01953 0.104034
11309.20996 0.104036
11309.41016 0.104037
11309.61035 0.104039
11309.80957 0.104041
11310.00000 0.104042
11310.20020 0.104044
11310.40039 0.104047
11310.59961 0.104049
11310.79004 0.104051
11310.99023 0.104053
11311.19043 0.104055
11311.38965 0.104057
11311.58008 0.104059
11311.78027 0.104062
11311.98047 0.104064
11312.17969 0.104053
11312.37012 0.104042
11312.57031 0.10403
11312.76953 0.104019
11312.96973 0.104008
11313.16016 0.103996
11313.36035 0.103984
11313.55957 0.103973
11313.75977 0.103961
11313.95020 0.10395
11314.15039 0.10394
11314.34961 0.10393
11314.54980 0.10392
11314.74023 0.103911
11314.94043 0.103901
11315.13965 0.103891
11315.33984 0.103882
11315.53027 0.103872
11315.73047 0.103862
11315.92969 0.103852
11316.12988 0.103842
11316.32031 0.10383
11316.51953 0.103819
11316.71973 0.103807
11316.91992 0.103796
11317.11035 0.103785
11317.30957 0.103773
11317.50977 0.103762
11317.70996 0.10375
11317.91016 0.103739
11318.09961 0.103731
11318.29980 0.103726
11318.50000 0.103721
11318.70020 0.103716
11318.88965 0.103711
11319.08984 0.103706
11319.29004 0.103701
11319.49023 0.103696
11319.67969 0.103691
11319.87988 0.103686
11320.08008 0.103685
11320.28027 0.103689
11320.46973 0.103694
11320.66992 0.103698
11320.87012 0.103703
11321.07031 0.103707
11321.25977 0.103711
11321.45996 0.103716
11321.66016 0.10372
11321.86035 0.103724
11322.04980 0.103728
11322.25000 0.10373
11322.45020 0.103731
11322.65039 0.103733
11322.83984 0.103734
11323.04004 0.103736
11323.24023 0.103737
11323.44043 0.103739
11323.63965 0.10374
11323.83008 0.103742
11324.03027 0.103744
11324.23047 0.10375
11324.42969 0.103757
11324.62012 0.103763
11324.82031 0.103769
11325.01953 0.103775
11325.21973 0.103781
11325.41992 0.103787
11325.61035 0.103794
11325.80957 0.1038
11326.00977 0.103806
11326.20996 0.103804
11326.40039 0.103803
11326.59961 0.103802
11326.79980 0.103801
11327.00000 0.1038
11327.19043 0.103799
11327.38965 0.103798
11327.58984 0.103796
11327.79004 0.103795
11327.99023 0.103794
11328.17969 0.103779
11328.37988 0.103762
11328.58008 0.103745
11328.78027 0.103728
11328.96973 0.103712
11329.16992 0.103695
11329.37012 0.103678
11329.57031 0.103661
11329.75977 0.103645
11329.95996 0.103628
11330.16016 0.103578
11330.36035 0.10352
11330.55957 0.103462
11330.75000 0.103405
11330.95020 0.103347
11331.15039 0.10329
11331.34961 0.103232
11331.54004 0.103174
11331.74023 0.103116
11331.94043 0.103059
11332.13965 0.102977
11332.33984 0.102885
11332.53027 0.102793
11332.73047 0.102701
11332.92969 0.102609
11333.12988 0.102517
11333.33008 0.102425
11333.51953 0.102333
11333.71973 0.102241
11333.91992 0.102149
11334.12012 0.102015
11334.30957 0.101853
11334.50977 0.10169
11334.70996 0.101527
11334.91016 0.101365
11335.11035 0.101202
11335.29980 0.10104
11335.50000 0.100876
11335.70020 0.100713
11335.90039 0.100551
11336.09961 0.100331
11336.29004 0.10005
11336.49023 0.09977
11336.69043 0.099489
11336.88965 0.099209
11337.08008 0.098928
11337.28027 0.098647
11337.48047 0.098367
11337.67969 0.098086
11337.87988 0.097805
11338.07031 0.097503
11338.26953 0.097161
11338.46973 0.096819
11338.66992 0.096479
11338.87012 0.096137
11339.05957 0.095795
11339.25977 0.095455
11339.45996 0.095113
11339.66016 0.094771
11339.86035 0.094429
11340.04980 0.094054
11340.25000 0.093585
11340.45020 0.093115
11340.65039 0.092648
11340.84961 0.092178
11341.04004 0.091709
11341.24023 0.091239
11341.44043 0.090772
11341.63965 0.090302
11341.83984 0.089833
11342.03027 0.08935
11342.23047 0.088788
11342.42969 0.088227
11342.62988 0.087665
11342.83008 0.087106
11343.01953 0.086544
11343.21973 0.085982
11343.41992 0.08542
11343.62012 0.084861
11343.82031 0.0843
11344.00977 0.083732
11344.20996 0.083087
11344.41016 0.082442
11344.61035 0.0818
11344.80957 0.081155
11345.00000 0.08051
11345.20020 0.079866
11345.40039 0.079221
11345.59961 0.078579
11345.79980 0.077934
11345.99023 0.077289
11346.19043 0.076521
11346.38965 0.07575
11346.58984 0.074982
11346.79004 0.074211
11346.98047 0.073439
11347.17969 0.072668
11347.37988 0.071896
11347.58008 0.071125
11347.78027 0.070357
11347.96973 0.069586
11348.16992 0.068969
11348.37012 0.068375
11348.57031 0.067781
11348.76953 0.067187
11348.96973 0.066593
11349.16016 0.066003
11349.36035 0.065409
11349.55957 0.064815
11349.75977 0.064221
11349.95996 0.063627
11350.15039 0.062852
11350.34961 0.062025
11350.54980 0.061198
11350.75000 0.060376
11350.95020 0.059549
11351.13965 0.058722
11351.33984 0.057895
11351.54004 0.057068
11351.74023 0.056241
11351.94043 0.055415
11352.13965 0.054688
11352.33008 0.054008
11352.53027 0.053327
11352.73047 0.052647
11352.92969 0.051969
11353.12988 0.051289
11353.32031 0.050609
11353.51953 0.049928
11353.71973 0.049248
11353.91992 0.048567
11354.12012 0.047886
11354.32031 0.047204
11354.50977 0.046523
11354.70996 0.045841
11354.91016 0.04516
11355.11035 0.044478
11355.30957 0.043796
11355.50000 0.043115
11355.70020 0.042433
11355.90039 0.041752
11356.09961 0.0411
11356.29980 0.040478
11356.50000 0.039856
11356.69043 0.039234
11356.88965 0.038612
11357.08984 0.03799
11357.29004 0.037368
11357.49023 0.036746
11357.69043 0.036124
11357.87988 0.035502
11358.08008 0.034901
11358.28027 0.034332
11358.48047 0.033762
11358.67969 0.033192
11358.87988 0.032623
11359.07031 0.032053
11359.26953 0.031483
11359.46973 0.030914
11359.66992 0.030344
11359.87012 0.029774
11360.05957 0.029241
11360.25977 0.028782
11360.45996 0.028321
11360.66016 0.027862
11360.86035 0.027403
11361.05957 0.026944
11361.25000 0.026485
11361.45020 0.026026
11361.65039 0.025568
11361.84961 0.025109
11362.04980 0.024652
11362.25000 0.024199
11362.44043 0.023747
11362.63965 0.023294
11362.83984 0.02284
11363.04004 0.022387
11363.24023 0.021935
11363.44043 0.021482
11363.62988 0.02103
11363.83008 0.020578
11364.03027 0.020148
11364.23047 0.019843
11364.42969 0.019537
11364.62988 0.019232
11364.83008 0.018927
11365.01953 0.018622
11365.21973 0.018317
11365.41992 0.018012
11365.62012 0.017705
11365.82031 0.0174
11366.01953 0.017096
11366.20996 0.016797
11366.41016 0.016498
11366.61035 0.0162
11366.80957 0.015899
11367.00977 0.015601
11367.20996 0.015302
11367.40039 0.015003
11367.59961 0.014705
11367.79980 0.014406
11368.00000 0.014106
11368.20020 0.01389
11368.40039 0.013674
11368.58984 0.013458
11368.79004 0.013241
11368.99023 0.013024
11369.19043 0.012808
11369.38965 0.012592
11369.58984 0.012376
11369.79004 0.012159
11369.98047 0.011943
11370.17969 0.011735
11370.37988 0.011528
11370.58008 0.01132
11370.78027 0.011113
11370.98047 0.010906
11371.16992 0.010699
11371.37012 0.010491
11371.57031 0.010284
11371.76953 0.010077
11371.96973 0.00987
11372.16992 0.009717
11372.37012 0.009574
11372.55957 0.009432
11372.75977 0.009289
11372.95996 0.009147
11373.16016 0.009005
11373.36035 0.008863
11373.55957 0.00872
11373.75977 0.008577
11373.95020 0.008435
11374.15039 0.008299
11374.34961 0.008165
11374.54980 0.008031
11374.75000 0.007896
11374.95020 0.007762
11375.15039 0.007628
11375.33984 0.007494
11375.54004 0.00736
11375.74023 0.007226
11375.94043 0.007091
11376.13965 0.006975
11376.33984 0.006867
11376.54004 0.006758
11376.73047 0.006649
11376.92969 0.006541
11377.12988 0.006432
11377.33008 0.006324
11377.53027 0.006215
11377.73047 0.006107
11377.92969 0.005998
11378.12988 0.005904
11378.32031 0.00582
11378.51953 0.005736
11378.71973 0.005651
11378.91992 0.005566
11379.12012 0.005482
11379.32031 0.005397
11379.50977 0.005313
11379.70996 0.005228
11379.91016 0.005144
11380.11035 0.005059
11380.30957 0.004975
11380.50977 0.00489
11380.70996 0.004806
11380.91016 0.004722
11381.09961 0.004637
11381.29980 0.004553
11381.50000 0.004468
11381.70020 0.004384
11381.90039 0.004299
11382.09961 0.004227
11382.29980 0.004166
11382.50000 0.004105
11382.69043 0.004045
11382.88965 0.003984
11383.08984 0.003924
11383.29004 0.003863
11383.49023 0.003803
11383.69043 0.003742
11383.88965 0.003682
11384.08008 0.003622
11384.28027 0.003562
11384.48047 0.003502
11384.67969 0.003442
11384.87988 0.003382
11385.08008 0.003322
11385.28027 0.003262
11385.48047 0.003203
11385.66992 0.003143
11385.87012 0.003083
11386.07031 0.003034
11386.26953 0.003006
11386.46973 0.002977
11386.66992 0.002948
11386.87012 0.002919
11387.07031 0.00289
11387.25977 0.002861
11387.45996 0.002832
11387.66016 0.002803
11387.86035 0.002775
11388.05957 0.00274
11388.25977 0.002691
11388.45996 0.002643
11388.66016 0.002594
11388.86035 0.002545
11389.04980 0.002496
11389.25000 0.002448
11389.45020 0.002399
11389.65039 0.00235
11389.84961 0.002302
11390.04980 0.002259
11390.25000 0.002233
11390.45020 0.002208
11390.63965 0.002182
11390.83984 0.002156
11391.04004 0.002131
11391.24023 0.002105
11391.44043 0.00208
11391.63965 0.002054
11391.83984 0.002029
11392.04004 0.002004
11392.24023 0.001981
11392.42969 0.001957
11392.62988 0.001934
11392.83008 0.001911
11393.03027 0.001888
11393.23047 0.001865
11393.42969 0.001842
11393.62988 0.001819
11393.83008 0.001795
11394.03027 0.001773
11394.21973 0.001757
11394.41992 0.00174
11394.62012 0.001724
11394.82031 0.001708
11395.01953 0.001691
11395.21973 0.001675
11395.41992 0.001658
11395.62012 0.001642
11395.82031 0.001626
11396.00977 0.001608
11396.20996 0.00158
11396.41016 0.001551
11396.61035 0.001522
11396.80957 0.001493
11397.00977 0.001464
11397.20996 0.001435
11397.41016 0.001407
11397.61035 0.001378
11397.79980 0.001349
11398.00000 0.00132
11398.20020 0.001308
11398.40039 0.001295
11398.59961 0.001283
11398.79980 0.00127
11399.00000 0.001258
11399.20020 0.001245
11399.40039 0.001233
11399.59961 0.00122
11399.79004 0.001208
11399.99023 0.001195
11400.19043 0.001183
11400.38965 0.001171
11400.58984 0.00116
11400.79004 0.001148
11400.99023 0.001136
11401.19043 0.001124
11401.38965 0.001112
11401.58984 0.001101
11401.79004 0.001089
11401.98047 0.001077
11402.17969 0.00106
11402.37988 0.001042
11402.58008 0.001024
11402.78027 0.001006
11402.98047 0.000989
11403.17969 0.000971
11403.37988 0.000953
11403.58008 0.000935
11403.78027 0.000917
11403.96973 0.0009
11404.16992 0.000891
11404.37012 0.000883
11404.57031 0.000875
11404.76953 0.000867
11404.96973 0.00086
11405.16992 0.000852
11405.37012 0.000844
11405.57031 0.000836
11405.76953 0.000829
11405.95996 0.000821
11406.16016 0.000806
11406.36035 0.00079
11406.55957 0.000774
11406.75977 0.000757
11406.95996 0.000741
11407.16016 0.000725
11407.36035 0.000709
11407.55957 0.000692
11407.75977 0.000676
11407.95996 0.00066
11408.16016 0.000649
11408.34961 0.00064
11408.54980 0.000631
11408.75000 0.000622
11408.95020 0.000613
11409.15039 0.000605
11409.34961 0.000596
11409.54980 0.000587
11409.75000 0.000578
11409.95020 0.000569
11410.15039 0.00057
11410.34961 0.000575
11410.54980 0.000581
11410.75000 0.000586
11410.94043 0.000591
11411.13965 0.000596
11411.33984 0.000602
11411.54004 0.000607
11411.74023 0.000612
11411.94043 0.000617
11412.13965 0.000614
11412.33984 0.000608
11412.54004 0.000601
11412.74023 0.000595
11412.94043 0.000588
11413.12988 0.000581
11413.33008 0.000575
11413.53027 0.000568
11413.73047 0.000562
11413.92969 0.000555
11414.12988 0.000547
11414.33008 0.000538
11414.53027 0.000529
11414.73047 0.00052
11414.92969 0.000512
11415.12988 0.000503
11415.33008 0.000494
11415.53027 0.000485
11415.73047 0.000476
11415.91992 0.000467
11416.12012 0.000462
11416.32031 0.000459
11416.51953 0.000457
11416.71973 0.000454
11416.91992 0.000451
11417.12012 0.000449
11417.32031 0.000446
11417.51953 0.000443
11417.71973 0.000441
11417.91992 0.000438
11418.12012 0.000436
11418.32031 0.000434
11418.51953 0.000432
11418.70996 0.00043
11418.91016 0.000429
11419.11035 0.000427
11419.30957 0.000425
11419.50977 0.000423
11419.70996 0.000421
11419.91016 0.000419
11420.11035 0.000416
11420.30957 0.000411
11420.50977 0.000406
11420.70996 0.000401
12562.78125 0.0
