# %ECSV 0.9
# ---
# datatype:
# - {name: wavelength, unit: Angstrom, datatype: float32}
# - {name: response, datatype: float32}
# meta: !!omap
# - {band_name: F555W}
# - {group_name: WFC3_UVIS2}
wavelength response
3922.94971 0.0
4358.83301 0.000419
4359.57910 0.000442
4360.32520 0.000465
4361.07080 0.000489
4361.81689 0.000537
4362.56299 0.000592
4363.31006 0.000648
4364.05713 0.000703
4364.80322 0.000758
4365.54980 0.000813
4366.29688 0.000868
4367.04395 0.000924
4367.79102 0.000979
4368.53906 0.001034
4369.28613 0.00109
4370.03418 0.001145
4370.78076 0.0012
4371.52881 0.001282
4372.27686 0.001404
4373.02490 0.001525
4373.77295 0.001647
4374.52100 0.001768
4375.27002 0.00189
4376.01904 0.002011
4376.76709 0.002133
4377.51611 0.002255
4378.26514 0.002377
4379.01416 0.002499
4379.76318 0.002621
4380.51318 0.002742
4381.26221 0.002869
4382.01221 0.003113
4382.76221 0.003356
4383.51123 0.003599
4384.26123 0.003842
4385.01221 0.004086
4385.76221 0.004329
4386.51221 0.004573
4387.26318 0.004817
4388.01318 0.00506
4388.76416 0.005304
4389.51514 0.005548
4390.26611 0.005792
4391.01709 0.006036
4391.76904 0.006422
4392.52002 0.006866
4393.27100 0.00731
4394.02295 0.007754
4394.77490 0.008198
4395.52686 0.008642
4396.27881 0.009087
4397.03076 0.009532
4397.78320 0.009976
4398.53613 0.010421
4399.28906 0.010866
4400.04102 0.011311
4400.79395 0.011757
4401.54688 0.012308
4402.29980 0.01301
4403.05322 0.013712
4403.80713 0.014415
4404.56006 0.015117
4405.31299 0.01582
4406.06689 0.016523
4406.82080 0.017227
4407.57520 0.01793
4408.32910 0.018634
4409.08301 0.019338
4409.83789 0.020042
4410.59180 0.020746
4411.34717 0.021494
4412.10205 0.022505
4412.85596 0.023516
4413.61084 0.024527
4414.36719 0.025539
4415.12207 0.026552
4415.87695 0.027564
4416.63281 0.028576
4417.38916 0.02959
4418.14502 0.030603
4418.89990 0.031616
4419.65576 0.03263
4420.41309 0.033646
4421.16895 0.034663
4421.92480 0.035956
4422.68213 0.037278
4423.43799 0.038602
4424.19482 0.039926
4424.95215 0.041251
4425.70898 0.042577
4426.46680 0.043903
4427.22412 0.04523
4427.98096 0.046557
4428.73877 0.047885
4429.49707 0.049212
4430.25391 0.050541
4431.01318 0.051869
4431.77100 0.053376
4432.52881 0.054964
4433.28809 0.056553
4434.04590 0.058142
4434.80518 0.059731
4435.56299 0.061322
4436.32178 0.062912
4437.08105 0.064503
4437.83984 0.066095
4438.60010 0.067688
4439.35889 0.06928
4440.11914 0.070874
4440.87793 0.072469
4441.63818 0.074095
4442.39795 0.075752
4443.15820 0.07741
4443.91797 0.079068
4444.67920 0.080727
4445.43896 0.082386
4446.20020 0.084046
4446.95996 0.085707
4447.72119 0.087368
4448.48193 0.089031
4449.24316 0.090692
4450.00488 0.092356
4450.76611 0.09402
4451.52686 0.095691
4452.28906 0.097378
4453.05078 0.099065
4453.81299 0.100753
4454.57520 0.10244
4455.33691 0.104129
4456.09912 0.105818
4456.86182 0.107509
4457.62402 0.109199
4458.38721 0.11089
4459.14990 0.112583
4459.91309 0.114275
4460.67578 0.115974
4461.43896 0.117656
4462.20215 0.119279
4462.96582 0.120902
4463.72900 0.122527
4464.49316 0.124152
4465.25684 0.125777
4466.02100 0.127404
4466.78516 0.129031
4467.54883 0.13066
4468.31299 0.132288
4469.07812 0.133918
4469.84277 0.135549
4470.60693 0.137173
4471.37305 0.138773
4472.13721 0.140245
4472.90186 0.141718
4473.66797 0.143192
4474.43311 0.144666
4475.19922 0.146141
4475.96387 0.147616
4476.72998 0.149092
4477.49609 0.150568
4478.26221 0.152045
4479.02783 0.153522
4479.79492 0.155001
4480.56201 0.15648
4481.32812 0.157935
4482.09521 0.159157
4482.86084 0.16038
4483.62793 0.161603
4484.39600 0.162827
4485.16309 0.164051
4485.93018 0.165275
4486.69824 0.166501
4487.46484 0.167726
4488.23291 0.168952
4489.00098 0.170178
4489.76904 0.171405
4490.53809 0.172633
4491.30615 0.173851
4492.07422 0.174922
4492.84277 0.175992
4493.61084 0.177063
4494.37988 0.178135
4495.14893 0.179207
4495.91797 0.18028
4496.68701 0.181352
4497.45703 0.182425
4498.22705 0.183499
4498.99609 0.184573
4499.76611 0.185647
4500.53613 0.186716
4501.30615 0.187774
4502.07617 0.188711
4502.84619 0.189649
4503.61719 0.190586
4504.38721 0.191524
4505.15820 0.192462
4505.92920 0.1934
4506.69922 0.194338
4507.47119 0.195277
4508.24219 0.196216
4509.01318 0.197155
4509.78516 0.198095
4510.55615 0.199044
4511.32812 0.199983
4512.10010 0.200762
4512.87207 0.201541
4513.64404 0.202321
4514.41602 0.203101
4515.18799 0.203882
4515.96094 0.204662
4516.73389 0.205444
4517.50586 0.206225
4518.27881 0.207007
4519.05176 0.207788
4519.82617 0.208571
4520.59912 0.209343
4521.37305 0.210091
4522.14600 0.2107
4522.91895 0.211309
4523.69287 0.211918
4524.46680 0.212528
4525.24219 0.213138
4526.01611 0.213748
4526.79004 0.214358
4527.56494 0.214969
4528.33887 0.215579
4529.11377 0.21619
4529.88916 0.216801
4530.66406 0.217412
4531.43896 0.218008
4532.21387 0.218547
4532.99023 0.219087
4533.76611 0.219626
4534.54199 0.220166
4535.31689 0.220706
4536.09277 0.221246
4536.86914 0.221786
4537.64600 0.222327
4538.42188 0.222867
4539.19824 0.223408
4539.97510 0.223949
4540.75098 0.22449
4541.52881 0.224989
4542.30615 0.225402
4543.08301 0.225816
4543.85986 0.226229
4544.63818 0.226643
4545.41504 0.227056
4546.19287 0.22747
4546.97119 0.227884
4547.74902 0.228298
4548.52686 0.228712
4549.30518 0.229126
4550.08301 0.22954
4550.86182 0.229955
4551.64014 0.230353
4552.41895 0.230732
4553.19824 0.231112
4553.97705 0.231492
4554.75586 0.231872
4555.53613 0.232252
4556.31494 0.232632
4557.09521 0.233012
4557.87402 0.233392
4558.65381 0.233772
4559.43408 0.234153
4560.21387 0.234538
4560.99414 0.234934
4561.77490 0.235294
4562.55518 0.235633
4563.33594 0.235973
4564.11719 0.236312
4564.89697 0.236652
4565.67920 0.236991
4566.45898 0.237331
4567.24121 0.237671
4568.02197 0.238011
4568.80420 0.238352
4569.58496 0.238692
4570.36816 0.239025
4571.14893 0.23935
4571.93213 0.239604
4572.71387 0.239844
4573.49609 0.240084
4574.27881 0.240324
4575.06104 0.240564
4575.84424 0.240805
4576.62695 0.241045
4577.41016 0.241285
4578.19287 0.241526
4578.97705 0.241766
4579.75977 0.242007
4580.54297 0.242248
4581.32715 0.242485
4582.11084 0.24267
4582.89502 0.242855
4583.67920 0.24304
4584.46289 0.243226
4585.24805 0.243411
4586.03223 0.243596
4586.81689 0.243781
4587.60205 0.243967
4588.38721 0.244152
4589.17090 0.244337
4589.95703 0.244523
4590.74219 0.244708
4591.52686 0.244885
4592.31299 0.24504
4593.09912 0.245195
4593.88477 0.24535
4594.67090 0.245506
4595.45703 0.245661
4596.24316 0.245817
4597.02881 0.245972
4597.81592 0.246128
4598.60303 0.246283
4599.39014 0.246439
4600.17578 0.246594
4600.96289 0.24675
4601.75000 0.246921
4602.53809 0.247103
4603.32520 0.247284
4604.11279 0.247466
4604.90088 0.247647
4605.68799 0.247829
4606.47705 0.248011
4607.26514 0.248192
4608.05322 0.248374
4608.84082 0.248556
4609.62988 0.248738
4610.41895 0.248929
4611.20801 0.249128
4611.99707 0.249285
4612.78613 0.249437
4613.57520 0.24959
4614.36377 0.249742
4615.15381 0.249895
4615.94287 0.250048
4616.73291 0.2502
4617.52295 0.250353
4618.31299 0.250506
4619.10303 0.250659
4619.89404 0.250812
4620.68408 0.25095
4621.47510 0.251084
4622.26514 0.25121
4623.05615 0.251335
4623.84717 0.251461
4624.63818 0.251587
4625.42920 0.251713
4626.22119 0.251839
4627.01221 0.251965
4627.80420 0.252091
4628.59619 0.252217
4629.38818 0.252343
4630.18018 0.252468
4630.97217 0.252589
4631.76416 0.252714
4632.55713 0.252842
4633.34912 0.252969
4634.14209 0.253096
4634.93506 0.253224
4635.72803 0.253351
4636.52100 0.253478
4637.31396 0.253606
4638.10791 0.253734
4638.90088 0.253861
4639.69482 0.253989
4640.48877 0.254116
4641.28320 0.254244
4642.07715 0.254348
4642.87109 0.254452
4643.66602 0.254557
4644.45996 0.254661
4645.25488 0.254765
4646.04883 0.254869
4646.84424 0.254973
4647.64014 0.255078
4648.43506 0.255182
4649.22998 0.255286
4650.02490 0.25539
4650.82080 0.255495
4651.61719 0.255593
4652.41309 0.255681
4653.20801 0.25577
4654.00488 0.255858
4654.80078 0.255947
4655.59717 0.256036
4656.39404 0.256124
4657.18994 0.256213
4657.98682 0.256301
4658.78418 0.25639
4659.58203 0.256479
4660.37891 0.256567
4661.17578 0.256656
4661.97412 0.256787
4662.77100 0.256926
4663.56885 0.257065
4664.36719 0.257205
4665.16504 0.257344
4665.96289 0.257483
4666.76123 0.257622
4667.56006 0.257762
4668.35791 0.257901
4669.15723 0.25804
4669.95605 0.25818
4670.75488 0.258336
4671.55420 0.258474
4672.35400 0.25857
4673.15283 0.258666
4673.95312 0.258762
4674.75195 0.258858
4675.55176 0.258954
4676.35205 0.25905
4677.15186 0.259146
4677.95215 0.259242
4678.75293 0.259339
4679.55322 0.259435
4680.35400 0.259523
4681.15479 0.259602
4681.95605 0.259665
4682.75684 0.259725
4683.55811 0.259784
4684.35889 0.259844
4685.16113 0.259903
4685.96191 0.259962
4686.76416 0.260022
4687.56592 0.260082
4688.36816 0.260141
4689.16992 0.260201
4689.97217 0.26026
4690.77490 0.26032
4691.57715 0.260378
4692.37988 0.260432
4693.18311 0.260487
4693.98584 0.260542
4694.78906 0.260596
4695.59180 0.260651
4696.39600 0.260706
4697.19922 0.260761
4698.00293 0.260815
4698.80713 0.26087
4699.60986 0.260925
4700.41504 0.26098
4701.21924 0.261035
4702.02295 0.261056
4702.82812 0.261073
4703.63184 0.261091
4704.43701 0.261108
4705.24219 0.261125
4706.04688 0.261142
4706.85205 0.26116
4707.65820 0.261177
4708.46289 0.261194
4709.26904 0.261211
4710.07422 0.261229
4710.87988 0.261246
4711.68604 0.261296
4712.49219 0.261385
4713.29785 0.261473
4714.10498 0.261562
4714.91211 0.261651
4715.71777 0.26174
4716.52490 0.261828
4717.33203 0.261917
4718.13916 0.262006
4718.94580 0.262095
4719.75391 0.262184
4720.56201 0.262273
4721.36914 0.262361
4722.17676 0.262435
4722.98486 0.26251
4723.79297 0.262585
4724.60107 0.26266
4725.40918 0.262735
4726.21777 0.26281
4727.02588 0.262885
4727.83496 0.26296
4728.64404 0.263034
4729.45312 0.263109
4730.26221 0.263184
4731.07178 0.263259
4731.88086 0.263341
4732.69092 0.263426
4733.50000 0.263512
4734.31104 0.263597
4735.12109 0.263682
4735.93115 0.263767
4736.74121 0.263852
4737.55078 0.263938
4738.36182 0.264023
4739.17188 0.264108
4739.98291 0.264194
4740.79395 0.264297
4741.60498 0.264386
4742.41699 0.264447
4743.22803 0.264507
4744.04004 0.264568
4744.85205 0.264629
4745.66309 0.26469
4746.47510 0.264751
4747.28711 0.264812
4748.10010 0.264873
4748.91211 0.264934
4749.72510 0.264995
4750.53711 0.265043
4751.35010 0.265087
4752.16309 0.265184
4752.97607 0.26528
4753.78906 0.265376
4754.60303 0.265473
4755.41602 0.265569
4756.22900 0.265665
4757.04297 0.265762
4757.85693 0.265858
4758.67090 0.265955
4759.48486 0.266051
4760.29980 0.266147
4761.11377 0.266244
4761.92920 0.266299
4762.74414 0.266338
4763.55908 0.266378
4764.37402 0.266418
4765.18799 0.266458
4766.00391 0.266498
4766.81885 0.266537
4767.63477 0.266577
4768.45117 0.266617
4769.26709 0.266657
4770.08301 0.266697
4770.89795 0.266737
4771.71484 0.266777
4772.53076 0.266819
4773.34814 0.26686
4774.16504 0.266902
4774.98096 0.266944
4775.79785 0.266985
4776.61523 0.267026
4777.43311 0.267068
4778.25000 0.26711
4779.06689 0.267151
4779.88477 0.267193
4780.70312 0.267234
4781.52100 0.267285
4782.33887 0.267365
4783.15723 0.267445
4783.97607 0.267525
4784.79395 0.267605
4785.61279 0.267685
4786.43213 0.267766
4787.25000 0.267846
4788.06982 0.267926
4788.88916 0.268006
4789.70801 0.268087
4790.52783 0.268167
4791.34717 0.268247
4792.16699 0.268317
4792.98682 0.268387
4793.80713 0.268458
4794.62695 0.268528
4795.44824 0.268598
4796.26807 0.268668
4797.08887 0.268739
4797.91016 0.268809
4798.72998 0.268879
4799.55078 0.26895
4800.37305 0.26902
4801.19385 0.269091
4802.01611 0.26917
4802.83691 0.269251
4803.65918 0.269332
4804.47998 0.269413
4805.30322 0.269494
4806.12500 0.269576
4806.94678 0.269657
4807.77002 0.269738
4808.59180 0.269819
4809.41504 0.269901
4810.23779 0.269987
4811.06104 0.270087
4811.88379 0.270163
4812.70703 0.270224
4813.53076 0.270286
4814.35400 0.270348
4815.17822 0.270409
4816.00098 0.270471
4816.82617 0.270533
4817.64990 0.270595
4818.47412 0.270656
4819.29785 0.270718
4820.12305 0.270777
4820.94824 0.27082
4821.77197 0.270879
4822.59814 0.270952
4823.42285 0.271026
4824.24805 0.271099
4825.07324 0.271172
4825.89893 0.271246
4826.72510 0.271319
4827.54980 0.271393
4828.37598 0.271466
4829.20312 0.27154
4830.02881 0.271614
4830.85498 0.271685
4831.68213 0.271748
4832.50781 0.2718
4833.33496 0.271852
4834.16211 0.271904
4834.98877 0.271956
4835.81592 0.272009
4836.64404 0.272061
4837.47119 0.272113
4838.29883 0.272165
4839.12695 0.272217
4839.95508 0.272269
4840.78320 0.272322
4841.61084 0.272379
4842.43896 0.272448
4843.26807 0.272517
4844.09717 0.272586
4844.92480 0.272655
4845.75391 0.272724
4846.58301 0.272793
4847.41309 0.272863
4848.24219 0.272932
4849.07178 0.273001
4849.90088 0.27307
4850.73096 0.273139
4851.56104 0.273194
4852.39111 0.273207
4853.22119 0.273221
4854.05176 0.273234
4854.88184 0.273247
4855.71289 0.273261
4856.54297 0.273274
4857.37500 0.273287
4858.20605 0.2733
4859.03711 0.273314
4859.86816 0.273327
4860.70020 0.27334
4861.53076 0.273351
4862.36279 0.273355
4863.19482 0.273358
4864.02686 0.273361
4864.85889 0.273365
4865.69092 0.273368
4866.52393 0.273371
4867.35693 0.273375
4868.18896 0.273378
4869.02197 0.273381
4869.85498 0.273385
4870.68799 0.273388
4871.52197 0.2734
4872.35498 0.273451
4873.18896 0.273502
4874.02295 0.273553
4874.85693 0.273604
4875.69092 0.273655
4876.52490 0.273706
4877.35889 0.273757
4878.19385 0.273807
4879.02783 0.273858
4879.86279 0.273909
4880.69824 0.27396
4881.53320 0.274009
4882.36914 0.274047
4883.20410 0.274084
4884.04004 0.274122
4884.87500 0.27416
4885.71094 0.274197
4886.54688 0.274235
4887.38281 0.274273
4888.21924 0.274311
4889.05518 0.274349
4889.89209 0.274386
4890.72900 0.274441
4891.56494 0.274498
4892.40186 0.274554
4893.23877 0.274609
4894.07617 0.274664
4894.91406 0.27472
4895.75098 0.274775
4896.58887 0.274831
4897.42676 0.274886
4898.26514 0.274942
4899.10303 0.274997
4899.94092 0.275053
4900.77881 0.27509
4901.61816 0.275131
4902.45703 0.275184
4903.29492 0.275238
4904.13379 0.275291
4904.97314 0.275344
4905.81299 0.275397
4906.65186 0.27545
4907.49121 0.275503
4908.33105 0.275556
4909.16992 0.275609
4910.01123 0.275663
4910.85107 0.275716
4911.69092 0.275762
4912.53076 0.275797
4913.37207 0.275833
4914.21191 0.275868
4915.05322 0.275904
4915.89404 0.275939
4916.73486 0.275974
4917.57715 0.27601
4918.41797 0.276045
4919.25879 0.27608
4920.10107 0.276116
4920.94287 0.276151
4921.78516 0.276173
4922.62695 0.276182
4923.46924 0.276189
4924.31201 0.276198
4925.15381 0.276206
4925.99707 0.276214
4926.83887 0.276222
4927.68213 0.27623
4928.52490 0.276238
4929.36914 0.276246
4930.21191 0.276254
4931.05615 0.276262
4931.89893 0.276308
4932.74316 0.276377
4933.58691 0.276445
4934.43115 0.276514
4935.27490 0.276583
4936.12012 0.276651
4936.96387 0.27672
4937.80908 0.276789
4938.65381 0.276858
4939.49902 0.276927
4940.34424 0.276995
4941.18896 0.277064
4942.03516 0.277097
4942.87988 0.277119
4943.72607 0.277141
4944.57178 0.277162
4945.41797 0.277184
4946.26416 0.277206
4947.10986 0.277228
4947.95703 0.27725
4948.80322 0.277272
4949.64990 0.277294
4950.49707 0.277316
4951.34424 0.277338
4952.19092 0.277378
4953.03809 0.27742
4953.88623 0.277462
4954.73291 0.277503
4955.58105 0.277545
4956.42920 0.277586
4957.27686 0.277628
4958.12500 0.277669
4958.97314 0.277711
4959.82178 0.277752
4960.66992 0.277794
4961.51904 0.277839
4962.36816 0.277901
4963.21680 0.277963
4964.06592 0.278024
4964.91602 0.278086
4965.76514 0.278148
4966.61523 0.27821
4967.46387 0.278272
4968.31396 0.278334
4969.16504 0.278396
4970.01514 0.278458
4970.86523 0.27852
4971.71484 0.278566
4972.56592 0.278587
4973.41699 0.278608
4974.26807 0.278629
4975.11914 0.27865
4975.97021 0.278671
4976.82080 0.278691
4977.67285 0.278712
4978.52393 0.278733
4979.37598 0.278754
4980.22803 0.278775
4981.08105 0.278796
4981.93311 0.278837
4982.78516 0.27889
4983.63818 0.278942
4984.49023 0.278995
4985.34277 0.279047
4986.19580 0.2791
4987.04883 0.279152
4987.90186 0.279205
4988.75586 0.279258
4989.60889 0.27931
4990.46289 0.279374
4991.31689 0.279447
4992.17090 0.27946
4993.02490 0.279469
4993.87891 0.279477
4994.73291 0.279485
4995.58789 0.279493
4996.44287 0.279501
4997.29785 0.279509
4998.15283 0.279517
4999.00781 0.279525
4999.86279 0.279533
5000.71924 0.279517
5001.57422 0.279511
5002.43018 0.279561
5003.28613 0.27961
5004.14209 0.279659
5004.99805 0.279708
5005.85400 0.279758
5006.71094 0.279807
5007.56689 0.279856
5008.42383 0.279906
5009.28076 0.279955
5010.13818 0.280004
5010.99609 0.280054
5011.85303 0.280102
5012.70996 0.280149
5013.56787 0.280195
5014.42578 0.280242
5015.28418 0.280289
5016.14209 0.280336
5017.00000 0.280382
5017.85791 0.280429
5018.71680 0.280476
5019.57617 0.280523
5020.43506 0.28057
5021.29297 0.280617
5022.15186 0.280621
5023.01221 0.280618
5023.87109 0.280616
5024.73096 0.280614
5025.58984 0.280612
5026.45020 0.28061
5027.31104 0.280608
5028.16992 0.280605
5029.03076 0.280603
5029.89111 0.280601
5030.75195 0.280594
5031.61279 0.280595
5032.47412 0.280621
5033.33398 0.280647
5034.19580 0.280673
5035.05713 0.280699
5035.91797 0.280725
5036.77979 0.280751
5037.64209 0.280778
5038.50391 0.280804
5039.36621 0.28083
5040.22803 0.280856
5041.08984 0.280882
5041.95312 0.280903
5042.81494 0.280921
5043.67822 0.280939
5044.54102 0.280957
5045.40381 0.280975
5046.26807 0.280993
5047.13086 0.281011
5047.99512 0.281029
5048.85791 0.281047
5049.72217 0.281065
5050.58594 0.281083
5051.45020 0.281101
5052.31396 0.281117
5053.17920 0.281133
5054.04297 0.28115
5054.90820 0.281166
5055.77295 0.281182
5056.63818 0.281198
5057.50293 0.281214
5058.36914 0.28123
5059.23389 0.281247
5060.10010 0.281263
5060.96484 0.281279
5061.83105 0.281287
5062.69678 0.281287
5063.56299 0.281287
5064.43018 0.281286
5065.29590 0.281286
5066.16309 0.281286
5067.02979 0.281286
5067.89600 0.281285
5068.76416 0.281285
5069.63086 0.281285
5070.49902 0.281284
5071.36621 0.281284
5072.23291 0.281287
5073.10205 0.281291
5073.96924 0.281295
5074.83691 0.281298
5075.70605 0.281302
5076.57422 0.281305
5077.44287 0.281309
5078.31201 0.281312
5079.18115 0.281316
5080.04883 0.28132
5080.91797 0.281323
5081.78809 0.281327
5082.65723 0.28133
5083.52686 0.281332
5084.39697 0.281335
5085.26709 0.281338
5086.13721 0.281341
5087.00684 0.281344
5087.87695 0.281347
5088.74805 0.28135
5089.61914 0.281353
5090.48877 0.281356
5091.35986 0.281359
5092.23096 0.281369
5093.10303 0.281379
5093.97412 0.28139
5094.84619 0.2814
5095.71680 0.28141
5096.58887 0.281421
5097.46094 0.281431
5098.33301 0.281442
5099.20605 0.281452
5100.07812 0.281462
5100.95117 0.281473
5101.82324 0.281479
5102.69580 0.281479
5103.56885 0.28148
5104.44189 0.281481
5105.31592 0.281481
5106.18896 0.281482
5107.06299 0.281483
5107.93701 0.281483
5108.81104 0.281484
5109.68506 0.281485
5110.55908 0.281485
5111.43408 0.281486
5112.30811 0.281481
5113.18311 0.281476
5114.05811 0.281472
5114.93311 0.281467
5115.80811 0.281462
5116.68311 0.281458
5117.55811 0.281453
5118.43408 0.281448
5119.31006 0.281444
5120.18604 0.281439
5121.06201 0.281434
5121.93799 0.281468
5122.81396 0.28153
5123.68994 0.281592
5124.56689 0.281654
5125.44385 0.281716
5126.32080 0.281778
5127.19824 0.28184
5128.07520 0.281901
5128.95312 0.281963
5129.83008 0.282025
5130.70801 0.282104
5131.58496 0.282176
5132.46387 0.282198
5133.34180 0.28222
5134.22021 0.282241
5135.09912 0.282263
5135.97705 0.282285
5136.85596 0.282307
5137.73486 0.282329
5138.61377 0.282351
5139.49316 0.282372
5140.37207 0.282385
5141.25195 0.282386
5142.13086 0.282395
5143.01123 0.282406
5143.89111 0.282417
5144.77100 0.282428
5145.65088 0.282439
5146.53223 0.28245
5147.41309 0.282462
5148.29297 0.282473
5149.17383 0.282484
5150.05518 0.282495
5150.93604 0.282506
5151.81689 0.282525
5152.69922 0.282553
5153.58105 0.282582
5154.46191 0.282611
5155.34424 0.28264
5156.22607 0.282669
5157.10791 0.282697
5157.99121 0.282726
5158.87305 0.282755
5159.75586 0.282784
5160.63916 0.282813
5161.52100 0.282836
5162.40479 0.282805
5163.28809 0.282774
5164.17090 0.282743
5165.05518 0.282712
5165.93799 0.282682
5166.82324 0.282651
5167.70703 0.28262
5168.59082 0.282589
5169.47510 0.282558
5170.35889 0.282527
5171.24414 0.282496
5172.12891 0.282457
5173.01416 0.282416
5173.89893 0.282375
5174.78418 0.282333
5175.66895 0.282292
5176.55518 0.282251
5177.44092 0.282209
5178.32715 0.282168
5179.21191 0.282127
5180.09912 0.282085
5180.98486 0.282044
5181.87207 0.282041
5182.75781 0.282078
5183.64502 0.282115
5184.53223 0.282152
5185.41797 0.28219
5186.30615 0.282227
5187.19287 0.282264
5188.08105 0.282302
5188.96777 0.282339
5189.85596 0.282376
5190.74414 0.282413
5191.63184 0.282436
5192.52100 0.282402
5193.40918 0.282367
5194.29688 0.282333
5195.18604 0.282299
5196.07520 0.282265
5196.96387 0.282231
5197.85303 0.282197
5198.74316 0.282162
5199.63184 0.282128
5200.52100 0.282094
5201.41211 0.28206
5202.30078 0.282024
5203.19092 0.281988
5204.08203 0.281953
5204.97217 0.281917
5205.86279 0.281881
5206.75293 0.281846
5207.64404 0.28181
5208.53516 0.281774
5209.42578 0.281739
5210.31787 0.281703
5211.20898 0.281667
5212.10107 0.281695
5212.99316 0.281746
5213.88379 0.281798
5214.77588 0.281849
5215.66797 0.281901
5216.56104 0.281952
5217.45410 0.282004
5218.34619 0.282055
5219.23877 0.282106
5220.13184 0.282158
5221.02490 0.282209
5221.91797 0.282231
5222.81201 0.282225
5223.70605 0.282218
5224.59912 0.282212
5225.49316 0.282206
5226.38721 0.2822
5227.28076 0.282194
5228.17578 0.282188
5229.06982 0.282182
5229.96484 0.282176
5230.85986 0.282171
5231.75488 0.282142
5232.64990 0.282064
5233.54492 0.281987
5234.43994 0.28191
5235.33594 0.281832
5236.23193 0.281755
5237.12793 0.281677
5238.02393 0.2816
5238.91992 0.281523
5239.81592 0.281445
5240.71289 0.281367
5241.60889 0.281303
5242.50586 0.281306
5243.40283 0.281308
5244.29980 0.28131
5245.19824 0.281313
5246.09521 0.281315
5246.99316 0.281317
5247.89111 0.281319
5248.78906 0.281321
5249.68701 0.281324
5250.58398 0.281326
5251.48291 0.281327
5252.38086 0.281282
5253.27979 0.281237
5254.17920 0.281193
5255.07812 0.281148
5255.97705 0.281103
5256.87598 0.281058
5257.77588 0.281013
5258.67480 0.280968
5259.57520 0.280923
5260.47510 0.280879
5261.37500 0.280834
5262.27490 0.280753
5263.17480 0.280668
5264.07617 0.280582
5264.97705 0.280497
5265.87695 0.280412
5266.77783 0.280327
5267.68018 0.280241
5268.58105 0.280156
5269.48193 0.280071
5270.38379 0.279986
5271.28613 0.2799
5272.18701 0.279839
5273.08887 0.279784
5273.99219 0.279728
5274.89404 0.279673
5275.79590 0.279617
5276.69922 0.279562
5277.60205 0.279507
5278.50488 0.279451
5279.40820 0.279396
5280.31201 0.27934
5281.21484 0.279285
5282.11816 0.279241
5283.02197 0.279203
5283.92578 0.279164
5284.83008 0.279125
5285.73389 0.279087
5286.63916 0.279048
5287.54297 0.279009
5288.44824 0.278971
5289.35303 0.278932
5290.25781 0.278893
5291.16309 0.278855
5292.06787 0.278851
5292.97412 0.278865
5293.87891 0.278879
5294.78516 0.278893
5295.69092 0.278908
5296.59717 0.278922
5297.50293 0.278936
5298.40918 0.27895
5299.31592 0.278965
5300.22314 0.278979
5301.12891 0.278993
5302.03711 0.278979
5302.94287 0.278948
5303.85107 0.278917
5304.75781 0.278886
5305.66602 0.278854
5306.57422 0.278823
5307.48096 0.278792
5308.39014 0.278761
5309.29785 0.27873
5310.20703 0.278698
5311.11523 0.278667
5312.02295 0.278624
5312.93311 0.278572
5313.84082 0.27852
5314.75000 0.278469
5315.66016 0.278417
5316.56885 0.278365
5317.47900 0.278314
5318.38916 0.278262
5319.29883 0.27821
5320.20898 0.278159
5321.11914 0.278107
5322.02979 0.278072
5322.93994 0.278046
5323.85107 0.278021
5324.76221 0.277996
5325.67285 0.277971
5326.58398 0.277945
5327.49512 0.27792
5328.40723 0.277895
5329.31787 0.27787
5330.22998 0.277844
5331.14209 0.277819
5332.05420 0.277781
5332.96680 0.277736
5333.87891 0.27769
5334.79199 0.277645
5335.70508 0.277599
5336.61719 0.277554
5337.52979 0.277508
5338.44385 0.277463
5339.35693 0.277417
5340.27100 0.277371
5341.18408 0.277326
5342.09814 0.277285
5343.01221 0.277246
5343.92578 0.277207
5344.84082 0.277169
5345.75488 0.27713
5346.66992 0.277091
5347.58398 0.277053
5348.50000 0.277014
5349.41504 0.276975
5350.33008 0.276936
5351.24512 0.276897
5352.16113 0.276861
5353.07715 0.276826
5353.99219 0.27679
5354.90918 0.276755
5355.82520 0.27672
5356.74121 0.276684
5357.65820 0.276649
5358.57422 0.276614
5359.49121 0.276578
5360.40820 0.276543
5361.32520 0.276507
5362.24219 0.27647
5363.16016 0.276433
5364.07812 0.276395
5364.99512 0.276358
5365.91309 0.27632
5366.83105 0.276282
5367.75000 0.276245
5368.66797 0.276207
5369.58594 0.27617
5370.50488 0.276132
5371.42383 0.276094
5372.34277 0.275997
5373.26221 0.275894
5374.18213 0.275792
5375.10107 0.275689
5376.02100 0.275587
5376.93994 0.275484
5377.85986 0.275382
5378.78076 0.275279
5379.70117 0.275177
5380.62109 0.275074
5381.54199 0.274974
5382.46191 0.274913
5383.38379 0.274852
5384.30518 0.274791
5385.22607 0.27473
5386.14697 0.27467
5387.06885 0.274609
5387.99023 0.274548
5388.91211 0.274487
5389.83398 0.274426
5390.75586 0.274365
5391.67920 0.274295
5392.60107 0.274183
5393.52393 0.274072
5394.44678 0.27396
5395.37012 0.273848
5396.29297 0.273737
5397.21582 0.273625
5398.14014 0.273514
5399.06299 0.273402
5399.98682 0.27329
5400.91113 0.273178
5401.83496 0.273063
5402.75879 0.272941
5403.68408 0.272819
5404.60791 0.272698
5405.53320 0.272576
5406.45801 0.272454
5407.38281 0.272332
5408.30811 0.272211
5409.23291 0.272089
5410.15918 0.271967
5411.08398 0.271845
5412.00977 0.271755
5412.93604 0.271691
5413.86182 0.271627
5414.78906 0.271563
5415.71484 0.271499
5416.64209 0.271435
5417.56787 0.271371
5418.49512 0.271307
5419.42188 0.271242
5420.35010 0.271178
5421.27686 0.271114
5422.20508 0.271067
5423.13184 0.271025
5424.06006 0.270983
5424.98779 0.270942
5425.91602 0.2709
5426.84521 0.270859
5427.77295 0.270817
5428.70215 0.270775
5429.62988 0.270733
5430.56006 0.270691
5431.48877 0.270649
5432.41797 0.270571
5433.34717 0.270491
5434.27686 0.270411
5435.20703 0.270331
5436.13721 0.270251
5437.06689 0.270171
5437.99707 0.270091
5438.92676 0.270012
5439.85791 0.269932
5440.78906 0.269852
5441.72021 0.269774
5442.65088 0.269704
5443.58203 0.269634
5444.51318 0.269563
5445.44482 0.269493
5446.37598 0.269423
5447.30811 0.269353
5448.24023 0.269283
5449.17188 0.269213
5450.10498 0.269142
5451.03711 0.269072
5451.97021 0.268995
5452.90283 0.268912
5453.83594 0.268828
5454.76904 0.268744
5455.70215 0.268661
5456.63623 0.268577
5457.56885 0.268494
5458.50293 0.26841
5459.43701 0.268327
5460.37109 0.268243
5461.30518 0.268159
5462.24023 0.268053
5463.17383 0.26794
5464.10889 0.267827
5465.04395 0.267714
5465.97900 0.267601
5466.91406 0.267487
5467.84912 0.267375
5468.78516 0.267261
5469.72119 0.267148
5470.65576 0.267035
5471.59180 0.266926
5472.52783 0.266867
5473.46484 0.266807
5474.40088 0.266748
5475.33789 0.266689
5476.27490 0.26663
5477.21191 0.26657
5478.14893 0.266511
5479.08594 0.266452
5480.02295 0.266392
5480.96094 0.266333
5481.89893 0.266267
5482.83691 0.26619
5483.77490 0.266114
5484.71289 0.266037
5485.65088 0.26596
5486.58984 0.265884
5487.52881 0.265807
5488.46777 0.26573
5489.40723 0.265654
5490.34619 0.265577
5491.28516 0.2655
5492.22510 0.265367
5493.16504 0.265215
5494.10400 0.265063
5495.04395 0.264911
5495.98486 0.264759
5496.92480 0.264607
5497.86523 0.264454
5498.80615 0.264302
5499.74707 0.26415
5500.68799 0.263997
5501.62891 0.263843
5502.56982 0.263679
5503.51221 0.263516
5504.45410 0.263352
5505.39502 0.263189
5506.33691 0.263026
5507.27881 0.262862
5508.22217 0.262698
5509.16406 0.262535
5510.10596 0.262371
5511.04883 0.262207
5511.99219 0.262066
5512.93506 0.261947
5513.87793 0.261827
5514.82178 0.261708
5515.76611 0.261589
5516.70898 0.26147
5517.65283 0.26135
5518.59717 0.261231
5519.54199 0.261112
5520.48584 0.260993
5521.43018 0.260873
5522.37500 0.260782
5523.31982 0.260694
5524.26514 0.260605
5525.20996 0.260517
5526.15479 0.260429
5527.10107 0.260341
5528.04590 0.260253
5528.99219 0.260165
5529.93799 0.260077
5530.88379 0.259988
5531.83105 0.259886
5532.77686 0.259752
5533.72412 0.259619
5534.66992 0.259485
5535.61816 0.259351
5536.56396 0.259218
5537.51221 0.259084
5538.45898 0.25895
5539.40723 0.258816
5540.35400 0.258682
5541.30322 0.258549
5542.25000 0.258427
5543.19922 0.258309
5544.14697 0.258191
5545.09619 0.258073
5546.04395 0.257956
5546.99414 0.257837
5547.94189 0.25772
5548.89209 0.257602
5549.84082 0.257484
5550.79102 0.257366
5551.74023 0.257244
5552.68994 0.257106
5553.64014 0.256968
5554.58984 0.256831
5555.54102 0.256693
5556.49121 0.256555
5557.44189 0.256417
5558.39307 0.256279
5559.34424 0.256142
5560.29492 0.256004
5561.24707 0.255866
5562.19824 0.255752
5563.14893 0.25565
5564.10205 0.255547
5565.05420 0.255445
5566.00586 0.255342
5566.95801 0.25524
5567.91113 0.255138
5568.86279 0.255035
5569.81592 0.254933
5570.76904 0.254814
5571.72217 0.254684
5572.67480 0.254525
5573.62891 0.254366
5574.58301 0.254207
5575.53613 0.254049
5576.49023 0.25389
5577.44385 0.253731
5578.39795 0.253572
5579.35303 0.253413
5580.30811 0.253261
5581.26221 0.253122
5582.21680 0.252987
5583.17188 0.252852
5584.12695 0.252718
5585.08301 0.252584
5586.03906 0.252449
5586.99414 0.252315
5587.95020 0.25218
5588.90576 0.252046
5589.86182 0.251912
5590.81885 0.251777
5591.77490 0.251647
5592.73193 0.25153
5593.68896 0.251413
5594.64600 0.251297
5595.60303 0.25118
5596.56104 0.251063
5597.51807 0.250947
5598.47607 0.25083
5599.43408 0.250713
5600.39209 0.250596
5601.35010 0.250479
5602.30811 0.250306
5603.26709 0.250116
5604.22607 0.249927
5605.18506 0.249738
5606.14404 0.249549
5607.10303 0.249359
5608.06201 0.24917
5609.02100 0.248981
5609.98096 0.248791
5610.94092 0.248602
5611.90088 0.248414
5612.86084 0.248231
5613.82080 0.248047
5614.78223 0.247863
5615.74316 0.247679
5616.70410 0.247495
5617.66504 0.247311
5618.62500 0.247127
5619.58691 0.246944
5620.54785 0.24676
5621.50977 0.246576
5622.47217 0.246367
5623.43408 0.246158
5624.39600 0.245948
5625.35791 0.245738
5626.32080 0.245529
5627.28320 0.245319
5628.24609 0.245109
5629.20898 0.2449
5630.17188 0.244689
5631.13477 0.244473
5632.09912 0.244262
5633.06201 0.244055
5634.02588 0.243848
5634.99023 0.243641
5635.95508 0.243434
5636.91797 0.243228
5637.88281 0.243021
5638.84814 0.242814
5639.81299 0.242607
5640.77686 0.2424
5641.74316 0.242207
5642.70801 0.242076
5643.67285 0.241945
5644.63916 0.241813
5645.60400 0.241682
5646.57080 0.241551
5647.53711 0.24142
5648.50293 0.241288
5649.46924 0.241157
5650.43604 0.241026
5651.40283 0.240894
5652.37012 0.240729
5653.33691 0.240556
5654.30420 0.240383
5655.27100 0.240211
5656.23877 0.240038
5657.20703 0.239865
5658.17480 0.239693
5659.14307 0.23952
5660.11084 0.239347
5661.08008 0.239174
5662.04785 0.238997
5663.01709 0.238817
5663.98584 0.238636
5664.95508 0.238455
5665.92383 0.238274
5666.89404 0.238093
5667.86279 0.237912
5668.83301 0.237732
5669.80322 0.237551
5670.77197 0.23737
5671.74316 0.237184
5672.71289 0.236978
5673.68408 0.236772
5674.65479 0.236566
5675.62500 0.236359
5676.59717 0.236153
5677.56787 0.235947
5678.53906 0.235741
5679.51123 0.235535
5680.48193 0.235328
5681.45508 0.235122
5682.42578 0.234921
5683.39893 0.234722
5684.37109 0.234522
5685.34424 0.234322
5686.31592 0.234123
5687.29004 0.233923
5688.26221 0.233724
5689.23584 0.233524
5690.20898 0.233324
5691.18311 0.233125
5692.15576 0.232935
5693.12988 0.232754
5694.10400 0.232572
5695.07910 0.23239
5696.05322 0.232208
5697.02686 0.232026
5698.00195 0.231844
5698.97705 0.231662
5699.95215 0.23148
5700.92676 0.231298
5701.90283 0.231097
5702.87793 0.230856
5703.85400 0.230615
5704.83008 0.230374
5705.80615 0.230133
5706.78223 0.229892
5707.75879 0.229652
5708.73486 0.229411
5709.71191 0.22917
5710.68896 0.228929
5711.66602 0.228694
5712.64307 0.228524
5713.62109 0.228354
5714.59814 0.228184
5715.57617 0.228014
5716.55420 0.227844
5717.53223 0.227674
5718.50977 0.227504
5719.48779 0.227334
5720.46680 0.227154
5721.44580 0.226965
5722.42480 0.226748
5723.40381 0.226526
5724.38281 0.226304
5725.36182 0.226082
5726.34180 0.225861
5727.32178 0.225639
5728.30176 0.225417
5729.28223 0.225195
5730.26221 0.224978
5731.24316 0.224775
5732.22314 0.224559
5733.20410 0.224336
5734.18506 0.224113
5735.16602 0.22389
5736.14697 0.223667
5737.12793 0.223444
5738.10986 0.223221
5739.09180 0.222998
5740.07422 0.222775
5741.05615 0.222552
5742.03809 0.222323
5743.02100 0.222088
5744.00293 0.221853
5744.98584 0.221618
5745.96924 0.221383
5746.95215 0.221147
5747.93506 0.220912
5748.91797 0.220677
5749.90186 0.220442
5750.88623 0.220207
5751.87012 0.219987
5752.85400 0.219808
5753.83789 0.219629
5754.82324 0.21945
5755.80811 0.21927
5756.79199 0.219091
5757.77686 0.218912
5758.76221 0.218733
5759.74805 0.218553
5760.73291 0.218374
5761.71924 0.218186
5762.70508 0.217939
5763.68994 0.217692
5764.67676 0.217445
5765.66309 0.217198
5766.64893 0.216951
5767.63623 0.216704
5768.62305 0.216457
5769.60986 0.21621
5770.59717 0.215963
5771.58398 0.215716
5772.57178 0.215474
5773.56006 0.215233
5774.54688 0.214992
5775.53516 0.214751
5776.52295 0.214509
5777.51221 0.214268
5778.50000 0.214027
5779.48877 0.213786
5780.47803 0.213544
5781.46680 0.213303
5782.45605 0.213036
5783.44482 0.212765
5784.43506 0.212495
5785.42383 0.212224
5786.41504 0.211953
5787.40381 0.211683
5788.39502 0.211412
5789.38477 0.211141
5790.37500 0.21087
5791.36621 0.210599
5792.35693 0.210366
5793.34814 0.210144
5794.33887 0.209922
5795.33105 0.2097
5796.32178 0.209478
5797.31396 0.209256
5798.30615 0.209034
5799.29785 0.208812
5800.29004 0.20859
5801.28320 0.208368
5802.27490 0.208107
5803.26807 0.207828
5804.26123 0.207549
5805.25391 0.20727
5806.24707 0.206991
5807.24023 0.206712
5808.23389 0.206432
5809.22803 0.206153
5810.22217 0.205874
5811.21582 0.205595
5812.20996 0.205329
5813.20508 0.205072
5814.19922 0.204815
5815.19385 0.204558
5816.18896 0.204301
5817.18408 0.204044
5818.17920 0.203787
5819.17480 0.203529
5820.16992 0.203269
5821.16602 0.202995
5822.16211 0.20275
5823.15820 0.202529
5824.15479 0.202309
5825.15088 0.202088
5826.14697 0.201867
5827.14502 0.201647
5828.14209 0.201426
5829.13916 0.201205
5830.13623 0.200987
5831.13281 0.200787
5832.13086 0.200557
5833.12891 0.2003
5834.12695 0.200043
5835.12500 0.199785
5836.12402 0.199528
5837.12207 0.19927
5838.12109 0.199013
5839.12012 0.198756
5840.11914 0.198498
5841.11816 0.198241
5842.11719 0.197972
5843.11719 0.197691
5844.11719 0.197411
5845.11719 0.19713
5846.11719 0.196849
5847.11719 0.196569
5848.11719 0.196288
5849.11816 0.196007
5850.11914 0.195726
5851.12012 0.195446
5852.12109 0.19519
5853.12207 0.19496
5854.12305 0.19473
5855.12500 0.194499
5856.12598 0.194269
5857.12793 0.194039
5858.13086 0.193808
5859.13281 0.193578
5860.13623 0.193347
5861.13818 0.193117
5862.14111 0.192867
5863.14404 0.1926
5864.14697 0.192332
5865.14990 0.192065
5866.15381 0.191797
5867.15820 0.191529
5868.16211 0.191262
5869.16602 0.190994
5870.16895 0.190727
5871.17383 0.190459
5872.17920 0.19019
5873.18311 0.18992
5874.18799 0.189651
5875.19287 0.189381
5876.19824 0.189111
5877.20410 0.188841
5878.20898 0.188571
5879.21484 0.188302
5880.22119 0.188032
5881.22705 0.187762
5882.23291 0.187493
5883.24023 0.187225
5884.24609 0.186957
5885.25293 0.186689
5886.25977 0.186421
5887.26709 0.186153
5888.27393 0.185885
5889.28223 0.185617
5890.29004 0.185348
5891.29688 0.18508
5892.30518 0.184799
5893.31299 0.184511
5894.32178 0.184224
5895.33008 0.183936
5896.33887 0.183648
5897.34814 0.183361
5898.35596 0.183073
5899.36621 0.182785
5900.37500 0.182491
5901.38477 0.182188
5902.39502 0.181889
5903.40381 0.181592
5904.41406 0.181296
5905.42383 0.180999
5906.43506 0.180702
5907.44482 0.180405
5908.45605 0.180108
5909.46680 0.179811
5910.47803 0.179522
5911.48877 0.179241
5912.50098 0.178982
5913.51221 0.178727
5914.52393 0.178472
5915.53613 0.178216
5916.54785 0.177961
5917.56104 0.177706
5918.57324 0.177451
5919.58496 0.177195
5920.59814 0.17694
5921.61084 0.176685
5922.62500 0.17642
5923.63818 0.176154
5924.65088 0.175888
5925.66504 0.175622
5926.67920 0.175356
5927.69287 0.175091
5928.70703 0.174825
5929.72217 0.174559
5930.73584 0.174293
5931.75000 0.174026
5932.76611 0.173747
5933.78076 0.173469
5934.79590 0.173191
5935.81201 0.172912
5936.82715 0.172634
5937.84277 0.172355
5938.85791 0.172077
5939.87500 0.171798
5940.89111 0.171519
5941.90723 0.171241
5942.92383 0.170963
5943.94092 0.170685
5944.95801 0.170407
5945.97510 0.17013
5946.99219 0.169852
5948.00977 0.169574
5949.02686 0.169296
5950.04492 0.169018
5951.06299 0.16874
5952.08203 0.168459
5953.10010 0.168175
5954.11914 0.167891
5955.13721 0.167607
5956.15576 0.167323
5957.17480 0.167039
5958.19385 0.166755
5959.21387 0.16647
5960.23291 0.166186
5961.25293 0.165902
5962.27295 0.165622
5963.29297 0.165346
5964.31299 0.165069
5965.33398 0.164792
5966.35400 0.164515
5967.37500 0.164238
5968.39600 0.163961
5969.41699 0.163684
5970.43896 0.1634
5971.45996 0.163109
5972.48193 0.162815
5973.50391 0.162519
5974.52588 0.162224
5975.54785 0.161928
5976.57080 0.161633
5977.59277 0.161337
5978.61621 0.161042
5979.63916 0.160747
5980.66211 0.16046
5981.68506 0.160179
5982.70801 0.159894
5983.73193 0.159609
5984.75586 0.159323
5985.77979 0.159038
5986.80420 0.158753
5987.82812 0.158468
5988.85303 0.158182
5989.87695 0.157897
5990.90186 0.157612
5991.92676 0.157322
5992.95312 0.157019
5993.97803 0.156716
5995.00293 0.156412
5996.02881 0.156109
5997.05518 0.155806
5998.08105 0.155503
5999.10693 0.155199
6000.13379 0.154898
6001.16016 0.15461
6002.18701 0.154326
6003.21387 0.154044
6004.24121 0.153761
6005.26904 0.153479
6006.29590 0.153197
6007.32422 0.152915
6008.35205 0.152632
6009.37891 0.15235
6010.40820 0.152067
6011.43604 0.151784
6012.46387 0.151507
6013.49316 0.15123
6014.52197 0.150953
6015.55078 0.150676
6016.58008 0.1504
6017.60986 0.150123
6018.63916 0.149846
6019.66895 0.149568
6020.69922 0.149291
6021.72900 0.149015
6022.75879 0.14876
6023.79004 0.148504
6024.81982 0.148249
6025.85107 0.147993
6026.88184 0.147737
6027.91406 0.147481
6028.94482 0.147225
6029.97607 0.146969
6031.00781 0.146699
6032.04004 0.146419
6033.07178 0.146123
6034.10400 0.145827
6035.13721 0.145532
6036.16895 0.145236
6037.20215 0.14494
6038.23486 0.144644
6039.26807 0.144348
6040.30078 0.144056
6041.33398 0.143773
6042.36816 0.143497
6043.40186 0.143224
6044.43604 0.142951
6045.47021 0.142678
6046.50391 0.142405
6047.53906 0.142132
6048.57422 0.141859
6049.60889 0.141586
6050.64404 0.141313
6051.67920 0.141039
6052.71387 0.14077
6053.75000 0.1405
6054.78613 0.140231
6055.82178 0.139961
6056.85791 0.139691
6057.89404 0.139421
6058.93115 0.139151
6059.96680 0.138881
6061.00391 0.138611
6062.04102 0.13834
6063.07812 0.138067
6064.11621 0.137793
6065.15283 0.13752
6066.19092 0.137247
6067.22900 0.136973
6068.26709 0.1367
6069.30518 0.136426
6070.34277 0.136152
6071.38184 0.135879
6072.42090 0.135589
6073.45996 0.135293
6074.49902 0.134997
6075.53809 0.134701
6076.57812 0.134405
6077.61816 0.134109
6078.65723 0.133813
6079.69678 0.133516
6080.73682 0.13322
6081.77783 0.132928
6082.81787 0.132679
6083.85889 0.132431
6084.89990 0.132182
6085.94092 0.131933
6086.98193 0.131685
6088.02393 0.131436
6089.06494 0.131187
6090.10693 0.130937
6091.14893 0.130676
6092.19092 0.130401
6093.23389 0.130111
6094.27588 0.129822
6095.31885 0.129532
6096.36182 0.129242
6097.40479 0.128952
6098.44824 0.128662
6099.49219 0.128372
6100.53516 0.128088
6101.57910 0.127809
6102.62305 0.127531
6103.66699 0.127252
6104.71094 0.126973
6105.75586 0.126695
6106.79980 0.126416
6107.84521 0.126137
6108.89014 0.125858
6109.93604 0.125579
6110.98096 0.125299
6112.02588 0.12502
6113.07178 0.124738
6114.11816 0.124457
6115.16406 0.124175
6116.20996 0.123894
6117.25684 0.123612
6118.30420 0.12333
6119.35107 0.123049
6120.39697 0.122767
6121.44385 0.122485
6122.49219 0.122207
6123.54004 0.12193
6124.58691 0.121653
6125.63477 0.121376
6126.68311 0.121098
6127.73096 0.120821
6128.77979 0.120544
6129.82812 0.120266
6130.87695 0.119989
6131.92578 0.11971
6132.97510 0.119425
6134.02393 0.11914
6135.07422 0.118855
6136.12402 0.11857
6137.17285 0.118285
6138.22412 0.118
6139.27393 0.117715
6140.32422 0.11743
6141.37500 0.117144
6142.42578 0.116868
6143.47705 0.116596
6144.52783 0.116324
6145.57910 0.116052
6146.62988 0.11578
6147.68213 0.115508
6148.73389 0.115235
6149.78613 0.114963
6150.83789 0.114683
6151.89111 0.114403
6152.94287 0.114136
6153.99609 0.113869
6155.04883 0.113603
6156.10205 0.113336
6157.15479 0.11307
6158.20801 0.112803
6159.26221 0.112536
6160.31592 0.112273
6161.37012 0.112016
6162.42383 0.11174
6163.47900 0.111455
6164.53320 0.11117
6165.58789 0.110884
6166.64307 0.110599
6167.69824 0.110314
6168.75293 0.110028
6169.80908 0.109743
6170.86377 0.109457
6171.91992 0.109177
6172.97607 0.108918
6174.03223 0.108659
6175.08789 0.1084
6176.14502 0.108142
6177.20215 0.107883
6178.25781 0.107624
6179.31494 0.107365
6180.37305 0.107105
6181.43018 0.106846
6182.48779 0.106581
6183.54492 0.106313
6184.60400 0.106046
6185.66211 0.105778
6186.72021 0.10551
6187.77783 0.105243
6188.83691 0.104975
6189.89600 0.104707
6190.95508 0.104439
6192.01416 0.10417
6193.07422 0.1039
6194.13281 0.10363
6195.19287 0.10336
6196.25293 0.10309
6197.31299 0.10282
6198.37402 0.10255
6199.43408 0.102279
6200.49512 0.102005
6201.55615 0.101725
6202.61719 0.10146
6203.67822 0.101198
6204.73877 0.100936
6205.80078 0.100673
6206.86279 0.100411
6207.92480 0.100149
6208.98682 0.099886
6210.04883 0.099624
6211.11182 0.099371
6212.17383 0.099114
6213.23682 0.098852
6214.29980 0.09859
6215.36377 0.098328
6216.42676 0.098066
6217.49121 0.097803
6218.55420 0.097541
6219.61816 0.097279
6220.68311 0.097016
6221.74707 0.096754
6222.81201 0.096503
6223.87598 0.096252
6224.94092 0.096001
6226.00586 0.09575
6227.07080 0.095499
6228.13721 0.095247
6229.20215 0.094996
6230.26807 0.094745
6231.33398 0.094494
6232.39990 0.094233
6233.46582 0.093967
6234.53320 0.0937
6235.60010 0.093433
6236.66699 0.093166
6237.73291 0.092898
6238.80078 0.092631
6239.86816 0.092364
6240.93604 0.092089
6242.00293 0.091819
6243.07178 0.091567
6244.14014 0.091315
6245.20801 0.091063
6246.27588 0.09081
6247.34521 0.090558
6248.41406 0.090306
6249.48291 0.090053
6250.55176 0.089805
6251.62207 0.08956
6252.69092 0.089318
6253.76123 0.089076
6254.83203 0.088833
6255.90088 0.088591
6256.97217 0.088348
6258.04199 0.088106
6259.11279 0.087863
6260.18408 0.08762
6261.25488 0.087377
6262.32617 0.08713
6263.39795 0.086879
6264.46924 0.086628
6265.54102 0.086376
6266.61279 0.086125
6267.68604 0.085874
6268.75781 0.085622
6269.83105 0.085371
6270.90283 0.085119
6271.97607 0.084868
6273.04883 0.084622
6274.12305 0.084375
6275.19580 0.084128
6276.27002 0.083881
6277.34277 0.083634
6278.41699 0.083387
6279.49219 0.08314
6280.56592 0.082892
6281.64111 0.082645
6282.71484 0.082401
6283.79004 0.082157
6284.86523 0.081913
6285.93994 0.08167
6287.01611 0.081425
6288.09180 0.081181
6289.16699 0.080937
6290.24414 0.080691
6291.31982 0.08044
6292.39600 0.080193
6293.47314 0.07995
6294.54980 0.079707
6295.62598 0.079463
6296.70410 0.07922
6297.78076 0.078977
6298.85889 0.078733
6299.93701 0.07849
6301.01416 0.078253
6302.09180 0.078019
6303.16992 0.077788
6304.24902 0.077557
6305.32812 0.077325
6306.40576 0.077094
6307.48486 0.076863
6308.56396 0.076632
6309.64404 0.0764
6310.72412 0.076169
6311.80322 0.075937
6312.88281 0.075701
6313.96289 0.075464
6315.04297 0.075228
6316.12402 0.074992
6317.20508 0.074755
6318.28613 0.074518
6319.36719 0.074282
6320.44824 0.074045
6321.52881 0.073808
6322.61084 0.07357
6323.69189 0.073332
6324.77393 0.073094
6325.85596 0.072855
6326.93896 0.072617
6328.02100 0.072378
6329.10400 0.07214
6330.18701 0.0719
6331.27002 0.071654
6332.35303 0.071414
6333.43701 0.071178
6334.52100 0.070942
6335.60400 0.070706
6336.68799 0.07047
6337.77197 0.070234
6338.85596 0.069998
6339.94092 0.069761
6341.02588 0.069531
6342.11084 0.069304
6343.19580 0.069082
6344.28076 0.06886
6345.36719 0.068638
6346.45215 0.068416
6347.53809 0.068194
6348.62402 0.067972
6349.70996 0.067749
6350.79688 0.067527
6351.88281 0.067303
6352.97021 0.067073
6354.05713 0.066842
6355.14502 0.066611
6356.23096 0.06638
6357.31885 0.066149
6358.40723 0.065918
6359.49512 0.065687
6360.58301 0.065456
6361.67090 0.065225
6362.75879 0.065018
6363.84814 0.064813
6364.93701 0.064608
6366.02588 0.064403
6367.11523 0.064198
6368.20508 0.063993
6369.29395 0.063788
6370.38379 0.063581
6371.47412 0.063369
6372.56396 0.063161
6373.65381 0.062954
6374.74512 0.062747
6375.83496 0.062541
6376.92578 0.062334
6378.01807 0.062126
6379.10791 0.06192
6380.20020 0.061713
6381.29199 0.061512
6382.38281 0.061304
6383.47607 0.061091
6384.56689 0.060878
6385.66016 0.060665
6386.75195 0.060452
6387.84521 0.060239
6388.93799 0.060025
6390.03076 0.059812
6391.12500 0.059599
6392.21777 0.059387
6393.31201 0.059178
6394.40576 0.058969
6395.50000 0.05876
6396.59424 0.058551
6397.68799 0.058342
6398.78320 0.058133
6399.87793 0.057923
6400.97314 0.057714
6402.06787 0.057508
6403.16309 0.057309
6404.25879 0.057111
6405.35400 0.056913
6406.45117 0.056714
6407.54590 0.056516
6408.64307 0.056317
6409.73877 0.056119
6410.83594 0.055916
6411.93311 0.055713
6413.02979 0.055512
6414.12695 0.055312
6415.22510 0.055112
6416.32178 0.054911
6417.41992 0.054711
6418.51807 0.05451
6419.61621 0.05431
6420.71387 0.054112
6421.81299 0.053917
6422.91211 0.053723
6424.01123 0.053529
6425.10986 0.053335
6426.20898 0.053141
6427.30908 0.052947
6428.40820 0.052753
6429.50781 0.052558
6430.60791 0.052363
6431.70801 0.052168
6432.80908 0.051976
6433.91016 0.051785
6435.00977 0.051593
6436.11084 0.051401
6437.21191 0.05121
6438.31396 0.051018
6439.41602 0.050826
6440.51709 0.050634
6441.61914 0.050442
6442.72119 0.050254
6443.82422 0.050065
6444.92578 0.049877
6446.02881 0.049688
6447.13184 0.0495
6448.23486 0.049311
6449.33789 0.049123
6450.44092 0.048932
6451.54492 0.048739
6452.64893 0.048555
6453.75293 0.048373
6454.85693 0.048191
6455.96094 0.048008
6457.06592 0.047826
6458.17090 0.047644
6459.27588 0.047462
6460.38086 0.047282
6461.48584 0.047104
6462.59180 0.046925
6463.69678 0.046745
6464.80322 0.046566
6465.91016 0.046386
6467.01611 0.046207
6468.12207 0.046027
6469.22900 0.045847
6470.33594 0.045667
6471.44287 0.045488
6472.54980 0.04531
6473.65723 0.045132
6474.76514 0.044955
6475.87305 0.044778
6476.98096 0.044601
6478.08887 0.044423
6479.19678 0.044246
6480.30615 0.044069
6481.41504 0.043891
6482.52295 0.04372
6483.63281 0.043552
6484.74219 0.043385
6485.85205 0.043217
6486.96094 0.043049
6488.07080 0.042881
6489.18115 0.042713
6490.29199 0.042544
6491.40186 0.042372
6492.51318 0.0422
6493.62402 0.042028
6494.73389 0.041857
6495.84619 0.041685
6496.95703 0.041513
6498.06885 0.041341
6499.18018 0.04117
6500.29199 0.040996
6501.40479 0.04082
6502.51709 0.040647
6503.62891 0.040477
6504.74219 0.040306
6505.85498 0.040136
6506.96777 0.039966
6508.08203 0.039795
6509.19482 0.039625
6510.30908 0.039455
6511.42188 0.039284
6512.53711 0.039111
6513.65088 0.038935
6514.76514 0.038759
6515.87988 0.038584
6516.99512 0.038408
6518.10986 0.038233
6519.22510 0.038058
6520.33984 0.037881
6521.45605 0.037702
6522.57178 0.037534
6523.68799 0.037371
6524.80420 0.037209
6525.91992 0.037046
6527.03711 0.036883
6528.15381 0.036721
6529.27100 0.036558
6530.38818 0.036397
6531.50488 0.036238
6532.62305 0.036083
6533.74023 0.035929
6534.85791 0.035776
6535.97607 0.035622
6537.09424 0.035469
6538.21289 0.035315
6539.33203 0.035162
6540.45020 0.035008
6541.56885 0.034855
6542.68799 0.034701
6543.80811 0.034546
6544.92822 0.034392
6546.04688 0.034238
6547.16699 0.034083
6548.28809 0.033929
6549.40820 0.033775
6550.52881 0.03362
6551.64893 0.033466
6552.77100 0.033314
6553.89209 0.033163
6555.01318 0.033011
6556.13379 0.03286
6557.25586 0.032708
6558.37793 0.032557
6559.50000 0.032406
6560.62305 0.032253
6561.74512 0.032098
6562.86816 0.031952
6563.99023 0.031807
6565.11279 0.031662
6566.23682 0.031516
6567.35986 0.031371
6568.48389 0.031226
6569.60693 0.031081
6570.73096 0.030938
6571.85596 0.030796
6572.97998 0.030656
6574.10498 0.030516
6575.22900 0.030376
6576.35400 0.030236
6577.47998 0.030096
6578.60498 0.029957
6579.73096 0.029817
6580.85596 0.029677
6581.98193 0.029538
6583.10889 0.029403
6584.23486 0.029267
6585.36084 0.029132
6586.48779 0.028996
6587.61523 0.028861
6588.74219 0.028725
6589.87012 0.02859
6590.99707 0.028452
6592.12500 0.028314
6593.25195 0.028176
6594.38086 0.028038
6595.50879 0.0279
6596.63721 0.027762
6597.76611 0.027624
6598.89502 0.027486
6600.02393 0.027349
6601.15283 0.027214
6602.28320 0.027084
6603.41211 0.026962
6604.54199 0.02684
6605.67188 0.026719
6606.80176 0.026597
6607.93311 0.026476
6609.06299 0.026354
6610.19385 0.026232
6611.32520 0.026111
6612.45605 0.025988
6613.58691 0.025863
6614.71924 0.025739
6615.85107 0.025614
6616.98193 0.02549
6618.11523 0.025365
6619.24707 0.025241
6620.37891 0.025116
6621.51221 0.024992
6622.64502 0.024872
6623.77783 0.024753
6624.91211 0.024635
6626.04492 0.024516
6627.17920 0.024398
6628.31299 0.02428
6629.44678 0.024161
6630.58105 0.024041
6631.71484 0.023919
6632.85010 0.023798
6633.98486 0.023677
6635.12012 0.023556
6636.25488 0.023435
6637.39111 0.023314
6638.52588 0.023193
6639.66211 0.023072
6640.79785 0.022953
6641.93408 0.022836
6643.07080 0.022725
6644.20703 0.022614
6645.34424 0.022503
6646.48096 0.022393
6647.61816 0.022282
6648.75488 0.022172
6649.89307 0.022061
6651.03076 0.021951
6652.16895 0.02184
6653.30713 0.02173
6654.44482 0.021619
6655.58398 0.021509
6656.72314 0.021399
6657.86084 0.021289
6659.00000 0.021178
6660.14014 0.021068
6661.27881 0.020956
6662.41895 0.020845
6663.55908 0.020736
6664.69922 0.020626
6665.83887 0.020517
6666.97998 0.020407
6668.12109 0.020298
6669.26221 0.020189
6670.40283 0.02008
6671.54395 0.019973
6672.68604 0.019871
6673.82715 0.019771
6674.96924 0.01967
6676.11084 0.01957
6677.25293 0.019469
6678.39600 0.019369
6679.53809 0.019269
6680.68115 0.019169
6681.82422 0.019068
6682.96680 0.018971
6684.11084 0.018873
6685.25391 0.018776
6686.39795 0.018678
6687.54199 0.018581
6688.68701 0.018484
6689.83105 0.018386
6690.97607 0.018287
6692.12012 0.018189
6693.26514 0.018094
6694.41016 0.017998
6695.55615 0.017903
6696.70117 0.017808
6697.84717 0.017713
6698.99316 0.017617
6700.13916 0.017522
6701.28613 0.017429
6702.43213 0.017336
6703.57910 0.017244
6704.72607 0.017152
6705.87305 0.01706
6707.02100 0.016967
6708.16797 0.016875
6709.31494 0.016783
6710.46289 0.016691
6711.61182 0.016599
6712.75977 0.01651
6713.90918 0.016422
6715.05713 0.016333
6716.20605 0.016245
6717.35498 0.016157
6718.50391 0.016068
6719.65381 0.01598
6720.80420 0.015891
6721.95410 0.015801
6723.10400 0.015715
6724.25391 0.015629
6725.40381 0.015543
6726.55518 0.015457
6727.70605 0.015371
6728.85693 0.015285
6730.00781 0.015199
6731.16016 0.015115
6732.31201 0.015032
6733.46289 0.014952
6734.61523 0.014872
6735.76807 0.014792
6736.91992 0.014712
6738.07324 0.014632
6739.22607 0.014552
6740.37793 0.014472
6741.53223 0.014392
6742.68604 0.014311
6743.83887 0.01423
6744.99316 0.014148
6746.14697 0.014067
6747.30078 0.013986
6748.45605 0.013904
6749.60986 0.013823
6750.76514 0.013741
6751.91992 0.013659
6753.07520 0.013583
6754.22998 0.013507
6755.38623 0.013431
6756.54199 0.013355
6757.69824 0.013279
6758.85400 0.013203
6760.01123 0.013128
6761.16699 0.013053
6762.32422 0.01298
6763.48096 0.012908
6764.63818 0.012836
6765.79492 0.012764
6766.95312 0.012692
6768.11084 0.01262
6769.26904 0.012548
6770.42676 0.012476
6771.58496 0.012404
6772.74414 0.012335
6773.90283 0.012267
6775.06201 0.012199
6776.22119 0.012131
6777.37988 0.012063
6778.54004 0.011995
6779.70020 0.011927
6780.85986 0.011859
6782.02002 0.01179
6783.18018 0.011722
6784.34082 0.011654
6785.50098 0.011586
6786.66309 0.011519
6787.82422 0.011451
6788.98486 0.011383
6790.14600 0.011316
6791.30908 0.011249
6792.47021 0.011183
6793.63184 0.011117
6794.79492 0.01105
6795.95801 0.010984
6797.12012 0.010918
6798.28320 0.010852
6799.44580 0.010786
6800.60889 0.010719
6801.77295 0.010653
6802.93701 0.010593
6804.10107 0.010533
6805.26514 0.010473
6806.42920 0.010413
6807.59424 0.010353
6808.75879 0.010293
6809.92285 0.010234
6811.08887 0.010173
6812.25391 0.010112
6813.41895 0.010052
6814.58496 0.009991
6815.75098 0.009931
6816.91699 0.00987
6818.08301 0.00981
6819.25000 0.00975
6820.41699 0.00969
6821.58398 0.00963
6822.75098 0.009573
6823.91797 0.009517
6825.08594 0.00946
6826.25391 0.009404
6827.42090 0.009348
6828.58984 0.009292
6829.75781 0.009235
6830.92676 0.009179
6832.09521 0.009124
6833.26416 0.00907
6834.43408 0.009017
6835.60303 0.008964
6836.77197 0.008911
6837.94189 0.008857
6839.11182 0.008804
6840.28223 0.008751
6841.45312 0.008697
6842.62305 0.008644
6843.79395 0.008592
6844.96484 0.00854
6846.13623 0.008488
6847.30713 0.008436
6848.47900 0.008384
6849.64990 0.008332
6850.82178 0.00828
6851.99512 0.00823
6853.16699 0.008182
6854.33887 0.008134
6855.51221 0.008087
6856.68506 0.008039
6857.85791 0.007992
6859.03223 0.007944
6860.20508 0.007897
6861.37891 0.007848
6862.55322 0.0078
6863.72705 0.007751
6864.90088 0.007702
6866.07617 0.007653
6867.25000 0.007604
6868.42480 0.007555
6869.60107 0.007506
6870.77588 0.007457
6871.95215 0.007409
6873.12695 0.007364
6874.30322 0.007319
6875.47900 0.007275
6876.65576 0.00723
6877.83301 0.007185
6879.00879 0.00714
6880.18604 0.007095
6881.36279 0.00705
6882.54102 0.007007
6883.71777 0.006966
6884.89600 0.006924
6886.07422 0.006883
6887.25195 0.006842
6888.43018 0.0068
6889.60889 0.006759
6890.78809 0.006717
6891.96680 0.006675
6893.14600 0.006633
6894.32520 0.006591
6895.50488 0.006549
6896.68506 0.006507
6897.86523 0.006465
6899.04492 0.006423
6900.22510 0.006381
6901.40576 0.006339
6902.58594 0.006299
6903.76807 0.00626
6904.94922 0.006221
6906.12988 0.006182
6907.31201 0.006143
6908.49414 0.006104
6909.67578 0.006066
6910.85791 0.006027
6912.04004 0.005988
6913.22314 0.00595
6914.40576 0.005912
6915.58887 0.005874
6916.77197 0.005836
6917.95508 0.005798
6919.13916 0.00576
6920.32324 0.005722
6921.50684 0.005683
6922.69092 0.005646
6923.87500 0.005611
6925.06006 0.005575
6926.24512 0.005539
6927.43018 0.005504
6928.61523 0.005468
6929.80078 0.005433
6930.98584 0.005398
6932.17188 0.005363
6933.35791 0.005329
6934.54395 0.005295
6935.73096 0.005261
6936.91699 0.005227
6938.10400 0.005193
6939.29199 0.005159
6940.47900 0.005124
6941.66699 0.00509
6942.85400 0.005056
6944.04199 0.005023
6945.22998 0.00499
6946.41797 0.004957
6947.60693 0.004924
6948.79492 0.004891
6949.98389 0.004858
6951.17285 0.004825
6952.36279 0.004793
6953.55176 0.004762
6954.74219 0.004732
6955.93213 0.004701
6957.12207 0.00467
6958.31299 0.004639
6959.50293 0.004609
6960.69385 0.004578
6961.88477 0.004547
6963.07617 0.004518
6964.26709 0.004489
6965.45801 0.00446
6966.64990 0.004431
6967.84180 0.004402
6969.03516 0.004373
6970.22705 0.004344
6971.41895 0.004315
6972.61182 0.004287
6973.80518 0.004258
6974.99902 0.00423
6976.19189 0.004202
6977.38477 0.004174
6978.57910 0.004146
6979.77295 0.004118
6980.96680 0.00409
6982.16211 0.004063
6983.35596 0.004036
6984.55078 0.004009
6985.74609 0.003983
6986.94092 0.003956
6988.13721 0.003929
6989.33301 0.003902
6990.52783 0.003876
6991.72412 0.003849
6992.91992 0.003823
6994.11719 0.003798
6995.31299 0.003772
6996.50977 0.003747
6997.70801 0.003722
6998.90479 0.003696
7000.10303 0.003671
7001.29980 0.003645
7002.49805 0.00362
7003.69580 0.003595
7004.89404 0.003571
7006.09277 0.003547
7007.29199 0.003523
7008.49023 0.003498
7009.68896 0.003474
7010.88916 0.00345
7012.08789 0.003427
7013.28809 0.003404
7014.48779 0.00338
7015.68799 0.003357
7016.88916 0.003334
7018.08887 0.003311
7019.29004 0.003288
7020.49121 0.003265
7021.69189 0.003242
7022.89307 0.003219
7024.09521 0.003196
7025.29688 0.003174
7026.49902 0.003151
7027.70117 0.003129
7028.90283 0.003106
7030.10596 0.003084
7031.30908 0.003061
7032.51221 0.00304
7033.71484 0.00302
7034.91797 0.002999
7036.12207 0.002979
7037.32617 0.002959
7038.52979 0.002939
7039.73389 0.002919
7040.93799 0.002898
7042.14307 0.002878
7043.34814 0.002859
7044.55322 0.002839
7045.75781 0.00282
7046.96387 0.0028
7048.16895 0.002781
7049.37500 0.002761
7050.58203 0.002742
7051.78809 0.002722
7052.99512 0.002703
7054.20117 0.002683
7055.40820 0.002664
7056.61523 0.002645
7057.82324 0.002625
7059.02979 0.002606
7060.23779 0.002587
7061.44580 0.002568
7062.65381 0.00255
7063.86182 0.002532
7065.07080 0.002514
7066.27979 0.002496
7067.48877 0.002479
7068.69824 0.002461
7069.90820 0.002443
7071.11719 0.002425
7072.32715 0.002407
7073.53711 0.00239
7074.74707 0.002373
7075.95801 0.002356
7077.16797 0.002338
7078.37891 0.002321
7079.58984 0.002304
7080.80176 0.002287
7082.01318 0.00227
7083.22510 0.002255
7084.43701 0.00224
7085.64893 0.002224
7086.86084 0.002209
7088.07422 0.002194
7089.28613 0.002179
7090.50000 0.002163
7091.71191 0.002148
7092.92578 0.002133
7094.13916 0.002117
7095.35303 0.002102
7096.56689 0.002087
7097.78076 0.002072
7098.99609 0.002056
7100.20996 0.002041
7101.42480 0.002026
7102.64014 0.002011
7103.85498 0.001996
7105.07080 0.001982
7106.28613 0.001967
7107.50195 0.001952
7108.71777 0.001937
7109.93506 0.001922
7111.15088 0.001907
7112.36816 0.001893
7113.58398 0.00188
7114.80176 0.001866
7116.01904 0.001853
7117.23584 0.00184
7118.45410 0.001826
7119.67188 0.001813
7120.89014 0.0018
7122.10791 0.001786
7123.32715 0.001773
7124.54590 0.00176
7125.76514 0.001747
7126.98389 0.001734
7128.20410 0.001721
7129.42285 0.001708
7130.64307 0.001695
7131.86279 0.001683
7133.08301 0.001671
7134.30420 0.001658
7135.52393 0.001646
7136.74512 0.001634
7137.96582 0.001622
7139.18799 0.00161
7140.40918 0.001598
7141.62988 0.001586
7142.85303 0.001574
7144.07520 0.001563
7145.29688 0.001551
7146.52002 0.001539
7147.74219 0.001528
7148.96484 0.001516
7150.18799 0.001505
7151.41211 0.001493
7152.63477 0.001482
7153.85889 0.001471
7155.08301 0.00146
7156.30713 0.00145
7157.53076 0.001439
7158.75586 0.001428
7159.98096 0.001417
7161.20605 0.001406
7162.43115 0.001396
7163.65723 0.001386
7164.88184 0.001376
7166.10791 0.001365
7167.33398 0.001355
7168.56104 0.001345
7169.78711 0.001335
7171.01416 0.001325
7172.24121 0.001315
7173.46777 0.001306
7174.69482 0.001296
7175.92285 0.001286
7177.14990 0.001276
7178.37793 0.001267
7179.60596 0.001257
7180.83496 0.001247
7182.06299 0.001238
7183.29199 0.001228
7184.52100 0.001219
7185.75000 0.00121
7186.97998 0.001201
7188.20996 0.001192
7189.43896 0.001182
7190.66992 0.001173
7191.89990 0.001164
7193.12988 0.001155
7194.36084 0.001147
7195.59180 0.001138
7196.82324 0.001129
7198.05518 0.001121
7199.28613 0.001112
7200.51807 0.001104
7201.75000 0.001095
7202.98193 0.001087
7204.21387 0.001079
7205.44678 0.001072
7206.68018 0.001064
7207.91309 0.001056
7209.14600 0.001048
7210.37891 0.00104
7211.61279 0.001032
7212.84717 0.001024
7214.08105 0.001016
7215.31494 0.001008
7216.54980 0.001
7217.78516 0.000993
7219.02002 0.000985
7220.25488 0.000977
7221.49023 0.000969
7222.72607 0.000962
7223.96094 0.000955
7225.19678 0.000947
7226.43408 0.00094
7227.66992 0.000933
7228.90723 0.000926
7230.14404 0.000918
7231.37988 0.000911
7232.61816 0.000904
7233.85498 0.000897
7235.09277 0.00089
7236.33105 0.000883
7237.56885 0.000877
7238.80713 0.00087
7240.04492 0.000863
7241.28418 0.000856
7242.52295 0.00085
7243.76221 0.000843
7245.00195 0.000837
7246.24121 0.00083
7247.48096 0.000824
7248.72119 0.000817
7249.96094 0.000811
7251.20215 0.000804
7252.44189 0.000798
7253.68311 0.000791
7254.92383 0.000785
7256.16602 0.000779
7257.40723 0.000773
7258.64893 0.000767
7259.89111 0.000761
7261.13281 0.000756
7262.37500 0.00075
7263.61816 0.000744
7264.85986 0.000738
7266.10400 0.000732
7267.34717 0.000726
7268.58984 0.00072
7269.83398 0.000715
7271.07812 0.000709
7272.32178 0.000703
7273.56592 0.000698
7274.81104 0.000693
7276.05518 0.000687
7277.29980 0.000682
7278.54492 0.000677
7279.79102 0.000672
7281.03613 0.000667
7282.28223 0.000661
7283.52783 0.000656
7284.77393 0.000651
7286.02002 0.000646
7287.26709 0.000641
7288.51416 0.000636
7289.76123 0.000631
7291.00781 0.000626
7292.25488 0.000621
7293.50293 0.000616
7294.75098 0.000611
7295.99902 0.000607
7297.24707 0.000602
7298.49609 0.000597
7299.74512 0.000592
7300.99414 0.000587
7302.24316 0.000582
7303.49219 0.000578
7304.74219 0.000573
7305.99121 0.000569
7307.24121 0.000564
7308.49219 0.00056
7309.74219 0.000556
7310.99316 0.000551
7312.24414 0.000547
7313.49512 0.000543
7314.74609 0.000538
7315.99805 0.000534
7317.24902 0.00053
7318.50098 0.000526
7319.75293 0.000521
7321.00586 0.000517
7322.25781 0.000513
7323.51123 0.000509
7324.76416 0.000505
7326.01709 0.000501
7327.27100 0.000497
7328.52393 0.000494
7329.77783 0.00049
7331.03223 0.000486
7332.28711 0.000482
7333.54102 0.000479
7334.79590 0.000475
7336.05078 0.000471
7337.30615 0.000468
7338.56201 0.000464
7339.81689 0.00046
7341.07324 0.000457
7342.32910 0.000453
7343.58496 0.000449
7344.84082 0.000445
7346.09814 0.000442
7347.35498 0.000438
7348.61182 0.000434
7349.86914 0.00043
7351.12695 0.000427
7352.38477 0.000423
7353.64307 0.00042
7354.90088 0.000417
7356.15918 0.000414
7357.41797 0.00041
7358.67676 0.000407
7359.93604 0.000404
7361.19482 0.000401
8097.31445 0.0
