# %ECSV 0.9
# ---
# datatype:
# - {name: wavelength, unit: Angstrom, datatype: float32}
# - {name: response, datatype: float32}
# meta: !!omap
# - {band_name: F555W}
# - {group_name: WFC3_UVIS1}
wavelength response
3922.94971 0.0
4358.83301 0.00042
4359.57910 0.000443
4360.32520 0.000467
4361.07080 0.00049
4361.81689 0.000539
4362.56299 0.000594
4363.31006 0.000649
4364.05713 0.000705
4364.80322 0.00076
4365.54980 0.000815
4366.29688 0.000871
4367.04395 0.000926
4367.79102 0.000982
4368.53906 0.001037
4369.28613 0.001093
4370.03418 0.001148
4370.78076 0.001204
4371.52881 0.001286
4372.27686 0.001408
4373.02490 0.00153
4373.77295 0.001651
4374.52100 0.001773
4375.27002 0.001895
4376.01904 0.002017
4376.76709 0.00214
4377.51611 0.002262
4378.26514 0.002384
4379.01416 0.002506
4379.76318 0.002629
4380.51318 0.002751
4381.26221 0.002878
4382.01221 0.003122
4382.76221 0.003367
4383.51123 0.003611
4384.26123 0.003855
4385.01221 0.004099
4385.76221 0.004344
4386.51221 0.004588
4387.26318 0.004833
4388.01318 0.005077
4388.76416 0.005322
4389.51514 0.005567
4390.26611 0.005812
4391.01709 0.006057
4391.76904 0.006445
4392.52002 0.00689
4393.27100 0.007336
4394.02295 0.007781
4394.77490 0.008228
4395.52686 0.008674
4396.27881 0.00912
4397.03076 0.009567
4397.78320 0.010013
4398.53613 0.01046
4399.28906 0.010907
4400.04102 0.011354
4400.79395 0.011801
4401.54688 0.012355
4402.29980 0.01306
4403.05322 0.013765
4403.80713 0.014471
4404.56006 0.015176
4405.31299 0.015882
4406.06689 0.016589
4406.82080 0.017295
4407.57520 0.018002
4408.32910 0.018709
4409.08301 0.019416
4409.83789 0.020124
4410.59180 0.020831
4411.34717 0.021583
4412.10205 0.022599
4412.85596 0.023615
4413.61084 0.024631
4414.36719 0.025647
4415.12207 0.026664
4415.87695 0.027682
4416.63281 0.028699
4417.38916 0.029718
4418.14502 0.030736
4418.89990 0.031755
4419.65576 0.032774
4420.41309 0.033795
4421.16895 0.034817
4421.92480 0.036117
4422.68213 0.037446
4423.43799 0.038777
4424.19482 0.040108
4424.95215 0.04144
4425.70898 0.042773
4426.46680 0.044106
4427.22412 0.04544
4427.98096 0.046774
4428.73877 0.04811
4429.49707 0.049445
4430.25391 0.05078
4431.01318 0.052116
4431.77100 0.053632
4432.52881 0.055229
4433.28809 0.056827
4434.04590 0.058425
4434.80518 0.060024
4435.56299 0.061623
4436.32178 0.063223
4437.08105 0.064823
4437.83984 0.066425
4438.60010 0.068027
4439.35889 0.06963
4440.11914 0.071234
4440.87793 0.072838
4441.63818 0.074475
4442.39795 0.076141
4443.15820 0.07781
4443.91797 0.079479
4444.67920 0.081148
4445.43896 0.082818
4446.20020 0.084489
4446.95996 0.08616
4447.72119 0.087832
4448.48193 0.089506
4449.24316 0.091179
4450.00488 0.092854
4450.76611 0.094529
4451.52686 0.096212
4452.28906 0.09791
4453.05078 0.099608
4453.81299 0.101308
4454.57520 0.103007
4455.33691 0.104708
4456.09912 0.106409
4456.86182 0.108112
4457.62402 0.109814
4458.38721 0.111518
4459.14990 0.113223
4459.91309 0.114927
4460.67578 0.11664
4461.43896 0.118334
4462.20215 0.119969
4462.96582 0.121605
4463.72900 0.123242
4464.49316 0.124879
4465.25684 0.126517
4466.02100 0.128157
4466.78516 0.129797
4467.54883 0.131438
4468.31299 0.13308
4469.07812 0.134723
4469.84277 0.136367
4470.60693 0.138004
4471.37305 0.139618
4472.13721 0.141102
4472.90186 0.142587
4473.66797 0.144074
4474.43311 0.14556
4475.19922 0.147048
4475.96387 0.148536
4476.72998 0.150025
4477.49609 0.151514
4478.26221 0.153004
4479.02783 0.154494
4479.79492 0.155986
4480.56201 0.157478
4481.32812 0.158946
4482.09521 0.16018
4482.86084 0.161414
4483.62793 0.16265
4484.39600 0.163885
4485.16309 0.165122
4485.93018 0.166358
4486.69824 0.167596
4487.46484 0.168833
4488.23291 0.170072
4489.00098 0.17131
4489.76904 0.17255
4490.53809 0.17379
4491.30615 0.175021
4492.07422 0.176103
4492.84277 0.177185
4493.61084 0.178267
4494.37988 0.179351
4495.14893 0.180435
4495.91797 0.181519
4496.68701 0.182603
4497.45703 0.183689
4498.22705 0.184774
4498.99609 0.18586
4499.76611 0.186946
4500.53613 0.188023
4501.30615 0.189088
4502.07617 0.19003
4502.84619 0.190973
4503.61719 0.191916
4504.38721 0.192859
4505.15820 0.193802
4505.92920 0.194745
4506.69922 0.195689
4507.47119 0.196633
4508.24219 0.197577
4509.01318 0.198522
4509.78516 0.199467
4510.55615 0.200421
4511.32812 0.201365
4512.10010 0.202148
4512.87207 0.202932
4513.64404 0.203716
4514.41602 0.2045
4515.18799 0.205284
4515.96094 0.206069
4516.73389 0.206854
4517.50586 0.20764
4518.27881 0.208425
4519.05176 0.209211
4519.82617 0.209998
4520.59912 0.210774
4521.37305 0.211525
4522.14600 0.212137
4522.91895 0.212749
4523.69287 0.213361
4524.46680 0.213974
4525.24219 0.214587
4526.01611 0.215199
4526.79004 0.215812
4527.56494 0.216426
4528.33887 0.217039
4529.11377 0.217652
4529.88916 0.218266
4530.66406 0.21888
4531.43896 0.219478
4532.21387 0.22002
4532.99023 0.220561
4533.76611 0.221103
4534.54199 0.221645
4535.31689 0.222187
4536.09277 0.22273
4536.86914 0.223272
4537.64600 0.223815
4538.42188 0.224358
4539.19824 0.2249
4539.97510 0.225444
4540.75098 0.225987
4541.52881 0.226488
4542.30615 0.226902
4543.08301 0.227317
4543.85986 0.227731
4544.63818 0.228146
4545.41504 0.228561
4546.19287 0.228976
4546.97119 0.229391
4547.74902 0.229806
4548.52686 0.230222
4549.30518 0.230637
4550.08301 0.231053
4550.86182 0.231469
4551.64014 0.231868
4552.41895 0.232248
4553.19824 0.232629
4553.97705 0.23301
4554.75586 0.233391
4555.53613 0.233771
4556.31494 0.234153
4557.09521 0.234534
4557.87402 0.234915
4558.65381 0.235296
4559.43408 0.235678
4560.21387 0.236063
4560.99414 0.236461
4561.77490 0.236822
4562.55518 0.237161
4563.33594 0.237502
4564.11719 0.237842
4564.89697 0.238182
4565.67920 0.238522
4566.45898 0.238863
4567.24121 0.239204
4568.02197 0.239544
4568.80420 0.239885
4569.58496 0.240226
4570.36816 0.24056
4571.14893 0.240885
4571.93213 0.24114
4572.71387 0.24138
4573.49609 0.24162
4574.27881 0.24186
4575.06104 0.2421
4575.84424 0.24234
4576.62695 0.24258
4577.41016 0.242821
4578.19287 0.243061
4578.97705 0.243302
4579.75977 0.243542
4580.54297 0.243783
4581.32715 0.24402
4582.11084 0.244205
4582.89502 0.244389
4583.67920 0.244574
4584.46289 0.244759
4585.24805 0.244944
4586.03223 0.245128
4586.81689 0.245313
4587.60205 0.245498
4588.38721 0.245683
4589.17090 0.245868
4589.95703 0.246053
4590.74219 0.246238
4591.52686 0.246414
4592.31299 0.246569
4593.09912 0.246723
4593.88477 0.246878
4594.67090 0.247033
4595.45703 0.247188
4596.24316 0.247342
4597.02881 0.247497
4597.81592 0.247652
4598.60303 0.247807
4599.39014 0.247962
4600.17578 0.248117
4600.96289 0.248272
4601.75000 0.248442
4602.53809 0.248623
4603.32520 0.248804
4604.11279 0.248985
4604.90088 0.249167
4605.68799 0.249348
4606.47705 0.249529
4607.26514 0.24971
4608.05322 0.249892
4608.84082 0.250073
4609.62988 0.250254
4610.41895 0.250445
4611.20801 0.250643
4611.99707 0.2508
4612.78613 0.250951
4613.57520 0.251103
4614.36377 0.251255
4615.15381 0.251407
4615.94287 0.251559
4616.73291 0.251711
4617.52295 0.251863
4618.31299 0.252015
4619.10303 0.252167
4619.89404 0.25232
4620.68408 0.252457
4621.47510 0.25259
4622.26514 0.252715
4623.05615 0.25284
4623.84717 0.252965
4624.63818 0.25309
4625.42920 0.253214
4626.22119 0.253339
4627.01221 0.253464
4627.80420 0.253589
4628.59619 0.253715
4629.38818 0.25384
4630.18018 0.253964
4630.97217 0.254084
4631.76416 0.254209
4632.55713 0.254335
4633.34912 0.254461
4634.14209 0.254588
4634.93506 0.254714
4635.72803 0.254841
4636.52100 0.254967
4637.31396 0.255094
4638.10791 0.25522
4638.90088 0.255347
4639.69482 0.255474
4640.48877 0.2556
4641.28320 0.255727
4642.07715 0.255831
4642.87109 0.255934
4643.66602 0.256037
4644.45996 0.25614
4645.25488 0.256243
4646.04883 0.256346
4646.84424 0.256449
4647.64014 0.256552
4648.43506 0.256655
4649.22998 0.256759
4650.02490 0.256862
4650.82080 0.256965
4651.61719 0.257062
4652.41309 0.257149
4653.20801 0.257237
4654.00488 0.257324
4654.80078 0.257412
4655.59717 0.257499
4656.39404 0.257586
4657.18994 0.257674
4657.98682 0.257761
4658.78418 0.257849
4659.58203 0.257936
4660.37891 0.258024
4661.17578 0.258111
4661.97412 0.258241
4662.77100 0.25838
4663.56885 0.258518
4664.36719 0.258656
4665.16504 0.258794
4665.96289 0.258933
4666.76123 0.259071
4667.56006 0.25921
4668.35791 0.259348
4669.15723 0.259486
4669.95605 0.259625
4670.75488 0.25978
4671.55420 0.259917
4672.35400 0.260012
4673.15283 0.260107
4673.95312 0.260202
4674.75195 0.260297
4675.55176 0.260392
4676.35205 0.260487
4677.15186 0.260581
4677.95215 0.260676
4678.75293 0.260771
4679.55322 0.260867
4680.35400 0.260954
4681.15479 0.261031
4681.95605 0.261093
4682.75684 0.261151
4683.55811 0.261209
4684.35889 0.261267
4685.16113 0.261325
4685.96191 0.261383
4686.76416 0.261441
4687.56592 0.2615
4688.36816 0.261558
4689.16992 0.261616
4689.97217 0.261674
4690.77490 0.261732
4691.57715 0.261789
4692.37988 0.261842
4693.18311 0.261895
4693.98584 0.261948
4694.78906 0.262002
4695.59180 0.262055
4696.39600 0.262108
4697.19922 0.262162
4698.00293 0.262215
4698.80713 0.262268
4699.60986 0.262322
4700.41504 0.262375
4701.21924 0.262428
4702.02295 0.262448
4702.82812 0.262464
4703.63184 0.26248
4704.43701 0.262495
4705.24219 0.262511
4706.04688 0.262527
4706.85205 0.262542
4707.65820 0.262558
4708.46289 0.262574
4709.26904 0.262589
4710.07422 0.262605
4710.87988 0.26262
4711.68604 0.262669
4712.49219 0.262756
4713.29785 0.262844
4714.10498 0.262931
4714.91211 0.263018
4715.71777 0.263106
4716.52490 0.263194
4717.33203 0.263281
4718.13916 0.263369
4718.94580 0.263456
4719.75391 0.263544
4720.56201 0.263631
4721.36914 0.263718
4722.17676 0.263792
4722.98486 0.263865
4723.79297 0.263939
4724.60107 0.264012
4725.40918 0.264085
4726.21777 0.264159
4727.02588 0.264233
4727.83496 0.264306
4728.64404 0.26438
4729.45312 0.264453
4730.26221 0.264527
4731.07178 0.264601
4731.88086 0.264681
4732.69092 0.264765
4733.50000 0.264849
4734.31104 0.264933
4735.12109 0.265017
4735.93115 0.265101
4736.74121 0.265184
4737.55078 0.265268
4738.36182 0.265352
4739.17188 0.265436
4739.98291 0.26552
4740.79395 0.265622
4741.60498 0.26571
4742.41699 0.265769
4743.22803 0.265829
4744.04004 0.265888
4744.85205 0.265947
4745.66309 0.266007
4746.47510 0.266066
4747.28711 0.266126
4748.10010 0.266185
4748.91211 0.266245
4749.72510 0.266304
4750.53711 0.266351
4751.35010 0.266394
4752.16309 0.266489
4752.97607 0.266584
4753.78906 0.266679
4754.60303 0.266774
4755.41602 0.266869
4756.22900 0.266964
4757.04297 0.267059
4757.85693 0.267154
4758.67090 0.267249
4759.48486 0.267344
4760.29980 0.267439
4761.11377 0.267535
4761.92920 0.267588
4762.74414 0.267626
4763.55908 0.267664
4764.37402 0.267703
4765.18799 0.267741
4766.00391 0.267779
4766.81885 0.267817
4767.63477 0.267856
4768.45117 0.267894
4769.26709 0.267932
4770.08301 0.26797
4770.89795 0.268008
4771.71484 0.268048
4772.53076 0.268087
4773.34814 0.268127
4774.16504 0.268167
4774.98096 0.268207
4775.79785 0.268247
4776.61523 0.268287
4777.43311 0.268327
4778.25000 0.268367
4779.06689 0.268407
4779.88477 0.268447
4780.70312 0.268487
4781.52100 0.268536
4782.33887 0.268614
4783.15723 0.268693
4783.97607 0.268772
4784.79395 0.268851
4785.61279 0.268929
4786.43213 0.269008
4787.25000 0.269087
4788.06982 0.269166
4788.88916 0.269244
4789.70801 0.269323
4790.52783 0.269402
4791.34717 0.269481
4792.16699 0.26955
4792.98682 0.269618
4793.80713 0.269687
4794.62695 0.269756
4795.44824 0.269825
4796.26807 0.269894
4797.08887 0.269962
4797.91016 0.270031
4798.72998 0.2701
4799.55078 0.270169
4800.37305 0.270238
4801.19385 0.270307
4802.01611 0.270385
4802.83691 0.270464
4803.65918 0.270544
4804.47998 0.270624
4805.30322 0.270703
4806.12500 0.270783
4806.94678 0.270863
4807.77002 0.270943
4808.59180 0.271022
4809.41504 0.271102
4810.23779 0.271188
4811.06104 0.271286
4811.88379 0.27136
4812.70703 0.27142
4813.53076 0.27148
4814.35400 0.27154
4815.17822 0.271601
4816.00098 0.271661
4816.82617 0.271721
4817.64990 0.271781
4818.47412 0.271841
4819.29785 0.271902
4820.12305 0.271959
4820.94824 0.272
4821.77197 0.272058
4822.59814 0.272129
4823.42285 0.272201
4824.24805 0.272273
4825.07324 0.272345
4825.89893 0.272417
4826.72510 0.272489
4827.54980 0.272561
4828.37598 0.272633
4829.20312 0.272705
4830.02881 0.272777
4830.85498 0.272847
4831.68213 0.272909
4832.50781 0.272959
4833.33496 0.27301
4834.16211 0.27306
4834.98877 0.27311
4835.81592 0.273161
4836.64404 0.273212
4837.47119 0.273262
4838.29883 0.273313
4839.12695 0.273363
4839.95508 0.273414
4840.78320 0.273464
4841.61084 0.27352
4842.43896 0.273588
4843.26807 0.273655
4844.09717 0.273723
4844.92480 0.27379
4845.75391 0.273858
4846.58301 0.273925
4847.41309 0.273993
4848.24219 0.27406
4849.07178 0.274128
4849.90088 0.274195
4850.73096 0.274263
4851.56104 0.274317
4852.39111 0.274328
4853.22119 0.27434
4854.05176 0.274351
4854.88184 0.274363
4855.71289 0.274374
4856.54297 0.274385
4857.37500 0.274397
4858.20605 0.274408
4859.03711 0.27442
4859.86816 0.274431
4860.70020 0.274443
4861.53076 0.274452
4862.36279 0.274454
4863.19482 0.274455
4864.02686 0.274456
4864.85889 0.274458
4865.69092 0.27446
4866.52393 0.274461
4867.35693 0.274462
4868.18896 0.274464
4869.02197 0.274465
4869.85498 0.274467
4870.68799 0.274469
4871.52197 0.274479
4872.35498 0.274528
4873.18896 0.274578
4874.02295 0.274627
4874.85693 0.274676
4875.69092 0.274725
4876.52490 0.274774
4877.35889 0.274824
4878.19385 0.274873
4879.02783 0.274922
4879.86279 0.274971
4880.69824 0.275021
4881.53320 0.275068
4882.36914 0.275104
4883.20410 0.275139
4884.04004 0.275176
4884.87500 0.275212
4885.71094 0.275248
4886.54688 0.275284
4887.38281 0.27532
4888.21924 0.275356
4889.05518 0.275392
4889.89209 0.275428
4890.72900 0.275481
4891.56494 0.275536
4892.40186 0.27559
4893.23877 0.275644
4894.07617 0.275698
4894.91406 0.275751
4895.75098 0.275805
4896.58887 0.275859
4897.42676 0.275913
4898.26514 0.275967
4899.10303 0.276021
4899.94092 0.276074
4900.77881 0.27611
4901.61816 0.276149
4902.45703 0.276201
4903.29492 0.276252
4904.13379 0.276304
4904.97314 0.276355
4905.81299 0.276406
4906.65186 0.276458
4907.49121 0.276509
4908.33105 0.276561
4909.16992 0.276612
4910.01123 0.276664
4910.85107 0.276715
4911.69092 0.27676
4912.53076 0.276794
4913.37207 0.276827
4914.21191 0.276861
4915.05322 0.276894
4915.89404 0.276928
4916.73486 0.276962
4917.57715 0.276995
4918.41797 0.277029
4919.25879 0.277062
4920.10107 0.277096
4920.94287 0.27713
4921.78516 0.27715
4922.62695 0.277156
4923.46924 0.277163
4924.31201 0.277169
4925.15381 0.277175
4925.99707 0.277181
4926.83887 0.277187
4927.68213 0.277193
4928.52490 0.2772
4929.36914 0.277206
4930.21191 0.277212
4931.05615 0.277218
4931.89893 0.277262
4932.74316 0.277329
4933.58691 0.277396
4934.43115 0.277464
4935.27490 0.277531
4936.12012 0.277598
4936.96387 0.277665
4937.80908 0.277732
4938.65381 0.277799
4939.49902 0.277866
4940.34424 0.277933
4941.18896 0.278
4942.03516 0.278031
4942.87988 0.278051
4943.72607 0.278071
4944.57178 0.278091
4945.41797 0.278111
4946.26416 0.278131
4947.10986 0.278152
4947.95703 0.278172
4948.80322 0.278192
4949.64990 0.278212
4950.49707 0.278232
4951.34424 0.278252
4952.19092 0.278291
4953.03809 0.278331
4953.88623 0.278371
4954.73291 0.27841
4955.58105 0.27845
4956.42920 0.27849
4957.27686 0.27853
4958.12500 0.278569
4958.97314 0.278609
4959.82178 0.278649
4960.66992 0.278689
4961.51904 0.278732
4962.36816 0.278792
4963.21680 0.278852
4964.06592 0.278912
4964.91602 0.278973
4965.76514 0.279033
4966.61523 0.279093
4967.46387 0.279153
4968.31396 0.279213
4969.16504 0.279274
4970.01514 0.279334
4970.86523 0.279394
4971.71484 0.279439
4972.56592 0.279458
4973.41699 0.279477
4974.26807 0.279496
4975.11914 0.279515
4975.97021 0.279534
4976.82080 0.279553
4977.67285 0.279572
4978.52393 0.279591
4979.37598 0.27961
4980.22803 0.279629
4981.08105 0.279648
4981.93311 0.279687
4982.78516 0.279738
4983.63818 0.279789
4984.49023 0.27984
4985.34277 0.27989
4986.19580 0.279941
4987.04883 0.279992
4987.90186 0.280043
4988.75586 0.280094
4989.60889 0.280144
4990.46289 0.280206
4991.31689 0.280278
4992.17090 0.280289
4993.02490 0.280295
4993.87891 0.280302
4994.73291 0.280308
4995.58789 0.280314
4996.44287 0.28032
4997.29785 0.280326
4998.15283 0.280332
4999.00781 0.280339
4999.86279 0.280345
5000.71924 0.280329
5001.57422 0.280323
5002.43018 0.280372
5003.28613 0.280422
5004.14209 0.280471
5004.99805 0.280521
5005.85400 0.28057
5006.71094 0.28062
5007.56689 0.28067
5008.42383 0.280719
5009.28076 0.280769
5010.13818 0.280818
5010.99609 0.280868
5011.85303 0.280916
5012.70996 0.280963
5013.56787 0.28101
5014.42578 0.281057
5015.28418 0.281104
5016.14209 0.281151
5017.00000 0.281198
5017.85791 0.281245
5018.71680 0.281292
5019.57617 0.281339
5020.43506 0.281387
5021.29297 0.281434
5022.15186 0.281438
5023.01221 0.281436
5023.87109 0.281434
5024.73096 0.281431
5025.58984 0.281429
5026.45020 0.281427
5027.31104 0.281425
5028.16992 0.281423
5029.03076 0.281421
5029.89111 0.281419
5030.75195 0.281412
5031.61279 0.281413
5032.47412 0.281439
5033.33398 0.281465
5034.19580 0.281492
5035.05713 0.281518
5035.91797 0.281544
5036.77979 0.281571
5037.64209 0.281597
5038.50391 0.281623
5039.36621 0.281649
5040.22803 0.281676
5041.08984 0.281702
5041.95312 0.281723
5042.81494 0.281741
5043.67822 0.28176
5044.54102 0.281778
5045.40381 0.281796
5046.26807 0.281814
5047.13086 0.281832
5047.99512 0.281851
5048.85791 0.281869
5049.72217 0.281887
5050.58594 0.281905
5051.45020 0.281923
5052.31396 0.281939
5053.17920 0.281956
5054.04297 0.281972
5054.90820 0.281988
5055.77295 0.282004
5056.63818 0.282021
5057.50293 0.282037
5058.36914 0.282054
5059.23389 0.28207
5060.10010 0.282086
5060.96484 0.282102
5061.83105 0.282111
5062.69678 0.282111
5063.56299 0.28211
5064.43018 0.28211
5065.29590 0.28211
5066.16309 0.28211
5067.02979 0.28211
5067.89600 0.282109
5068.76416 0.282109
5069.63086 0.282109
5070.49902 0.282109
5071.36621 0.282109
5072.23291 0.282112
5073.10205 0.282116
5073.96924 0.28212
5074.83691 0.282123
5075.70605 0.282127
5076.57422 0.282131
5077.44287 0.282134
5078.31201 0.282138
5079.18115 0.282142
5080.04883 0.282145
5080.91797 0.282149
5081.78809 0.282152
5082.65723 0.282156
5083.52686 0.282158
5084.39697 0.282162
5085.26709 0.282165
5086.13721 0.282168
5087.00684 0.282171
5087.87695 0.282174
5088.74805 0.282177
5089.61914 0.28218
5090.48877 0.282183
5091.35986 0.282186
5092.23096 0.282196
5093.10303 0.282206
5093.97412 0.282217
5094.84619 0.282227
5095.71680 0.282238
5096.58887 0.282249
5097.46094 0.282259
5098.33301 0.28227
5099.20605 0.28228
5100.07812 0.282291
5100.95117 0.282301
5101.82324 0.282307
5102.69580 0.282308
5103.56885 0.282309
5104.44189 0.282309
5105.31592 0.28231
5106.18896 0.282311
5107.06299 0.282312
5107.93701 0.282313
5108.81104 0.282313
5109.68506 0.282314
5110.55908 0.282315
5111.43408 0.282315
5112.30811 0.282311
5113.18311 0.282306
5114.05811 0.282302
5114.93311 0.282297
5115.80811 0.282293
5116.68311 0.282288
5117.55811 0.282283
5118.43408 0.282279
5119.31006 0.282274
5120.18604 0.28227
5121.06201 0.282265
5121.93799 0.282299
5122.81396 0.282361
5123.68994 0.282423
5124.56689 0.282486
5125.44385 0.282548
5126.32080 0.28261
5127.19824 0.282672
5128.07520 0.282734
5128.95312 0.282796
5129.83008 0.282859
5130.70801 0.282938
5131.58496 0.28301
5132.46387 0.283032
5133.34180 0.283054
5134.22021 0.283076
5135.09912 0.283098
5135.97705 0.28312
5136.85596 0.283142
5137.73486 0.283164
5138.61377 0.283186
5139.49316 0.283208
5140.37207 0.283221
5141.25195 0.283222
5142.13086 0.283231
5143.01123 0.283242
5143.89111 0.283253
5144.77100 0.283265
5145.65088 0.283276
5146.53223 0.283287
5147.41309 0.283298
5148.29297 0.283309
5149.17383 0.283321
5150.05518 0.283332
5150.93604 0.283343
5151.81689 0.283362
5152.69922 0.283391
5153.58105 0.28342
5154.46191 0.283449
5155.34424 0.283478
5156.22607 0.283507
5157.10791 0.283536
5157.99121 0.283565
5158.87305 0.283594
5159.75586 0.283623
5160.63916 0.283652
5161.52100 0.283675
5162.40479 0.283644
5163.28809 0.283614
5164.17090 0.283583
5165.05518 0.283552
5165.93799 0.283521
5166.82324 0.28349
5167.70703 0.283459
5168.59082 0.283429
5169.47510 0.283398
5170.35889 0.283367
5171.24414 0.283336
5172.12891 0.283297
5173.01416 0.283255
5173.89893 0.283214
5174.78418 0.283173
5175.66895 0.283131
5176.55518 0.28309
5177.44092 0.283049
5178.32715 0.283008
5179.21191 0.282966
5180.09912 0.282925
5180.98486 0.282883
5181.87207 0.28288
5182.75781 0.282917
5183.64502 0.282955
5184.53223 0.282992
5185.41797 0.28303
5186.30615 0.283067
5187.19287 0.283105
5188.08105 0.283142
5188.96777 0.28318
5189.85596 0.283218
5190.74414 0.283255
5191.63184 0.283278
5192.52100 0.283243
5193.40918 0.283209
5194.29688 0.283175
5195.18604 0.283141
5196.07520 0.283106
5196.96387 0.283072
5197.85303 0.283038
5198.74316 0.283004
5199.63184 0.28297
5200.52100 0.282935
5201.41211 0.282901
5202.30078 0.282866
5203.19092 0.28283
5204.08203 0.282794
5204.97217 0.282759
5205.86279 0.282723
5206.75293 0.282687
5207.64404 0.282652
5208.53516 0.282616
5209.42578 0.28258
5210.31787 0.282545
5211.20898 0.282509
5212.10107 0.282537
5212.99316 0.282588
5213.88379 0.28264
5214.77588 0.282692
5215.66797 0.282743
5216.56104 0.282795
5217.45410 0.282847
5218.34619 0.282899
5219.23877 0.28295
5220.13184 0.283002
5221.02490 0.283054
5221.91797 0.283075
5222.81201 0.283069
5223.70605 0.283063
5224.59912 0.283057
5225.49316 0.283051
5226.38721 0.283045
5227.28076 0.283039
5228.17578 0.283033
5229.06982 0.283027
5229.96484 0.283021
5230.85986 0.283016
5231.75488 0.282987
5232.64990 0.28291
5233.54492 0.282832
5234.43994 0.282755
5235.33594 0.282677
5236.23193 0.2826
5237.12793 0.282522
5238.02393 0.282444
5238.91992 0.282367
5239.81592 0.282289
5240.71289 0.282212
5241.60889 0.282147
5242.50586 0.28215
5243.40283 0.282152
5244.29980 0.282154
5245.19824 0.282157
5246.09521 0.282159
5246.99316 0.282162
5247.89111 0.282164
5248.78906 0.282166
5249.68701 0.282169
5250.58398 0.282171
5251.48291 0.282172
5252.38086 0.282127
5253.27979 0.282083
5254.17920 0.282038
5255.07812 0.281993
5255.97705 0.281948
5256.87598 0.281903
5257.77588 0.281858
5258.67480 0.281813
5259.57520 0.281768
5260.47510 0.281724
5261.37500 0.281679
5262.27490 0.281597
5263.17480 0.281512
5264.07617 0.281427
5264.97705 0.281341
5265.87695 0.281256
5266.77783 0.281171
5267.68018 0.281085
5268.58105 0.281
5269.48193 0.280915
5270.38379 0.280829
5271.28613 0.280744
5272.18701 0.280682
5273.08887 0.280627
5273.99219 0.280571
5274.89404 0.280516
5275.79590 0.28046
5276.69922 0.280405
5277.60205 0.280349
5278.50488 0.280294
5279.40820 0.280238
5280.31201 0.280183
5281.21484 0.280127
5282.11816 0.280084
5283.02197 0.280045
5283.92578 0.280006
5284.83008 0.279968
5285.73389 0.279929
5286.63916 0.27989
5287.54297 0.279852
5288.44824 0.279813
5289.35303 0.279774
5290.25781 0.279735
5291.16309 0.279697
5292.06787 0.279693
5292.97412 0.279707
5293.87891 0.279722
5294.78516 0.279736
5295.69092 0.279751
5296.59717 0.279765
5297.50293 0.279779
5298.40918 0.279794
5299.31592 0.279808
5300.22314 0.279822
5301.12891 0.279837
5302.03711 0.279823
5302.94287 0.279792
5303.85107 0.279761
5304.75781 0.279729
5305.66602 0.279698
5306.57422 0.279667
5307.48096 0.279636
5308.39014 0.279605
5309.29785 0.279573
5310.20703 0.279542
5311.11523 0.279511
5312.02295 0.279467
5312.93311 0.279416
5313.84082 0.279364
5314.75000 0.279312
5315.66016 0.279261
5316.56885 0.279209
5317.47900 0.279157
5318.38916 0.279106
5319.29883 0.279054
5320.20898 0.279002
5321.11914 0.27895
5322.02979 0.278915
5322.93994 0.27889
5323.85107 0.278865
5324.76221 0.278839
5325.67285 0.278814
5326.58398 0.278789
5327.49512 0.278764
5328.40723 0.278739
5329.31787 0.278713
5330.22998 0.278688
5331.14209 0.278663
5332.05420 0.278625
5332.96680 0.278579
5333.87891 0.278534
5334.79199 0.278488
5335.70508 0.278443
5336.61719 0.278397
5337.52979 0.278351
5338.44385 0.278306
5339.35693 0.27826
5340.27100 0.278215
5341.18408 0.278169
5342.09814 0.278128
5343.01221 0.278089
5343.92578 0.278051
5344.84082 0.278012
5345.75488 0.277973
5346.66992 0.277934
5347.58398 0.277896
5348.50000 0.277857
5349.41504 0.277818
5350.33008 0.277779
5351.24512 0.27774
5352.16113 0.277704
5353.07715 0.277669
5353.99219 0.277633
5354.90918 0.277598
5355.82520 0.277563
5356.74121 0.277527
5357.65820 0.277492
5358.57422 0.277457
5359.49121 0.277421
5360.40820 0.277386
5361.32520 0.27735
5362.24219 0.277313
5363.16016 0.277276
5364.07812 0.277238
5364.99512 0.277201
5365.91309 0.277163
5366.83105 0.277125
5367.75000 0.277088
5368.66797 0.27705
5369.58594 0.277012
5370.50488 0.276975
5371.42383 0.276937
5372.34277 0.276839
5373.26221 0.276736
5374.18213 0.276634
5375.10107 0.276531
5376.02100 0.276429
5376.93994 0.276326
5377.85986 0.276223
5378.78076 0.27612
5379.70117 0.276018
5380.62109 0.275915
5381.54199 0.275814
5382.46191 0.275753
5383.38379 0.275692
5384.30518 0.275631
5385.22607 0.275571
5386.14697 0.27551
5387.06885 0.275449
5387.99023 0.275388
5388.91211 0.275327
5389.83398 0.275266
5390.75586 0.275205
5391.67920 0.275134
5392.60107 0.275023
5393.52393 0.274911
5394.44678 0.274799
5395.37012 0.274687
5396.29297 0.274575
5397.21582 0.274463
5398.14014 0.274352
5399.06299 0.27424
5399.98682 0.274128
5400.91113 0.274016
5401.83496 0.2739
5402.75879 0.273778
5403.68408 0.273656
5404.60791 0.273534
5405.53320 0.273412
5406.45801 0.27329
5407.38281 0.273168
5408.30811 0.273046
5409.23291 0.272924
5410.15918 0.272801
5411.08398 0.272679
5412.00977 0.272589
5412.93604 0.272525
5413.86182 0.272461
5414.78906 0.272396
5415.71484 0.272332
5416.64209 0.272268
5417.56787 0.272204
5418.49512 0.27214
5419.42188 0.272076
5420.35010 0.272012
5421.27686 0.271947
5422.20508 0.2719
5423.13184 0.271858
5424.06006 0.271816
5424.98779 0.271775
5425.91602 0.271733
5426.84521 0.271691
5427.77295 0.27165
5428.70215 0.271608
5429.62988 0.271566
5430.56006 0.271524
5431.48877 0.271482
5432.41797 0.271403
5433.34717 0.271323
5434.27686 0.271243
5435.20703 0.271163
5436.13721 0.271083
5437.06689 0.271003
5437.99707 0.270923
5438.92676 0.270843
5439.85791 0.270763
5440.78906 0.270683
5441.72021 0.270605
5442.65088 0.270535
5443.58203 0.270464
5444.51318 0.270394
5445.44482 0.270324
5446.37598 0.270254
5447.30811 0.270183
5448.24023 0.270113
5449.17188 0.270043
5450.10498 0.269972
5451.03711 0.269902
5451.97021 0.269825
5452.90283 0.269741
5453.83594 0.269658
5454.76904 0.269574
5455.70215 0.26949
5456.63623 0.269406
5457.56885 0.269323
5458.50293 0.269239
5459.43701 0.269155
5460.37109 0.269071
5461.30518 0.268987
5462.24023 0.268881
5463.17383 0.268768
5464.10889 0.268654
5465.04395 0.268541
5465.97900 0.268428
5466.91406 0.268314
5467.84912 0.268201
5468.78516 0.268088
5469.72119 0.267974
5470.65576 0.267861
5471.59180 0.267751
5472.52783 0.267692
5473.46484 0.267633
5474.40088 0.267574
5475.33789 0.267514
5476.27490 0.267455
5477.21191 0.267396
5478.14893 0.267336
5479.08594 0.267277
5480.02295 0.267217
5480.96094 0.267158
5481.89893 0.267092
5482.83691 0.267015
5483.77490 0.266938
5484.71289 0.266861
5485.65088 0.266785
5486.58984 0.266708
5487.52881 0.266631
5488.46777 0.266554
5489.40723 0.266477
5490.34619 0.266401
5491.28516 0.266324
5492.22510 0.26619
5493.16504 0.266038
5494.10400 0.265885
5495.04395 0.265733
5495.98486 0.26558
5496.92480 0.265428
5497.86523 0.265275
5498.80615 0.265123
5499.74707 0.26497
5500.68799 0.264818
5501.62891 0.264665
5502.56982 0.264503
5503.51221 0.264341
5504.45410 0.264179
5505.39502 0.264017
5506.33691 0.263855
5507.27881 0.263693
5508.22217 0.263531
5509.16406 0.263369
5510.10596 0.263207
5511.04883 0.263044
5511.99219 0.262904
5512.93506 0.262786
5513.87793 0.262669
5514.82178 0.262551
5515.76611 0.262433
5516.70898 0.262316
5517.65283 0.262198
5518.59717 0.26208
5519.54199 0.261962
5520.48584 0.261845
5521.43018 0.261727
5522.37500 0.261637
5523.31982 0.261551
5524.26514 0.261464
5525.20996 0.261378
5526.15479 0.261291
5527.10107 0.261205
5528.04590 0.261118
5528.99219 0.261032
5529.93799 0.260945
5530.88379 0.260858
5531.83105 0.260758
5532.77686 0.260626
5533.72412 0.260493
5534.66992 0.260361
5535.61816 0.260229
5536.56396 0.260097
5537.51221 0.259964
5538.45898 0.259832
5539.40723 0.2597
5540.35400 0.259568
5541.30322 0.259435
5542.25000 0.259315
5543.19922 0.259198
5544.14697 0.259082
5545.09619 0.258966
5546.04395 0.25885
5546.99414 0.258733
5547.94189 0.258617
5548.89209 0.2585
5549.84082 0.258384
5550.79102 0.258268
5551.74023 0.258147
5552.68994 0.25801
5553.64014 0.257874
5554.58984 0.257738
5555.54102 0.257602
5556.49121 0.257465
5557.44189 0.257329
5558.39307 0.257192
5559.34424 0.257056
5560.29492 0.25692
5561.24707 0.256783
5562.19824 0.256671
5563.14893 0.25657
5564.10205 0.256469
5565.05420 0.256368
5566.00586 0.256267
5566.95801 0.256167
5567.91113 0.256066
5568.86279 0.255965
5569.81592 0.255864
5570.76904 0.255746
5571.72217 0.255618
5572.67480 0.25546
5573.62891 0.255303
5574.58301 0.255145
5575.53613 0.254988
5576.49023 0.25483
5577.44385 0.254673
5578.39795 0.254515
5579.35303 0.254358
5580.30811 0.254207
5581.26221 0.25407
5582.21680 0.253935
5583.17188 0.253803
5584.12695 0.25367
5585.08301 0.253537
5586.03906 0.253404
5586.99414 0.253271
5587.95020 0.253138
5588.90576 0.253005
5589.86182 0.252871
5590.81885 0.252738
5591.77490 0.252609
5592.73193 0.252494
5593.68896 0.252379
5594.64600 0.252264
5595.60303 0.252148
5596.56104 0.252033
5597.51807 0.251918
5598.47607 0.251802
5599.43408 0.251687
5600.39209 0.251572
5601.35010 0.251456
5602.30811 0.251284
5603.26709 0.251096
5604.22607 0.250908
5605.18506 0.250719
5606.14404 0.250531
5607.10303 0.250343
5608.06201 0.250155
5609.02100 0.249967
5609.98096 0.249778
5610.94092 0.24959
5611.90088 0.249404
5612.86084 0.249221
5613.82080 0.249039
5614.78223 0.248856
5615.74316 0.248673
5616.70410 0.24849
5617.66504 0.248308
5618.62500 0.248125
5619.58691 0.247942
5620.54785 0.247759
5621.50977 0.247576
5622.47217 0.247369
5623.43408 0.24716
5624.39600 0.246952
5625.35791 0.246743
5626.32080 0.246534
5627.28320 0.246326
5628.24609 0.246117
5629.20898 0.245908
5630.17188 0.245698
5631.13477 0.245483
5632.09912 0.245273
5633.06201 0.245068
5634.02588 0.244862
5634.99023 0.244656
5635.95508 0.24445
5636.91797 0.244244
5637.88281 0.244038
5638.84814 0.243833
5639.81299 0.243626
5640.77686 0.243421
5641.74316 0.243229
5642.70801 0.243099
5643.67285 0.242969
5644.63916 0.242839
5645.60400 0.242709
5646.57080 0.242579
5647.53711 0.242449
5648.50293 0.242319
5649.46924 0.242189
5650.43604 0.242059
5651.40283 0.241929
5652.37012 0.241764
5653.33691 0.241593
5654.30420 0.241421
5655.27100 0.241249
5656.23877 0.241078
5657.20703 0.240906
5658.17480 0.240734
5659.14307 0.240563
5660.11084 0.240391
5661.08008 0.240219
5662.04785 0.240044
5663.01709 0.239864
5663.98584 0.239684
5664.95508 0.239504
5665.92383 0.239324
5666.89404 0.239145
5667.86279 0.238965
5668.83301 0.238785
5669.80322 0.238605
5670.77197 0.238425
5671.74316 0.23824
5672.71289 0.238035
5673.68408 0.23783
5674.65479 0.237624
5675.62500 0.237419
5676.59717 0.237214
5677.56787 0.237009
5678.53906 0.236803
5679.51123 0.236598
5680.48193 0.236392
5681.45508 0.236187
5682.42578 0.235987
5683.39893 0.235789
5684.37109 0.23559
5685.34424 0.235391
5686.31592 0.235192
5687.29004 0.234993
5688.26221 0.234795
5689.23584 0.234596
5690.20898 0.234397
5691.18311 0.234198
5692.15576 0.23401
5693.12988 0.233829
5694.10400 0.233648
5695.07910 0.233467
5696.05322 0.233286
5697.02686 0.233105
5698.00195 0.232924
5698.97705 0.232743
5699.95215 0.232562
5700.92676 0.232381
5701.90283 0.232181
5702.87793 0.23194
5703.85400 0.2317
5704.83008 0.23146
5705.80615 0.23122
5706.78223 0.23098
5707.75879 0.230739
5708.73486 0.230499
5709.71191 0.230259
5710.68896 0.230018
5711.66602 0.229784
5712.64307 0.229615
5713.62109 0.229446
5714.59814 0.229277
5715.57617 0.229108
5716.55420 0.228939
5717.53223 0.22877
5718.50977 0.2286
5719.48779 0.228431
5720.46680 0.228253
5721.44580 0.228065
5722.42480 0.227848
5723.40381 0.227627
5724.38281 0.227406
5725.36182 0.227185
5726.34180 0.226963
5727.32178 0.226742
5728.30176 0.226521
5729.28223 0.2263
5730.26221 0.226083
5731.24316 0.225881
5732.22314 0.225666
5733.20410 0.225443
5734.18506 0.225221
5735.16602 0.224998
5736.14697 0.224776
5737.12793 0.224554
5738.10986 0.224331
5739.09180 0.224109
5740.07422 0.223886
5741.05615 0.223664
5742.03809 0.223436
5743.02100 0.223201
5744.00293 0.222967
5744.98584 0.222732
5745.96924 0.222498
5746.95215 0.222263
5747.93506 0.222028
5748.91797 0.221794
5749.90186 0.221559
5750.88623 0.221325
5751.87012 0.221106
5752.85400 0.220927
5753.83789 0.220749
5754.82324 0.22057
5755.80811 0.220392
5756.79199 0.220213
5757.77686 0.220035
5758.76221 0.219856
5759.74805 0.219678
5760.73291 0.219499
5761.71924 0.219312
5762.70508 0.219066
5763.68994 0.218819
5764.67676 0.218573
5765.66309 0.218326
5766.64893 0.218079
5767.63623 0.217833
5768.62305 0.217586
5769.60986 0.217339
5770.59717 0.217093
5771.58398 0.216846
5772.57178 0.216605
5773.56006 0.216364
5774.54688 0.216123
5775.53516 0.215883
5776.52295 0.215642
5777.51221 0.215401
5778.50000 0.21516
5779.48877 0.214919
5780.47803 0.214678
5781.46680 0.214437
5782.45605 0.214171
5783.44482 0.2139
5784.43506 0.21363
5785.42383 0.213359
5786.41504 0.213088
5787.40381 0.212818
5788.39502 0.212547
5789.38477 0.212277
5790.37500 0.212006
5791.36621 0.211735
5792.35693 0.211502
5793.34814 0.211281
5794.33887 0.211059
5795.33105 0.210838
5796.32178 0.210616
5797.31396 0.210394
5798.30615 0.210173
5799.29785 0.209951
5800.29004 0.20973
5801.28320 0.209508
5802.27490 0.209248
5803.26807 0.208969
5804.26123 0.20869
5805.25391 0.208411
5806.24707 0.208132
5807.24023 0.207853
5808.23389 0.207574
5809.22803 0.207294
5810.22217 0.207015
5811.21582 0.206736
5812.20996 0.20647
5813.20508 0.206213
5814.19922 0.205956
5815.19385 0.2057
5816.18896 0.205443
5817.18408 0.205186
5818.17920 0.204929
5819.17480 0.204672
5820.16992 0.204412
5821.16602 0.204138
5822.16211 0.203893
5823.15820 0.203673
5824.15479 0.203452
5825.15088 0.203232
5826.14697 0.203012
5827.14502 0.202791
5828.14209 0.202571
5829.13916 0.202351
5830.13623 0.202133
5831.13281 0.201933
5832.13086 0.201703
5833.12891 0.201446
5834.12695 0.201189
5835.12500 0.200932
5836.12402 0.200675
5837.12207 0.200417
5838.12109 0.20016
5839.12012 0.199903
5840.11914 0.199645
5841.11816 0.199388
5842.11719 0.199119
5843.11719 0.198838
5844.11719 0.198558
5845.11719 0.198277
5846.11719 0.197996
5847.11719 0.197715
5848.11719 0.197435
5849.11816 0.197154
5850.11914 0.196873
5851.12012 0.196592
5852.12109 0.196337
5853.12207 0.196106
5854.12305 0.195876
5855.12500 0.195646
5856.12598 0.195416
5857.12793 0.195186
5858.13086 0.194955
5859.13281 0.194725
5860.13623 0.194495
5861.13818 0.194265
5862.14111 0.194015
5863.14404 0.193747
5864.14697 0.19348
5865.14990 0.193212
5866.15381 0.192945
5867.15820 0.192677
5868.16211 0.192409
5869.16602 0.192142
5870.16895 0.191874
5871.17383 0.191606
5872.17920 0.191337
5873.18311 0.191067
5874.18799 0.190798
5875.19287 0.190528
5876.19824 0.190258
5877.20410 0.189988
5878.20898 0.189718
5879.21484 0.189448
5880.22119 0.189178
5881.22705 0.188908
5882.23291 0.188639
5883.24023 0.188371
5884.24609 0.188103
5885.25293 0.187834
5886.25977 0.187566
5887.26709 0.187298
5888.27393 0.187029
5889.28223 0.186761
5890.29004 0.186493
5891.29688 0.186224
5892.30518 0.185943
5893.31299 0.185655
5894.32178 0.185367
5895.33008 0.185079
5896.33887 0.184791
5897.34814 0.184503
5898.35596 0.184215
5899.36621 0.183927
5900.37500 0.183633
5901.38477 0.183329
5902.39502 0.18303
5903.40381 0.182732
5904.41406 0.182435
5905.42383 0.182138
5906.43506 0.18184
5907.44482 0.181543
5908.45605 0.181246
5909.46680 0.180949
5910.47803 0.180659
5911.48877 0.180377
5912.50098 0.180118
5913.51221 0.179863
5914.52393 0.179608
5915.53613 0.179352
5916.54785 0.179097
5917.56104 0.178841
5918.57324 0.178586
5919.58496 0.17833
5920.59814 0.178075
5921.61084 0.177819
5922.62500 0.177554
5923.63818 0.177288
5924.65088 0.177022
5925.66504 0.176756
5926.67920 0.176489
5927.69287 0.176223
5928.70703 0.175957
5929.72217 0.175691
5930.73584 0.175425
5931.75000 0.175157
5932.76611 0.174878
5933.78076 0.1746
5934.79590 0.174321
5935.81201 0.174042
5936.82715 0.173763
5937.84277 0.173484
5938.85791 0.173205
5939.87500 0.172926
5940.89111 0.172647
5941.90723 0.172368
5942.92383 0.17209
5943.94092 0.171812
5944.95801 0.171533
5945.97510 0.171255
5946.99219 0.170977
5948.00977 0.170698
5949.02686 0.17042
5950.04492 0.170141
5951.06299 0.169863
5952.08203 0.169582
5953.10010 0.169297
5954.11914 0.169012
5955.13721 0.168728
5956.15576 0.168443
5957.17480 0.168158
5958.19385 0.167874
5959.21387 0.167589
5960.23291 0.167304
5961.25293 0.167019
5962.27295 0.166739
5963.29297 0.166462
5964.31299 0.166184
5965.33398 0.165907
5966.35400 0.165629
5967.37500 0.165352
5968.39600 0.165074
5969.41699 0.164796
5970.43896 0.164513
5971.45996 0.164221
5972.48193 0.163925
5973.50391 0.163629
5974.52588 0.163333
5975.54785 0.163037
5976.57080 0.162741
5977.59277 0.162445
5978.61621 0.162149
5979.63916 0.161852
5980.66211 0.161566
5981.68506 0.161283
5982.70801 0.160997
5983.73193 0.160712
5984.75586 0.160426
5985.77979 0.16014
5986.80420 0.159854
5987.82812 0.159568
5988.85303 0.159282
5989.87695 0.158996
5990.90186 0.15871
5991.92676 0.158419
5992.95312 0.158115
5993.97803 0.157811
5995.00293 0.157507
5996.02881 0.157203
5997.05518 0.156899
5998.08105 0.156595
5999.10693 0.156291
6000.13379 0.155988
6001.16016 0.155696
6002.18701 0.155407
6003.21387 0.15512
6004.24121 0.154834
6005.26904 0.154547
6006.29590 0.15426
6007.32422 0.153973
6008.35205 0.153687
6009.37891 0.1534
6010.40820 0.153113
6011.43604 0.152826
6012.46387 0.152543
6013.49316 0.152262
6014.52197 0.151981
6015.55078 0.1517
6016.58008 0.151419
6017.60986 0.151138
6018.63916 0.150856
6019.66895 0.150575
6020.69922 0.150293
6021.72900 0.150013
6022.75879 0.149754
6023.79004 0.149494
6024.81982 0.149234
6025.85107 0.148974
6026.88184 0.148714
6027.91406 0.148454
6028.94482 0.148194
6029.97607 0.147934
6031.00781 0.147659
6032.04004 0.147375
6033.07178 0.147076
6034.10400 0.146776
6035.13721 0.146475
6036.16895 0.146175
6037.20215 0.145875
6038.23486 0.145575
6039.26807 0.145275
6040.30078 0.144979
6041.33398 0.144691
6042.36816 0.144411
6043.40186 0.144134
6044.43604 0.143857
6045.47021 0.14358
6046.50391 0.143303
6047.53906 0.143026
6048.57422 0.142749
6049.60889 0.142472
6050.64404 0.142194
6051.67920 0.141917
6052.71387 0.141644
6053.75000 0.14137
6054.78613 0.141097
6055.82178 0.140823
6056.85791 0.140549
6057.89404 0.140275
6058.93115 0.140001
6059.96680 0.139728
6061.00391 0.139454
6062.04102 0.139179
6063.07812 0.138901
6064.11621 0.138624
6065.15283 0.138347
6066.19092 0.13807
6067.22900 0.137792
6068.26709 0.137515
6069.30518 0.137237
6070.34277 0.13696
6071.38184 0.136682
6072.42090 0.136389
6073.45996 0.136089
6074.49902 0.135789
6075.53809 0.135489
6076.57812 0.135189
6077.61816 0.134889
6078.65723 0.134589
6079.69678 0.134289
6080.73682 0.133989
6081.77783 0.133692
6082.81787 0.13344
6083.85889 0.133188
6084.89990 0.132936
6085.94092 0.132684
6086.98193 0.132431
6088.02393 0.132179
6089.06494 0.131926
6090.10693 0.131673
6091.14893 0.131409
6092.19092 0.13113
6093.23389 0.130836
6094.27588 0.130543
6095.31885 0.13025
6096.36182 0.129956
6097.40479 0.129662
6098.44824 0.129369
6099.49219 0.129075
6100.53516 0.128787
6101.57910 0.128505
6102.62305 0.128223
6103.66699 0.127941
6104.71094 0.127658
6105.75586 0.127376
6106.79980 0.127094
6107.84521 0.126811
6108.89014 0.126528
6109.93604 0.126246
6110.98096 0.125963
6112.02588 0.12568
6113.07178 0.125395
6114.11816 0.12511
6115.16406 0.124825
6116.20996 0.12454
6117.25684 0.124255
6118.30420 0.12397
6119.35107 0.123684
6120.39697 0.123399
6121.44385 0.123114
6122.49219 0.122832
6123.54004 0.122552
6124.58691 0.122272
6125.63477 0.121991
6126.68311 0.12171
6127.73096 0.12143
6128.77979 0.121149
6129.82812 0.120868
6130.87695 0.120588
6131.92578 0.120305
6132.97510 0.120017
6134.02393 0.119729
6135.07422 0.11944
6136.12402 0.119152
6137.17285 0.118864
6138.22412 0.118575
6139.27393 0.118287
6140.32422 0.117998
6141.37500 0.117709
6142.42578 0.11743
6143.47705 0.117155
6144.52783 0.11688
6145.57910 0.116605
6146.62988 0.116329
6147.68213 0.116054
6148.73389 0.115779
6149.78613 0.115503
6150.83789 0.115219
6151.89111 0.114936
6152.94287 0.114667
6153.99609 0.114397
6155.04883 0.114127
6156.10205 0.113858
6157.15479 0.113588
6158.20801 0.113318
6159.26221 0.113048
6160.31592 0.112782
6161.37012 0.112522
6162.42383 0.112243
6163.47900 0.111955
6164.53320 0.111666
6165.58789 0.111378
6166.64307 0.11109
6167.69824 0.110801
6168.75293 0.110513
6169.80908 0.110224
6170.86377 0.109935
6171.91992 0.109652
6172.97607 0.109391
6174.03223 0.109129
6175.08789 0.108867
6176.14502 0.108605
6177.20215 0.108344
6178.25781 0.108082
6179.31494 0.10782
6180.37305 0.107558
6181.43018 0.107296
6182.48779 0.107028
6183.54492 0.106758
6184.60400 0.106487
6185.66211 0.106217
6186.72021 0.105946
6187.77783 0.105675
6188.83691 0.105405
6189.89600 0.105134
6190.95508 0.104863
6192.01416 0.104592
6193.07422 0.104319
6194.13281 0.104046
6195.19287 0.103774
6196.25293 0.103501
6197.31299 0.103228
6198.37402 0.102955
6199.43408 0.102682
6200.49512 0.102404
6201.55615 0.102122
6202.61719 0.101854
6203.67822 0.101589
6204.73877 0.101324
6205.80078 0.10106
6206.86279 0.100795
6207.92480 0.10053
6208.98682 0.100265
6210.04883 0.1
6211.11182 0.099744
6212.17383 0.099485
6213.23682 0.09922
6214.29980 0.098955
6215.36377 0.098691
6216.42676 0.098426
6217.49121 0.098161
6218.55420 0.097896
6219.61816 0.097631
6220.68311 0.097366
6221.74707 0.097101
6222.81201 0.096848
6223.87598 0.096595
6224.94092 0.096341
6226.00586 0.096088
6227.07080 0.095834
6228.13721 0.09558
6229.20215 0.095327
6230.26807 0.095073
6231.33398 0.09482
6232.39990 0.094557
6233.46582 0.094287
6234.53320 0.094018
6235.60010 0.093749
6236.66699 0.093479
6237.73291 0.09321
6238.80078 0.09294
6239.86816 0.09267
6240.93604 0.092393
6242.00293 0.092121
6243.07178 0.091866
6244.14014 0.091612
6245.20801 0.091357
6246.27588 0.091103
6247.34521 0.090848
6248.41406 0.090593
6249.48291 0.090339
6250.55176 0.090088
6251.62207 0.089842
6252.69092 0.089597
6253.76123 0.089352
6254.83203 0.089108
6255.90088 0.088863
6256.97217 0.088618
6258.04199 0.088374
6259.11279 0.088129
6260.18408 0.087884
6261.25488 0.087639
6262.32617 0.087389
6263.39795 0.087136
6264.46924 0.086883
6265.54102 0.086629
6266.61279 0.086376
6267.68604 0.086122
6268.75781 0.085869
6269.83105 0.085615
6270.90283 0.085361
6271.97607 0.085109
6273.04883 0.08486
6274.12305 0.084611
6275.19580 0.084362
6276.27002 0.084113
6277.34277 0.083864
6278.41699 0.083615
6279.49219 0.083366
6280.56592 0.083116
6281.64111 0.082867
6282.71484 0.082621
6283.79004 0.082375
6284.86523 0.082129
6285.93994 0.081883
6287.01611 0.081637
6288.09180 0.081391
6289.16699 0.081145
6290.24414 0.080898
6291.31982 0.080644
6292.39600 0.080395
6293.47314 0.08015
6294.54980 0.079905
6295.62598 0.07966
6296.70410 0.079415
6297.78076 0.079169
6298.85889 0.078924
6299.93701 0.078679
6301.01416 0.07844
6302.09180 0.078204
6303.16992 0.077971
6304.24902 0.077738
6305.32812 0.077505
6306.40576 0.077273
6307.48486 0.07704
6308.56396 0.076806
6309.64404 0.076573
6310.72412 0.07634
6311.80322 0.076107
6312.88281 0.075868
6313.96289 0.07563
6315.04297 0.075392
6316.12402 0.075154
6317.20508 0.074916
6318.28613 0.074677
6319.36719 0.074439
6320.44824 0.074201
6321.52881 0.073962
6322.61084 0.073723
6323.69189 0.073483
6324.77393 0.073243
6325.85596 0.073003
6326.93896 0.072762
6328.02100 0.072522
6329.10400 0.072282
6330.18701 0.07204
6331.27002 0.071793
6332.35303 0.071552
6333.43701 0.071314
6334.52100 0.071076
6335.60400 0.070839
6336.68799 0.070601
6337.77197 0.070363
6338.85596 0.070125
6339.94092 0.069888
6341.02588 0.069656
6342.11084 0.069427
6343.19580 0.069204
6344.28076 0.06898
6345.36719 0.068757
6346.45215 0.068533
6347.53809 0.068309
6348.62402 0.068086
6349.70996 0.067862
6350.79688 0.067638
6351.88281 0.067413
6352.97021 0.067181
6354.05713 0.066949
6355.14502 0.066716
6356.23096 0.066484
6357.31885 0.066252
6358.40723 0.066019
6359.49512 0.065787
6360.58301 0.065554
6361.67090 0.065322
6362.75879 0.065113
6363.84814 0.064907
6364.93701 0.064701
6366.02588 0.064495
6367.11523 0.064288
6368.20508 0.064082
6369.29395 0.063876
6370.38379 0.063667
6371.47412 0.063454
6372.56396 0.063245
6373.65381 0.063037
6374.74512 0.062829
6375.83496 0.06262
6376.92578 0.062412
6378.01807 0.062204
6379.10791 0.061996
6380.20020 0.061788
6381.29199 0.061586
6382.38281 0.061377
6383.47607 0.061162
6384.56689 0.060948
6385.66016 0.060734
6386.75195 0.060519
6387.84521 0.060305
6388.93799 0.06009
6390.03076 0.059876
6391.12500 0.059661
6392.21777 0.059449
6393.31201 0.059238
6394.40576 0.059028
6395.50000 0.058818
6396.59424 0.058608
6397.68799 0.058397
6398.78320 0.058187
6399.87793 0.057977
6400.97314 0.057766
6402.06787 0.057559
6403.16309 0.057359
6404.25879 0.05716
6405.35400 0.056961
6406.45117 0.056761
6407.54590 0.056562
6408.64307 0.056362
6409.73877 0.056162
6410.83594 0.055959
6411.93311 0.055754
6413.02979 0.055553
6414.12695 0.055351
6415.22510 0.05515
6416.32178 0.054948
6417.41992 0.054747
6418.51807 0.054545
6419.61621 0.054344
6420.71387 0.054146
6421.81299 0.053949
6422.91211 0.053754
6424.01123 0.053559
6425.10986 0.053364
6426.20898 0.053169
6427.30908 0.052974
6428.40820 0.052779
6429.50781 0.052584
6430.60791 0.052388
6431.70801 0.052192
6432.80908 0.051999
6433.91016 0.051806
6435.00977 0.051614
6436.11084 0.051421
6437.21191 0.051229
6438.31396 0.051036
6439.41602 0.050843
6440.51709 0.050651
6441.61914 0.050458
6442.72119 0.050268
6443.82422 0.050079
6444.92578 0.04989
6446.02881 0.0497
6447.13184 0.049511
6448.23486 0.049322
6449.33789 0.049132
6450.44092 0.048941
6451.54492 0.048747
6452.64893 0.048562
6453.75293 0.048379
6454.85693 0.048196
6455.96094 0.048013
6457.06592 0.04783
6458.17090 0.047647
6459.27588 0.047464
6460.38086 0.047283
6461.48584 0.047105
6462.59180 0.046925
6463.69678 0.046745
6464.80322 0.046564
6465.91016 0.046384
6467.01611 0.046204
6468.12207 0.046023
6469.22900 0.045843
6470.33594 0.045662
6471.44287 0.045482
6472.54980 0.045303
6473.65723 0.045125
6474.76514 0.044947
6475.87305 0.044769
6476.98096 0.044591
6478.08887 0.044413
6479.19678 0.044235
6480.30615 0.044057
6481.41504 0.043879
6482.52295 0.043707
6483.63281 0.043539
6484.74219 0.043371
6485.85205 0.043202
6486.96094 0.043034
6488.07080 0.042865
6489.18115 0.042697
6490.29199 0.042527
6491.40186 0.042354
6492.51318 0.042182
6493.62402 0.042009
6494.73389 0.041837
6495.84619 0.041665
6496.95703 0.041492
6498.06885 0.04132
6499.18018 0.041148
6500.29199 0.040974
6501.40479 0.040798
6502.51709 0.040627
6503.62891 0.040457
6504.74219 0.040287
6505.85498 0.040117
6506.96777 0.039948
6508.08203 0.039778
6509.19482 0.039608
6510.30908 0.039439
6511.42188 0.039269
6512.53711 0.039096
6513.65088 0.038921
6514.76514 0.038746
6515.87988 0.038572
6516.99512 0.038397
6518.10986 0.038222
6519.22510 0.038047
6520.33984 0.037871
6521.45605 0.037693
6522.57178 0.037526
6523.68799 0.037364
6524.80420 0.037201
6525.91992 0.037039
6527.03711 0.036877
6528.15381 0.036715
6529.27100 0.036553
6530.38818 0.036393
6531.50488 0.036234
6532.62305 0.03608
6533.74023 0.035927
6534.85791 0.035774
6535.97607 0.035621
6537.09424 0.035468
6538.21289 0.035315
6539.33203 0.035162
6540.45020 0.035009
6541.56885 0.034856
6542.68799 0.034703
6543.80811 0.034549
6544.92822 0.034395
6546.04688 0.034241
6547.16699 0.034087
6548.28809 0.033934
6549.40820 0.03378
6550.52881 0.033626
6551.64893 0.033472
6552.77100 0.033321
6553.89209 0.03317
6555.01318 0.033019
6556.13379 0.032868
6557.25586 0.032717
6558.37793 0.032566
6559.50000 0.032415
6560.62305 0.032263
6561.74512 0.032109
6562.86816 0.031963
6563.99023 0.031818
6565.11279 0.031673
6566.23682 0.031528
6567.35986 0.031384
6568.48389 0.031239
6569.60693 0.031094
6570.73096 0.030952
6571.85596 0.03081
6572.97998 0.030671
6574.10498 0.030531
6575.22900 0.030392
6576.35400 0.030252
6577.47998 0.030113
6578.60498 0.029974
6579.73096 0.029834
6580.85596 0.029695
6581.98193 0.029556
6583.10889 0.029421
6584.23486 0.029286
6585.36084 0.029151
6586.48779 0.029016
6587.61523 0.028881
6588.74219 0.028746
6589.87012 0.028611
6590.99707 0.028473
6592.12500 0.028336
6593.25195 0.028198
6594.38086 0.02806
6595.50879 0.027923
6596.63721 0.027785
6597.76611 0.027647
6598.89502 0.02751
6600.02393 0.027373
6601.15283 0.027238
6602.28320 0.027108
6603.41211 0.026987
6604.54199 0.026866
6605.67188 0.026744
6606.80176 0.026623
6607.93311 0.026502
6609.06299 0.02638
6610.19385 0.026259
6611.32520 0.026138
6612.45605 0.026015
6613.58691 0.025891
6614.71924 0.025766
6615.85107 0.025642
6616.98193 0.025518
6618.11523 0.025394
6619.24707 0.02527
6620.37891 0.025146
6621.51221 0.025021
6622.64502 0.024902
6623.77783 0.024783
6624.91211 0.024665
6626.04492 0.024547
6627.17920 0.024429
6628.31299 0.024311
6629.44678 0.024192
6630.58105 0.024073
6631.71484 0.023951
6632.85010 0.02383
6633.98486 0.023709
6635.12012 0.023588
6636.25488 0.023468
6637.39111 0.023347
6638.52588 0.023226
6639.66211 0.023106
6640.79785 0.022987
6641.93408 0.022869
6643.07080 0.022759
6644.20703 0.022648
6645.34424 0.022538
6646.48096 0.022427
6647.61816 0.022317
6648.75488 0.022206
6649.89307 0.022096
6651.03076 0.021986
6652.16895 0.021875
6653.30713 0.021765
6654.44482 0.021655
6655.58398 0.021545
6656.72314 0.021435
6657.86084 0.021325
6659.00000 0.021215
6660.14014 0.021105
6661.27881 0.020993
6662.41895 0.020882
6663.55908 0.020773
6664.69922 0.020663
6665.83887 0.020554
6666.97998 0.020445
6668.12109 0.020336
6669.26221 0.020227
6670.40283 0.020118
6671.54395 0.020011
6672.68604 0.019909
6673.82715 0.019809
6674.96924 0.019709
6676.11084 0.019608
6677.25293 0.019508
6678.39600 0.019408
6679.53809 0.019308
6680.68115 0.019208
6681.82422 0.019107
6682.96680 0.01901
6684.11084 0.018913
6685.25391 0.018815
6686.39795 0.018718
6687.54199 0.018621
6688.68701 0.018523
6689.83105 0.018426
6690.97607 0.018327
6692.12012 0.018229
6693.26514 0.018134
6694.41016 0.018039
6695.55615 0.017943
6696.70117 0.017848
6697.84717 0.017753
6698.99316 0.017658
6700.13916 0.017563
6701.28613 0.01747
6702.43213 0.017377
6703.57910 0.017285
6704.72607 0.017193
6705.87305 0.017101
6707.02100 0.017009
6708.16797 0.016916
6709.31494 0.016824
6710.46289 0.016732
6711.61182 0.01664
6712.75977 0.016551
6713.90918 0.016463
6715.05713 0.016375
6716.20605 0.016286
6717.35498 0.016198
6718.50391 0.01611
6719.65381 0.016022
6720.80420 0.015932
6721.95410 0.015843
6723.10400 0.015757
6724.25391 0.015671
6725.40381 0.015585
6726.55518 0.015499
6727.70605 0.015413
6728.85693 0.015327
6730.00781 0.015241
6731.16016 0.015157
6732.31201 0.015074
6733.46289 0.014994
6734.61523 0.014914
6735.76807 0.014834
6736.91992 0.014754
6738.07324 0.014674
6739.22607 0.014594
6740.37793 0.014514
6741.53223 0.014434
6742.68604 0.014353
6743.83887 0.014272
6744.99316 0.01419
6746.14697 0.014109
6747.30078 0.014028
6748.45605 0.013946
6749.60986 0.013865
6750.76514 0.013783
6751.91992 0.013701
6753.07520 0.013625
6754.22998 0.013549
6755.38623 0.013473
6756.54199 0.013397
6757.69824 0.013321
6758.85400 0.013245
6760.01123 0.013169
6761.16699 0.013095
6762.32422 0.013022
6763.48096 0.01295
6764.63818 0.012878
6765.79492 0.012806
6766.95312 0.012734
6768.11084 0.012662
6769.26904 0.01259
6770.42676 0.012518
6771.58496 0.012446
6772.74414 0.012377
6773.90283 0.012309
6775.06201 0.012241
6776.22119 0.012173
6777.37988 0.012105
6778.54004 0.012037
6779.70020 0.011969
6780.85986 0.0119
6782.02002 0.011831
6783.18018 0.011763
6784.34082 0.011696
6785.50098 0.011628
6786.66309 0.01156
6787.82422 0.011492
6788.98486 0.011425
6790.14600 0.011357
6791.30908 0.011291
6792.47021 0.011224
6793.63184 0.011158
6794.79492 0.011091
6795.95801 0.011025
6797.12012 0.010959
6798.28320 0.010893
6799.44580 0.010826
6800.60889 0.01076
6801.77295 0.010694
6802.93701 0.010633
6804.10107 0.010573
6805.26514 0.010513
6806.42920 0.010454
6807.59424 0.010394
6808.75879 0.010334
6809.92285 0.010274
6811.08887 0.010213
6812.25391 0.010152
6813.41895 0.010092
6814.58496 0.010031
6815.75098 0.009971
6816.91699 0.00991
6818.08301 0.00985
6819.25000 0.009789
6820.41699 0.009729
6821.58398 0.00967
6822.75098 0.009613
6823.91797 0.009556
6825.08594 0.0095
6826.25391 0.009443
6827.42090 0.009387
6828.58984 0.009331
6829.75781 0.009274
6830.92676 0.009218
6832.09521 0.009163
6833.26416 0.009109
6834.43408 0.009056
6835.60303 0.009003
6836.77197 0.008949
6837.94189 0.008896
6839.11182 0.008843
6840.28223 0.008789
6841.45312 0.008735
6842.62305 0.008682
6843.79395 0.00863
6844.96484 0.008578
6846.13623 0.008526
6847.30713 0.008474
6848.47900 0.008422
6849.64990 0.00837
6850.82178 0.008318
6851.99512 0.008267
6853.16699 0.00822
6854.33887 0.008172
6855.51221 0.008124
6856.68506 0.008077
6857.85791 0.008029
6859.03223 0.007981
6860.20508 0.007934
6861.37891 0.007885
6862.55322 0.007837
6863.72705 0.007787
6864.90088 0.007738
6866.07617 0.007689
6867.25000 0.00764
6868.42480 0.007591
6869.60107 0.007542
6870.77588 0.007493
6871.95215 0.007445
6873.12695 0.0074
6874.30322 0.007355
6875.47900 0.00731
6876.65576 0.007265
6877.83301 0.00722
6879.00879 0.007176
6880.18604 0.007131
6881.36279 0.007086
6882.54102 0.007043
6883.71777 0.007001
6884.89600 0.00696
6886.07422 0.006918
6887.25195 0.006877
6888.43018 0.006835
6889.60889 0.006794
6890.78809 0.006752
6891.96680 0.00671
6893.14600 0.006667
6894.32520 0.006625
6895.50488 0.006583
6896.68506 0.006541
6897.86523 0.006499
6899.04492 0.006456
6900.22510 0.006414
6901.40576 0.006373
6902.58594 0.006333
6903.76807 0.006294
6904.94922 0.006255
6906.12988 0.006216
6907.31201 0.006177
6908.49414 0.006138
6909.67578 0.006099
6910.85791 0.00606
6912.04004 0.006021
6913.22314 0.005982
6914.40576 0.005944
6915.58887 0.005906
6916.77197 0.005868
6917.95508 0.00583
6919.13916 0.005792
6920.32324 0.005754
6921.50684 0.005715
6922.69092 0.005678
6923.87500 0.005642
6925.06006 0.005607
6926.24512 0.005571
6927.43018 0.005535
6928.61523 0.0055
6929.80078 0.005464
6930.98584 0.005429
6932.17188 0.005394
6933.35791 0.00536
6934.54395 0.005326
6935.73096 0.005291
6936.91699 0.005257
6938.10400 0.005223
6939.29199 0.005189
6940.47900 0.005155
6941.66699 0.00512
6942.85400 0.005086
6944.04199 0.005053
6945.22998 0.00502
6946.41797 0.004987
6947.60693 0.004953
6948.79492 0.00492
6949.98389 0.004887
6951.17285 0.004854
6952.36279 0.004822
6953.55176 0.004791
6954.74219 0.004761
6955.93213 0.00473
6957.12207 0.004699
6958.31299 0.004668
6959.50293 0.004637
6960.69385 0.004606
6961.88477 0.004576
6963.07617 0.004547
6964.26709 0.004517
6965.45801 0.004488
6966.64990 0.004459
6967.84180 0.00443
6969.03516 0.004401
6970.22705 0.004372
6971.41895 0.004343
6972.61182 0.004314
6973.80518 0.004286
6974.99902 0.004258
6976.19189 0.004229
6977.38477 0.004201
6978.57910 0.004173
6979.77295 0.004145
6980.96680 0.004117
6982.16211 0.00409
6983.35596 0.004063
6984.55078 0.004036
6985.74609 0.004009
6986.94092 0.003982
6988.13721 0.003955
6989.33301 0.003928
6990.52783 0.003901
6991.72412 0.003875
6992.91992 0.003849
6994.11719 0.003823
6995.31299 0.003798
6996.50977 0.003772
6997.70801 0.003747
6998.90479 0.003721
7000.10303 0.003696
7001.29980 0.003669
7002.49805 0.003644
7003.69580 0.003619
7004.89404 0.003595
7006.09277 0.00357
7007.29199 0.003546
7008.49023 0.003521
7009.68896 0.003497
7010.88916 0.003472
7012.08789 0.003448
7013.28809 0.003425
7014.48779 0.003402
7015.68799 0.003378
7016.88916 0.003355
7018.08887 0.003332
7019.29004 0.003308
7020.49121 0.003285
7021.69189 0.003261
7022.89307 0.003238
7024.09521 0.003215
7025.29688 0.003192
7026.49902 0.00317
7027.70117 0.003147
7028.90283 0.003124
7030.10596 0.003101
7031.30908 0.003078
7032.51221 0.003057
7033.71484 0.003036
7034.91797 0.003016
7036.12207 0.002995
7037.32617 0.002975
7038.52979 0.002954
7039.73389 0.002934
7040.93799 0.002914
7042.14307 0.002893
7043.34814 0.002874
7044.55322 0.002854
7045.75781 0.002834
7046.96387 0.002814
7048.16895 0.002795
7049.37500 0.002775
7050.58203 0.002755
7051.78809 0.002735
7052.99512 0.002716
7054.20117 0.002696
7055.40820 0.002676
7056.61523 0.002657
7057.82324 0.002637
7059.02979 0.002618
7060.23779 0.002599
7061.44580 0.002579
7062.65381 0.002561
7063.86182 0.002543
7065.07080 0.002525
7066.27979 0.002507
7067.48877 0.002489
7068.69824 0.002471
7069.90820 0.002453
7071.11719 0.002435
7072.32715 0.002417
7073.53711 0.002399
7074.74707 0.002382
7075.95801 0.002365
7077.16797 0.002347
7078.37891 0.00233
7079.58984 0.002312
7080.80176 0.002295
7082.01318 0.002278
7083.22510 0.002263
7084.43701 0.002247
7085.64893 0.002232
7086.86084 0.002217
7088.07422 0.002201
7089.28613 0.002186
7090.50000 0.002171
7091.71191 0.002155
7092.92578 0.002139
7094.13916 0.002124
7095.35303 0.002109
7096.56689 0.002093
7097.78076 0.002078
7098.99609 0.002062
7100.20996 0.002047
7101.42480 0.002032
7102.64014 0.002017
7103.85498 0.002002
7105.07080 0.001987
7106.28613 0.001972
7107.50195 0.001957
7108.71777 0.001942
7109.93506 0.001927
7111.15088 0.001912
7112.36816 0.001898
7113.58398 0.001884
7114.80176 0.001871
7116.01904 0.001857
7117.23584 0.001844
7118.45410 0.00183
7119.67188 0.001817
7120.89014 0.001803
7122.10791 0.00179
7123.32715 0.001777
7124.54590 0.001764
7125.76514 0.00175
7126.98389 0.001737
7128.20410 0.001724
7129.42285 0.001711
7130.64307 0.001698
7131.86279 0.001685
7133.08301 0.001673
7134.30420 0.001661
7135.52393 0.001649
7136.74512 0.001637
7137.96582 0.001624
7139.18799 0.001612
7140.40918 0.0016
7141.62988 0.001588
7142.85303 0.001576
7144.07520 0.001564
7145.29688 0.001553
7146.52002 0.001541
7147.74219 0.001529
7148.96484 0.001517
7150.18799 0.001506
7151.41211 0.001494
7152.63477 0.001483
7153.85889 0.001472
7155.08301 0.001461
7156.30713 0.001451
7157.53076 0.00144
7158.75586 0.001429
7159.98096 0.001418
7161.20605 0.001407
7162.43115 0.001396
7163.65723 0.001386
7164.88184 0.001376
7166.10791 0.001366
7167.33398 0.001355
7168.56104 0.001345
7169.78711 0.001335
7171.01416 0.001325
7172.24121 0.001315
7173.46777 0.001305
7174.69482 0.001296
7175.92285 0.001286
7177.14990 0.001276
7178.37793 0.001266
7179.60596 0.001257
7180.83496 0.001247
7182.06299 0.001237
7183.29199 0.001228
7184.52100 0.001219
7185.75000 0.001209
7186.97998 0.0012
7188.20996 0.001191
7189.43896 0.001182
7190.66992 0.001172
7191.89990 0.001163
7193.12988 0.001154
7194.36084 0.001146
7195.59180 0.001137
7196.82324 0.001128
7198.05518 0.00112
7199.28613 0.001111
7200.51807 0.001102
7201.75000 0.001094
7202.98193 0.001086
7204.21387 0.001078
7205.44678 0.00107
7206.68018 0.001062
7207.91309 0.001054
7209.14600 0.001046
7210.37891 0.001038
7211.61279 0.00103
7212.84717 0.001022
7214.08105 0.001014
7215.31494 0.001006
7216.54980 0.000999
7217.78516 0.000991
7219.02002 0.000983
7220.25488 0.000975
7221.49023 0.000967
7222.72607 0.00096
7223.96094 0.000953
7225.19678 0.000945
7226.43408 0.000938
7227.66992 0.000931
7228.90723 0.000923
7230.14404 0.000916
7231.37988 0.000909
7232.61816 0.000901
7233.85498 0.000895
7235.09277 0.000888
7236.33105 0.000881
7237.56885 0.000874
7238.80713 0.000867
7240.04492 0.000861
7241.28418 0.000854
7242.52295 0.000847
7243.76221 0.000841
7245.00195 0.000834
7246.24121 0.000828
7247.48096 0.000821
7248.72119 0.000814
7249.96094 0.000808
7251.20215 0.000801
7252.44189 0.000795
7253.68311 0.000789
7254.92383 0.000783
7256.16602 0.000777
7257.40723 0.000771
7258.64893 0.000765
7259.89111 0.000759
7261.13281 0.000753
7262.37500 0.000747
7263.61816 0.000741
7264.85986 0.000735
7266.10400 0.000729
7267.34717 0.000723
7268.58984 0.000718
7269.83398 0.000712
7271.07812 0.000706
7272.32178 0.0007
7273.56592 0.000695
7274.81104 0.00069
7276.05518 0.000684
7277.29980 0.000679
7278.54492 0.000674
7279.79102 0.000669
7281.03613 0.000663
7282.28223 0.000658
7283.52783 0.000653
7284.77393 0.000648
7286.02002 0.000643
7287.26709 0.000638
7288.51416 0.000633
7289.76123 0.000628
7291.00781 0.000623
7292.25488 0.000618
7293.50293 0.000613
7294.75098 0.000608
7295.99902 0.000603
7297.24707 0.000598
7298.49609 0.000593
7299.74512 0.000589
7300.99414 0.000584
7302.24316 0.000579
7303.49219 0.000574
7304.74219 0.00057
7305.99121 0.000566
7307.24121 0.000561
7308.49219 0.000557
7309.74219 0.000552
7310.99316 0.000548
7312.24414 0.000544
7313.49512 0.000539
7314.74609 0.000535
7315.99805 0.000531
7317.24902 0.000527
7318.50098 0.000522
7319.75293 0.000518
7321.00586 0.000514
7322.25781 0.000509
7323.51123 0.000506
7324.76416 0.000502
7326.01709 0.000498
7327.27100 0.000494
7328.52393 0.00049
7329.77783 0.000486
7331.03223 0.000483
7332.28711 0.000479
7333.54102 0.000475
7334.79590 0.000472
7336.05078 0.000468
7337.30615 0.000464
7338.56201 0.000461
7339.81689 0.000457
7341.07324 0.000453
7342.32910 0.00045
7343.58496 0.000446
7344.84082 0.000442
7346.09814 0.000438
7347.35498 0.000435
7348.61182 0.000431
7349.86914 0.000427
7351.12695 0.000423
7352.38477 0.00042
7353.64307 0.000417
7354.90088 0.000413
7356.15918 0.00041
7357.41797 0.000407
7358.67676 0.000404
7359.93604 0.000401
8095.92969 0.0
