# %ECSV 0.9
# ---
# datatype:
# - {name: wavelength, unit: Angstrom, datatype: float32}
# - {name: response, datatype: float32}
# meta: !!omap
# - {band_name: G280}
# - {group_name: WFC3_UVIS2}
wavelength response
1799.37988 0.0
1999.31104 0.031179
1999.62305 0.062514
1999.93506 0.093955
2000.24695 0.100569
2000.55798 0.100601
2000.87000 0.100635
2001.18201 0.100667
2001.49402 0.1007
2001.80603 0.100734
2002.11804 0.100766
2002.43103 0.1008
2002.74304 0.100833
2003.05505 0.100865
2003.36694 0.100899
2003.68005 0.100931
2003.99194 0.100965
2004.30396 0.100998
2004.61694 0.101031
2004.92896 0.101064
2005.24194 0.101097
2005.55505 0.10113
2005.86694 0.101163
2006.18005 0.101196
2006.49304 0.101229
2006.80603 0.101262
2007.11804 0.101295
2007.43103 0.101328
2007.74402 0.101361
2008.05701 0.101394
2008.37000 0.101427
2008.68298 0.10146
2008.99695 0.101493
2009.31006 0.101526
2009.62305 0.101559
2009.93604 0.101592
2010.25000 0.101625
2010.56299 0.101658
2010.87695 0.101691
2011.18994 0.101724
2011.50403 0.101757
2011.81702 0.10179
2012.13098 0.101823
2012.44495 0.101857
2012.75806 0.101889
2013.07202 0.101922
2013.38599 0.101956
2013.69995 0.101988
2014.01404 0.102022
2014.32800 0.102055
2014.64197 0.102087
2014.95605 0.102121
2015.27002 0.102154
2015.58398 0.102187
2015.89795 0.10222
2016.21301 0.102253
2016.52698 0.102286
2016.84094 0.102319
2017.15601 0.102352
2017.46997 0.102385
2017.78503 0.102418
2018.09900 0.102451
2018.41394 0.102484
2018.72900 0.102517
2019.04297 0.10255
2019.35803 0.102583
2019.67297 0.102616
2019.98804 0.102649
2020.30298 0.102679
2020.61804 0.102709
2020.93298 0.102739
2021.24805 0.102769
2021.56299 0.102799
2021.87805 0.102829
2022.19299 0.102859
2022.50903 0.102888
2022.82397 0.102918
2023.13904 0.102948
2023.45496 0.102978
2023.77002 0.103008
2024.08606 0.103038
2024.40100 0.103068
2024.71704 0.103097
2025.03296 0.103127
2025.34802 0.103157
2025.66394 0.103187
2025.97998 0.103217
2026.29602 0.103247
2026.61206 0.103276
2026.92798 0.103306
2027.24402 0.103336
2027.56006 0.103366
2027.87598 0.103396
2028.19202 0.103426
2028.50806 0.103456
2028.82397 0.103485
2029.14099 0.103515
2029.45703 0.103545
2029.77295 0.103575
2030.08997 0.103606
2030.40601 0.103638
2030.72302 0.103671
2031.04004 0.103704
2031.35596 0.103737
2031.67297 0.10377
2031.98999 0.103803
2032.30603 0.103835
2032.62305 0.103868
2032.93994 0.103901
2033.25696 0.103934
2033.57397 0.103967
2033.89099 0.103999
2034.20801 0.104032
2034.52502 0.104065
2034.84302 0.104098
2035.16003 0.104131
2035.47705 0.104164
2035.79395 0.104196
2036.11206 0.104229
2036.42896 0.104262
2036.74695 0.104295
2037.06396 0.104328
2037.38196 0.104361
2037.69897 0.104394
2038.01697 0.104426
2038.33496 0.104459
2038.65295 0.104492
2038.96997 0.104525
2039.28796 0.104558
2039.60596 0.104591
2039.92395 0.104624
2040.24194 0.104656
2040.56006 0.104689
2040.87805 0.104722
2041.19702 0.104754
2041.51501 0.104787
2041.83301 0.10482
2042.15100 0.104852
2042.46997 0.104885
2042.78796 0.104918
2043.10706 0.10495
2043.42505 0.104983
2043.74402 0.105016
2044.06201 0.105048
2044.38098 0.105081
2044.69995 0.105114
2045.01904 0.105147
2045.33801 0.105179
2045.65601 0.105212
2045.97498 0.105245
2046.29395 0.105277
2046.61304 0.10531
2046.93201 0.105343
2047.25098 0.105375
2047.57104 0.105408
2047.89001 0.105441
2048.20898 0.105473
2048.52905 0.105506
2048.84790 0.105539
2049.16699 0.105572
2049.48706 0.105604
2049.80591 0.105637
2050.12598 0.105673
2050.44604 0.105712
2050.76489 0.105751
2051.08496 0.105791
2051.40503 0.10583
2051.72412 0.10587
2052.04395 0.10591
2052.36401 0.105949
2052.68408 0.105989
2053.00391 0.106028
2053.32397 0.106068
2053.64404 0.106107
2053.96509 0.106147
2054.28491 0.106187
2054.60498 0.106226
2054.92505 0.106266
2055.24609 0.106305
2055.56592 0.106345
2055.88696 0.106385
2056.20703 0.106424
2056.52808 0.106464
2056.84790 0.106504
2057.16895 0.106543
2057.48999 0.106583
2057.81104 0.106623
2058.13110 0.106662
2058.45190 0.106702
2058.77295 0.106742
2059.09399 0.106782
2059.41504 0.106821
2059.73608 0.106861
2060.05688 0.106901
2060.37793 0.10694
2060.69995 0.106979
2061.02100 0.107019
2061.34204 0.107058
2061.66406 0.107098
2061.98511 0.107137
2062.30591 0.107177
2062.62793 0.107216
2062.94897 0.107256
2063.27100 0.107295
2063.59302 0.107335
2063.91504 0.107374
2064.23608 0.107414
2064.55811 0.107453
2064.87988 0.107493
2065.20190 0.107532
2065.52393 0.107572
2065.84595 0.107611
2066.16797 0.107651
2066.48999 0.107691
2066.81201 0.10773
2067.13501 0.10777
2067.45703 0.107809
2067.77905 0.107849
2068.10205 0.107888
2068.42407 0.107928
2068.74609 0.107968
2069.06909 0.108007
2069.39209 0.108047
2069.71411 0.108087
2070.03711 0.108126
2070.36011 0.108162
2070.68188 0.108198
2071.00488 0.108234
2071.32788 0.10827
2071.65088 0.108306
2071.97412 0.108342
2072.29712 0.108378
2072.62012 0.108414
2072.94312 0.10845
2073.26611 0.108486
2073.59009 0.108522
2073.91309 0.108558
2074.23608 0.108594
2074.56006 0.10863
2074.88306 0.108666
2075.20703 0.108702
2075.53003 0.108738
2075.85400 0.108774
2076.17700 0.10881
2076.50098 0.108846
2076.82495 0.108882
2077.14795 0.108918
2077.47192 0.108954
2077.79590 0.10899
2078.12012 0.109026
2078.44409 0.109062
2078.76807 0.109098
2079.09204 0.109134
2079.41602 0.10917
2079.73999 0.109206
2080.06494 0.109243
2080.38892 0.109282
2080.71289 0.109321
2081.03809 0.10936
2081.36206 0.109399
2081.68701 0.109438
2082.01099 0.109478
2082.33594 0.109517
2082.65991 0.109556
2082.98511 0.109595
2083.31006 0.109634
2083.63501 0.109673
2083.95898 0.109712
2084.28394 0.109751
2084.60889 0.10979
2084.93408 0.109829
2085.25903 0.109869
2085.58398 0.109908
2085.90991 0.109947
2086.23511 0.109986
2086.56006 0.110025
2086.88501 0.110064
2087.21094 0.110104
2087.53589 0.110143
2087.86206 0.110182
2088.18701 0.110221
2088.51294 0.11026
2088.83789 0.1103
2089.16406 0.110339
2089.48999 0.110378
2089.81494 0.110417
2090.14111 0.110456
2090.46704 0.110495
2090.79297 0.110534
2091.11890 0.110573
2091.44507 0.110612
2091.77100 0.11065
2092.09692 0.110689
2092.42310 0.110728
2092.75000 0.110767
2093.07593 0.110806
2093.40210 0.110845
2093.72900 0.110883
2094.05493 0.110922
2094.38110 0.110961
2094.70801 0.111
2095.03394 0.111039
2095.36108 0.111078
2095.68799 0.111117
2096.01392 0.111156
2096.34106 0.111194
2096.66797 0.111233
2096.99512 0.111272
2097.32202 0.111311
2097.64893 0.11135
2097.97607 0.111389
2098.30298 0.111428
2098.62988 0.111467
2098.95703 0.111506
2099.28394 0.111545
2099.61206 0.111584
2099.93896 0.111623
2100.26611 0.111719
2100.59399 0.111828
2100.92090 0.111938
2101.24902 0.112048
2101.57593 0.112157
2101.90405 0.112267
2102.23193 0.112377
2102.56006 0.112487
2102.88696 0.112597
2103.21509 0.112707
2103.54297 0.112817
2103.87109 0.112927
2104.19897 0.113038
2104.52710 0.113148
2104.85498 0.113259
2105.18311 0.113369
2105.51099 0.11348
2105.84009 0.11359
2106.16797 0.113701
2106.49707 0.113812
2106.82495 0.113923
2107.15308 0.114034
2107.48193 0.114145
2107.81104 0.114256
2108.13892 0.114368
2108.46802 0.114479
2108.79590 0.11459
2109.12500 0.114702
2109.45410 0.114813
2109.78296 0.114925
2110.11206 0.115037
2110.44092 0.115148
2110.77002 0.115259
2111.09912 0.115371
2111.42798 0.115482
2111.75708 0.115594
2112.08594 0.115705
2112.41602 0.115817
2112.74512 0.115929
2113.07397 0.116041
2113.40405 0.116153
2113.73291 0.116265
2114.06299 0.116377
2114.39209 0.116489
2114.72192 0.116601
2115.05200 0.116713
2115.38208 0.116826
2115.71094 0.116939
2116.04102 0.117051
2116.37109 0.117164
2116.70093 0.117276
2117.03101 0.117389
2117.36108 0.117502
2117.69092 0.117615
2118.02100 0.117728
2118.35205 0.117841
2118.68188 0.117955
2119.01196 0.118068
2119.34302 0.118181
2119.67310 0.118295
2120.00293 0.118408
2120.33398 0.118517
2120.66406 0.118627
2120.99512 0.118736
2121.32593 0.118846
2121.65601 0.118955
2121.98706 0.119065
2122.31812 0.119175
2122.64893 0.119284
2122.97998 0.119394
2123.31104 0.119504
2123.64209 0.119614
2123.97290 0.119724
2124.30396 0.119834
2124.63501 0.119944
2124.96704 0.120054
2125.29810 0.120165
2125.62891 0.120275
2125.95996 0.120386
2126.29199 0.120496
2126.62305 0.120607
2126.95508 0.120718
2127.28711 0.120828
2127.61792 0.120939
2127.94995 0.12105
2128.28198 0.121161
2128.61401 0.121272
2128.94507 0.121383
2129.27710 0.121494
2129.60889 0.121606
2129.94092 0.121717
2130.27295 0.121831
2130.60498 0.121946
2130.93701 0.12206
2131.27002 0.122175
2131.60205 0.12229
2131.93408 0.122405
2132.26709 0.12252
2132.59912 0.122635
2132.93188 0.12275
2133.26392 0.122865
2133.59692 0.122981
2133.92896 0.123096
2134.26196 0.123212
2134.59497 0.123327
2134.92700 0.123443
2135.26001 0.123558
2135.59302 0.123674
2135.92603 0.12379
2136.25903 0.123906
2136.59204 0.124022
2136.92505 0.124138
2137.25903 0.124254
2137.59204 0.124371
2137.92505 0.124487
2138.25806 0.124603
2138.59204 0.12472
2138.92505 0.124836
2139.25903 0.124953
2139.59204 0.12507
2139.92603 0.125187
2140.25903 0.125303
2140.59302 0.125419
2140.92700 0.125535
2141.26001 0.125652
2141.59399 0.125768
2141.92798 0.125885
2142.26196 0.126001
2142.59595 0.126118
2142.92993 0.126235
2143.26392 0.126352
2143.59790 0.126469
2143.93311 0.126585
2144.26709 0.126702
2144.60107 0.12682
2144.93604 0.126937
2145.27002 0.127054
2145.60400 0.127172
2145.93896 0.127289
2146.27295 0.127407
2146.60791 0.127524
2146.94312 0.127642
2147.27710 0.12776
2147.61206 0.127878
2147.94702 0.127996
2148.28198 0.128113
2148.61694 0.128231
2148.95190 0.12835
2149.28711 0.128468
2149.62207 0.128586
2149.95703 0.128705
2150.29199 0.128822
2150.62695 0.12894
2150.96289 0.129058
2151.29810 0.129176
2151.63306 0.129294
2151.96899 0.129412
2152.30396 0.12953
2152.63989 0.129648
2152.97607 0.129766
2153.31104 0.129885
2153.64697 0.130003
2153.98291 0.130122
2154.31812 0.13024
2154.65405 0.130359
2154.98999 0.130478
2155.32593 0.130596
2155.66211 0.130715
2155.99805 0.130834
2156.33398 0.130953
2156.67090 0.131073
2157.00708 0.131192
2157.34302 0.131311
2157.67896 0.13143
2158.01611 0.13155
2158.35205 0.131669
2158.68896 0.131789
2159.02490 0.131909
2159.36206 0.132028
2159.69800 0.132148
2160.03491 0.132268
2160.37207 0.132382
2160.70898 0.132497
2161.04590 0.132612
2161.38306 0.132727
2161.71899 0.132843
2162.05688 0.132958
2162.39404 0.133073
2162.73096 0.133188
2163.06812 0.133304
2163.40503 0.133419
2163.74194 0.133535
2164.08008 0.133651
2164.41699 0.133766
2164.75488 0.133882
2165.09204 0.133998
2165.42993 0.134114
2165.76709 0.13423
2166.10498 0.134346
2166.44312 0.134462
2166.78003 0.134578
2167.11792 0.134695
2167.45605 0.134811
2167.79395 0.134927
2168.13208 0.135044
2168.46997 0.13516
2168.80811 0.135277
2169.14600 0.135394
2169.48389 0.13551
2169.82300 0.135627
2170.16089 0.135746
2170.49902 0.135866
2170.83691 0.135987
2171.17603 0.136107
2171.51392 0.136228
2171.85303 0.136348
2172.19189 0.136469
2172.53003 0.13659
2172.86890 0.136711
2173.20801 0.136832
2173.54590 0.136953
2173.88501 0.137074
2174.22412 0.137195
2174.56299 0.137316
2174.90210 0.137437
2175.24097 0.137559
2175.58008 0.13768
2175.91992 0.137802
2176.25903 0.137924
2176.59790 0.138045
2176.93799 0.138167
2177.27710 0.138289
2177.61597 0.138411
2177.95605 0.138533
2178.29492 0.138655
2178.63501 0.138777
2178.97510 0.1389
2179.31396 0.139022
2179.65405 0.139144
2179.99390 0.139267
2180.33398 0.139388
2180.67407 0.13951
2181.01392 0.139632
2181.35400 0.139753
2181.69409 0.139875
2182.03394 0.139997
2182.37402 0.140119
2182.71411 0.140241
2183.05493 0.140363
2183.39502 0.140485
2183.73511 0.140608
2184.07593 0.14073
2184.41602 0.140852
2184.75708 0.140975
2185.09692 0.141097
2185.43799 0.14122
2185.77905 0.141343
2186.12012 0.141466
2186.45996 0.141589
2186.80103 0.141711
2187.14209 0.141835
2187.48291 0.141958
2187.82397 0.142081
2188.16504 0.142204
2188.50708 0.142328
2188.84790 0.142451
2189.18896 0.142574
2189.53003 0.142698
2189.87207 0.142822
2190.21289 0.142945
2190.55396 0.143067
2190.89600 0.14319
2191.23804 0.143313
2191.57910 0.143436
2191.92090 0.143559
2192.26196 0.143682
2192.60400 0.143805
2192.94604 0.143928
2193.28809 0.144051
2193.62988 0.144175
2193.97192 0.144298
2194.31396 0.144422
2194.65601 0.144545
2194.99805 0.144669
2195.34106 0.144793
2195.68311 0.144917
2196.02490 0.14504
2196.36694 0.145165
2196.70996 0.145288
2197.05200 0.145413
2197.39502 0.145537
2197.73706 0.145661
2198.08008 0.145786
2198.42310 0.14591
2198.76489 0.146034
2199.10791 0.146159
2199.45093 0.146284
2199.79395 0.146408
2200.13696 0.146521
2200.47998 0.146616
2200.82300 0.14671
2201.16602 0.146804
2201.50903 0.146899
2201.85303 0.146993
2202.19604 0.147088
2202.53906 0.147183
2202.88306 0.147277
2203.22607 0.147372
2203.56909 0.147467
2203.91309 0.147561
2204.25708 0.147656
2204.60010 0.147751
2204.94409 0.147846
2205.28809 0.147941
2205.63208 0.148036
2205.97510 0.148131
2206.31909 0.148226
2206.66309 0.148321
2207.00708 0.148416
2207.35107 0.148511
2207.69604 0.148606
2208.04004 0.148701
2208.38403 0.148796
2208.72803 0.148892
2209.07300 0.148987
2209.41699 0.149082
2209.76099 0.149178
2210.10596 0.149274
2210.44995 0.149373
2210.79492 0.149472
2211.13989 0.149571
2211.48511 0.14967
2211.82910 0.149769
2212.17407 0.149868
2212.51904 0.149967
2212.86401 0.150067
2213.20898 0.150166
2213.55396 0.150265
2213.89893 0.150364
2214.24390 0.150464
2214.58911 0.150563
2214.93506 0.150663
2215.28003 0.150762
2215.62500 0.150862
2215.97095 0.150961
2216.31592 0.151061
2216.66211 0.15116
2217.00708 0.15126
2217.35303 0.15136
2217.69897 0.15146
2218.04395 0.151559
2218.38989 0.151659
2218.73608 0.151759
2219.08203 0.151859
2219.42798 0.151959
2219.77393 0.152059
2220.12012 0.152159
2220.46606 0.152257
2220.81201 0.152356
2221.15894 0.152455
2221.50488 0.152553
2221.85107 0.152652
2222.19800 0.152751
2222.54395 0.15285
2222.89111 0.152948
2223.23706 0.153047
2223.58398 0.153146
2223.92993 0.153245
2224.27710 0.153344
2224.62402 0.153443
2224.97095 0.153543
2225.31812 0.153642
2225.66504 0.153741
2226.01099 0.15384
2226.35889 0.153939
2226.70605 0.154039
2227.05298 0.154138
2227.39990 0.154237
2227.74707 0.154337
2228.09399 0.154436
2228.44189 0.154536
2228.78906 0.154635
2229.13696 0.154735
2229.48389 0.154835
2229.83203 0.154934
2230.17896 0.155018
2230.52710 0.155088
2230.87500 0.155158
2231.22290 0.155228
2231.57104 0.155298
2231.91797 0.155368
2232.26709 0.155438
2232.61499 0.155508
2232.96289 0.155578
2233.31104 0.155648
2233.65894 0.155718
2234.00708 0.155788
2234.35498 0.155858
2234.70410 0.155927
2235.05200 0.155997
2235.40088 0.156067
2235.74902 0.156137
2236.09790 0.156207
2236.44604 0.156277
2236.79492 0.156347
2237.14404 0.156417
2237.49194 0.156487
2237.84106 0.156557
2238.18994 0.156627
2238.53906 0.156697
2238.88794 0.156767
2239.23706 0.156837
2239.58594 0.156907
2239.93604 0.156977
2240.28491 0.157042
2240.63403 0.157105
2240.98291 0.157168
2241.33301 0.157231
2241.68188 0.157294
2242.03101 0.157358
2242.38110 0.157421
2242.73096 0.157484
2243.08008 0.157547
2243.42993 0.15761
2243.78003 0.157674
2244.12988 0.157737
2244.47900 0.1578
2244.82910 0.157863
2245.17896 0.157926
2245.52905 0.157989
2245.87891 0.158053
2246.22900 0.158116
2246.58008 0.158179
2246.92993 0.158242
2247.28003 0.158305
2247.63110 0.158368
2247.98096 0.158432
2248.33203 0.158495
2248.68188 0.158558
2249.03296 0.158621
2249.38306 0.158684
2249.73389 0.158747
2250.08496 0.158811
2250.43604 0.158878
2250.78589 0.158945
2251.13696 0.159011
2251.48804 0.159078
2251.83911 0.159145
2252.18994 0.159211
2252.54199 0.159278
2252.89307 0.159345
2253.24390 0.159411
2253.59497 0.159478
2253.94702 0.159545
2254.29810 0.159611
2254.64893 0.159678
2255.00098 0.159745
2255.35205 0.159811
2255.70410 0.159878
2256.05591 0.159945
2256.40698 0.160011
2256.75903 0.160078
2257.11108 0.160145
2257.46289 0.160211
2257.81494 0.160278
2258.16699 0.160345
2258.51904 0.160411
2258.87109 0.160478
2259.22290 0.160545
2259.57495 0.160611
2259.92798 0.160678
2260.28003 0.160744
2260.63208 0.160808
2260.98511 0.160873
2261.33691 0.160938
2261.68994 0.161003
2262.04199 0.161068
2262.39502 0.161133
2262.74805 0.161198
2263.10107 0.161263
2263.45288 0.161328
2263.80591 0.161393
2264.15894 0.161458
2264.51196 0.161523
2264.86499 0.161588
2265.21802 0.161653
2265.57202 0.161718
2265.92505 0.161782
2266.27808 0.161848
2266.63110 0.161912
2266.98511 0.161977
2267.33789 0.162042
2267.69189 0.162107
2268.04492 0.162172
2268.39893 0.162237
2268.75195 0.162302
2269.10596 0.162367
2269.45996 0.162432
2269.81396 0.162497
2270.16699 0.162561
2270.52100 0.162624
2270.87500 0.162687
2271.22900 0.16275
2271.58301 0.162814
2271.93799 0.162877
2272.29199 0.16294
2272.64600 0.163003
2273.00000 0.163067
2273.35498 0.16313
2273.70898 0.163193
2274.06396 0.163256
2274.41797 0.16332
2274.77295 0.163383
2275.12695 0.163446
2275.48193 0.163509
2275.83691 0.163572
2276.19189 0.163636
2276.54712 0.163699
2276.90210 0.163762
2277.25708 0.163825
2277.61206 0.163888
2277.96704 0.163951
2278.32202 0.164015
2278.67700 0.164078
2279.03198 0.164141
2279.38696 0.164204
2279.74292 0.164267
2280.09790 0.164328
2280.45410 0.164385
2280.80908 0.164441
2281.16504 0.164497
2281.52100 0.164553
2281.87598 0.164609
2282.23193 0.164665
2282.58789 0.164721
2282.94409 0.164777
2283.30005 0.164833
2283.65601 0.164889
2284.01099 0.164945
2284.36792 0.165001
2284.72412 0.165057
2285.08008 0.165113
2285.43604 0.165169
2285.79199 0.165225
2286.14893 0.165281
2286.50488 0.165337
2286.86206 0.165393
2287.21802 0.165449
2287.57495 0.165505
2287.93188 0.165561
2288.28809 0.165616
2288.64502 0.165672
2289.00195 0.165728
2289.35889 0.165784
2289.71606 0.16584
2290.07300 0.165897
2290.42993 0.165957
2290.78711 0.166017
2291.14404 0.166076
2291.50098 0.166136
2291.85791 0.166196
2292.21606 0.166256
2292.57300 0.166316
2292.92993 0.166376
2293.28809 0.166436
2293.64502 0.166495
2294.00293 0.166555
2294.36108 0.166615
2294.71802 0.166675
2295.07593 0.166735
2295.43408 0.166795
2295.79199 0.166854
2296.14990 0.166914
2296.50806 0.166974
2296.86597 0.167034
2297.22412 0.167094
2297.58203 0.167153
2297.93994 0.167213
2298.29810 0.167273
2298.65698 0.167333
2299.01489 0.167392
2299.37402 0.167452
2299.73193 0.167512
2300.09009 0.167565
2300.44897 0.167598
2300.80811 0.167631
2301.16602 0.167665
2301.52490 0.167698
2301.88403 0.167731
2302.24292 0.167764
2302.60205 0.167798
2302.96094 0.167831
2303.32007 0.167864
2303.67896 0.167898
2304.03809 0.167931
2304.39697 0.167964
2304.75708 0.167997
2305.11597 0.16803
2305.47510 0.168064
2305.83496 0.168097
2306.19409 0.16813
2306.55396 0.168164
2306.91309 0.168197
2307.27295 0.16823
2307.63306 0.168264
2307.99194 0.168297
2308.35205 0.16833
2308.71191 0.168363
2309.07202 0.168397
2309.43188 0.16843
2309.79199 0.168463
2310.15210 0.168496
2310.51196 0.168528
2310.87305 0.16856
2311.23291 0.168592
2311.59302 0.168624
2311.95410 0.168656
2312.31396 0.168688
2312.67407 0.16872
2313.03491 0.168752
2313.39600 0.168784
2313.75610 0.168816
2314.11694 0.168848
2314.47803 0.168879
2314.83911 0.168911
2315.19897 0.168943
2315.56006 0.168975
2315.92090 0.169007
2316.28198 0.169039
2316.64404 0.169071
2317.00488 0.169103
2317.36597 0.169135
2317.72705 0.169167
2318.08911 0.169199
2318.44995 0.169231
2318.81201 0.169263
2319.17310 0.169295
2319.53394 0.169327
2319.89600 0.169359
2320.25806 0.169386
2320.62012 0.169411
2320.98096 0.169436
2321.34302 0.169461
2321.70508 0.169486
2322.06689 0.169511
2322.42896 0.169536
2322.79102 0.169561
2323.15308 0.169586
2323.51489 0.169611
2323.87793 0.169636
2324.23999 0.169661
2324.60205 0.169686
2324.96509 0.169711
2325.32690 0.169736
2325.68994 0.169761
2326.05200 0.169786
2326.41504 0.169811
2326.77808 0.169836
2327.13989 0.169861
2327.50293 0.169886
2327.86597 0.169911
2328.22900 0.169935
2328.59204 0.16996
2328.95508 0.169986
2329.31812 0.17001
2329.68091 0.170035
2330.04395 0.170061
2330.40796 0.170091
2330.77100 0.17012
2331.13501 0.17015
2331.49805 0.170179
2331.86108 0.170209
2332.22510 0.170238
2332.58911 0.170268
2332.95190 0.170297
2333.31592 0.170327
2333.67993 0.170356
2334.04297 0.170386
2334.40698 0.170415
2334.77100 0.170445
2335.13501 0.170474
2335.49902 0.170504
2335.86401 0.170534
2336.22803 0.170563
2336.59204 0.170593
2336.95605 0.170622
2337.32104 0.170652
2337.68506 0.170681
2338.04907 0.170711
2338.41406 0.17074
2338.77808 0.17077
2339.14307 0.170799
2339.50806 0.170829
2339.87207 0.170858
2340.23706 0.170887
2340.60205 0.170916
2340.96704 0.170944
2341.33203 0.170973
2341.69702 0.171001
2342.06201 0.17103
2342.42700 0.171058
2342.79199 0.171087
2343.15796 0.171115
2343.52295 0.171143
2343.88794 0.171172
2344.25391 0.1712
2344.61890 0.171229
2344.98511 0.171257
2345.35010 0.171286
2345.71606 0.171314
2346.08203 0.171343
2346.44800 0.171371
2346.81299 0.1714
2347.17896 0.171428
2347.54492 0.171457
2347.91089 0.171485
2348.27710 0.171513
2348.64307 0.171542
2349.00903 0.17157
2349.37500 0.171599
2349.74194 0.171627
2350.10791 0.171655
2350.47510 0.171683
2350.84106 0.17171
2351.20801 0.171738
2351.57397 0.171765
2351.94092 0.171793
2352.30688 0.17182
2352.67407 0.171848
2353.04102 0.171875
2353.40796 0.171903
2353.77490 0.17193
2354.14209 0.171957
2354.50903 0.171985
2354.87598 0.172012
2355.24292 0.17204
2355.61011 0.172067
2355.97705 0.172095
2356.34399 0.172122
2356.71191 0.17215
2357.07910 0.172177
2357.44702 0.172204
2357.81396 0.172232
2358.18188 0.172259
2358.55005 0.172287
2358.91699 0.172314
2359.28491 0.172342
2359.65308 0.172369
2360.02100 0.172396
2360.38892 0.172417
2360.75708 0.172437
2361.12500 0.172458
2361.49292 0.172478
2361.86108 0.172499
2362.22900 0.172519
2362.59692 0.17254
2362.96606 0.172561
2363.33398 0.172581
2363.70288 0.172602
2364.07104 0.172622
2364.43994 0.172643
2364.80811 0.172663
2365.17700 0.172684
2365.54590 0.172704
2365.91504 0.172725
2366.28296 0.172745
2366.65210 0.172766
2367.02100 0.172786
2367.38989 0.172807
2367.75903 0.172827
2368.12793 0.172848
2368.49805 0.172868
2368.86694 0.172889
2369.23608 0.172909
2369.60596 0.17293
2369.97510 0.17295
2370.34399 0.172976
2370.71411 0.173001
2371.08398 0.173027
2371.45288 0.173052
2371.82300 0.173078
2372.19312 0.173103
2372.56299 0.173129
2372.93311 0.173154
2373.30200 0.17318
2373.67310 0.173205
2374.04199 0.173231
2374.41309 0.173256
2374.78296 0.173282
2375.15308 0.173307
2375.52295 0.173333
2375.89404 0.173358
2376.26392 0.173384
2376.63501 0.173409
2377.00488 0.173435
2377.37598 0.17346
2377.74609 0.173486
2378.11694 0.173511
2378.48804 0.173537
2378.85889 0.173562
2379.22900 0.173588
2379.60010 0.173613
2379.97095 0.173639
2380.34302 0.173664
2380.71411 0.173688
2381.08496 0.173713
2381.45605 0.173738
2381.82690 0.173762
2382.19800 0.173787
2382.57007 0.173812
2382.94092 0.173836
2383.31299 0.173861
2383.68506 0.173886
2384.05591 0.17391
2384.42798 0.173935
2384.80005 0.173959
2385.17090 0.173984
2385.54297 0.174009
2385.91504 0.174034
2386.28711 0.174058
2386.65894 0.174083
2387.03101 0.174107
2387.40308 0.174132
2387.77588 0.174157
2388.14795 0.174181
2388.52002 0.174206
2388.89307 0.174231
2389.26489 0.174255
2389.63696 0.17428
2390.01001 0.174304
2390.38306 0.174322
2390.75488 0.17434
2391.12793 0.174358
2391.50098 0.174376
2391.87402 0.174394
2392.24707 0.174412
2392.61890 0.174429
2392.99194 0.174447
2393.36499 0.174465
2393.73901 0.174483
2394.11206 0.174501
2394.48511 0.174519
2394.85791 0.174536
2395.23193 0.174554
2395.60498 0.174572
2395.97900 0.17459
2396.35205 0.174608
2396.72607 0.174625
2397.09912 0.174643
2397.47290 0.174661
2397.84692 0.174679
2398.22095 0.174697
2398.59497 0.174714
2398.96899 0.174732
2399.34302 0.17475
2399.71704 0.174768
2400.09106 0.174766
2400.46509 0.174705
2400.83911 0.174645
2401.21411 0.174584
2401.58789 0.174523
2401.96191 0.174462
2402.33691 0.174401
2402.71094 0.17434
2403.08594 0.174279
2403.45996 0.174218
2403.83496 0.174157
2404.20996 0.174096
2404.58496 0.174035
2404.95996 0.173974
2405.33496 0.173912
2405.70996 0.173851
2406.08496 0.17379
2406.45996 0.173729
2406.83496 0.173668
2407.20996 0.173607
2407.58496 0.173546
2407.96094 0.173485
2408.33594 0.173423
2408.71191 0.173362
2409.08691 0.173301
2409.46289 0.17324
2409.83911 0.173178
2410.21411 0.173117
2410.59009 0.173055
2410.96606 0.172993
2411.34204 0.172931
2411.71802 0.172869
2412.09399 0.172807
2412.46997 0.172745
2412.84595 0.172683
2413.22192 0.172622
2413.59790 0.17256
2413.97412 0.172498
2414.35107 0.172435
2414.72705 0.172374
2415.10400 0.172311
2415.47998 0.172249
2415.85693 0.172187
2416.23291 0.172125
2416.61011 0.172063
2416.98706 0.172001
2417.36401 0.171939
2417.73999 0.171877
2418.11694 0.171815
2418.49390 0.171753
2418.87207 0.17169
2419.24902 0.171628
2419.62598 0.171566
2420.00293 0.171504
2420.37988 0.171441
2420.75806 0.171378
2421.13501 0.171316
2421.51196 0.171253
2421.88989 0.17119
2422.26807 0.171127
2422.64502 0.171065
2423.02295 0.171002
2423.40088 0.170939
2423.77905 0.170876
2424.15601 0.170813
2424.53394 0.17075
2424.91211 0.170687
2425.29004 0.170625
2425.66797 0.170562
2426.04712 0.170499
2426.42505 0.170436
2426.80298 0.170373
2427.18091 0.17031
2427.56006 0.170247
2427.93799 0.170184
2428.31689 0.170121
2428.69604 0.170058
2429.07397 0.169995
2429.45288 0.169932
2429.83203 0.169869
2430.20996 0.169797
2430.58911 0.169719
2430.96802 0.16964
2431.34692 0.169562
2431.72607 0.169483
2432.10498 0.169405
2432.48511 0.169326
2432.86401 0.169247
2433.24292 0.169169
2433.62207 0.16909
2434.00195 0.169012
2434.38110 0.168933
2434.76099 0.168855
2435.13989 0.168776
2435.52002 0.168698
2435.89990 0.168619
2436.28003 0.168541
2436.65894 0.168462
2437.03906 0.168383
2437.41895 0.168305
2437.79907 0.168226
2438.17896 0.168148
2438.55908 0.168069
2438.93896 0.16799
2439.32007 0.167912
2439.69995 0.167833
2440.08008 0.167756
2440.46094 0.167683
2440.84106 0.16761
2441.22192 0.167537
2441.60205 0.167464
2441.98291 0.167391
2442.36401 0.167318
2442.74512 0.167245
2443.12500 0.167172
2443.50610 0.167099
2443.88696 0.167026
2444.26807 0.166953
2444.64893 0.166879
2445.03101 0.166806
2445.41211 0.166733
2445.79297 0.16666
2446.17407 0.166587
2446.55493 0.166514
2446.93701 0.166441
2447.31812 0.166368
2447.69995 0.166295
2448.08203 0.166222
2448.46289 0.166149
2448.84497 0.166075
2449.22705 0.166002
2449.60889 0.165929
2449.98999 0.165856
2450.37305 0.165782
2450.75391 0.165709
2451.13599 0.165636
2451.51904 0.165562
2451.90088 0.165489
2452.28296 0.165415
2452.66602 0.165342
2453.04810 0.165268
2453.42993 0.165195
2453.81299 0.165121
2454.19507 0.165048
2454.57788 0.164974
2454.96094 0.164901
2455.34302 0.164827
2455.72607 0.164754
2456.10889 0.16468
2456.49194 0.164607
2456.87500 0.164533
2457.25806 0.16446
2457.64111 0.164386
2458.02393 0.164313
2458.40698 0.164239
2458.79102 0.164165
2459.17407 0.164092
2459.55688 0.164018
2459.94092 0.163945
2460.32397 0.163866
2460.70801 0.163787
2461.09204 0.163707
2461.47510 0.163628
2461.85889 0.163548
2462.24292 0.163468
2462.62695 0.163389
2463.01001 0.163309
2463.39502 0.16323
2463.77905 0.16315
2464.16309 0.16307
2464.54712 0.162991
2464.93091 0.162911
2465.31494 0.162832
2465.69995 0.162752
2466.08398 0.162672
2466.46899 0.162593
2466.85303 0.162513
2467.23804 0.162434
2467.62305 0.162354
2468.00708 0.162274
2468.39209 0.162195
2468.77710 0.162115
2469.16211 0.162036
2469.54712 0.161956
2469.93188 0.161876
2470.31689 0.161801
2470.70190 0.161727
2471.08691 0.161654
2471.47192 0.16158
2471.85791 0.161506
2472.24292 0.161432
2472.62793 0.161358
2473.01392 0.161284
2473.39893 0.16121
2473.78491 0.161136
2474.17090 0.161062
2474.55591 0.160988
2474.94189 0.160914
2475.32788 0.16084
2475.71411 0.160766
2476.10010 0.160692
2476.48608 0.160618
2476.87207 0.160544
2477.25806 0.16047
2477.64404 0.160396
2478.03101 0.160322
2478.41699 0.160247
2478.80298 0.160173
2479.18994 0.160099
2479.57593 0.160025
2479.96289 0.159951
2480.35010 0.159877
2480.73608 0.159803
2481.12305 0.159729
2481.51001 0.159655
2481.89697 0.15958
2482.28394 0.159506
2482.67090 0.159432
2483.05811 0.159358
2483.44507 0.159284
2483.83203 0.15921
2484.21899 0.159136
2484.60596 0.159061
2484.99390 0.158987
2485.38110 0.158913
2485.76904 0.158839
2486.15601 0.158765
2486.54395 0.158691
2486.93188 0.158616
2487.31909 0.158542
2487.70703 0.158468
2488.09497 0.158394
2488.48291 0.158319
2488.87109 0.158245
2489.25903 0.158171
2489.64697 0.158097
2490.03491 0.158022
2490.42310 0.157942
2490.81201 0.157862
2491.19995 0.157782
2491.58789 0.157702
2491.97705 0.157623
2492.36499 0.157543
2492.75391 0.157463
2493.14209 0.157383
2493.53101 0.157303
2493.91992 0.157223
2494.30908 0.157143
2494.69800 0.157063
2495.08594 0.156984
2495.47510 0.156904
2495.86499 0.156824
2496.25293 0.156744
2496.64307 0.156664
2497.03198 0.156584
2497.42090 0.156504
2497.81104 0.156424
2498.19995 0.156344
2498.58911 0.156265
2498.97900 0.156185
2499.36890 0.156105
2499.75806 0.156025
2500.14795 0.155937
2500.53809 0.155837
2500.92700 0.155738
2501.31812 0.155638
2501.70801 0.155538
2502.09692 0.155438
2502.48804 0.155338
2502.87793 0.155238
2503.26807 0.155138
2503.65796 0.155038
2504.04907 0.154938
2504.43896 0.154838
2504.82910 0.154739
2505.21997 0.154639
2505.61011 0.154539
2506.00098 0.154439
2506.39209 0.154339
2506.78198 0.154239
2507.17310 0.154139
2507.56396 0.154039
2507.95508 0.15394
2508.34595 0.15384
2508.73706 0.15374
2509.12793 0.15364
2509.52002 0.15354
2509.91089 0.15344
2510.30200 0.15334
2510.69312 0.153241
2511.08496 0.153141
2511.47607 0.153041
2511.86792 0.152942
2512.26001 0.152842
2512.65088 0.152742
2513.04297 0.152642
2513.43506 0.152543
2513.82593 0.152443
2514.21899 0.152343
2514.61011 0.152244
2515.00195 0.152144
2515.39502 0.152044
2515.78711 0.151945
2516.17896 0.151845
2516.57104 0.151745
2516.96411 0.151646
2517.35596 0.151546
2517.74805 0.151446
2518.14111 0.151346
2518.53296 0.151247
2518.92603 0.151147
2519.31909 0.151048
2519.71191 0.150948
2520.10400 0.150847
2520.49707 0.150742
2520.88989 0.150637
2521.28296 0.150532
2521.67603 0.150427
2522.07007 0.150322
2522.46289 0.150217
2522.85596 0.150112
2523.24902 0.150007
2523.64307 0.149902
2524.03589 0.149797
2524.42993 0.149693
2524.82300 0.149588
2525.21704 0.149483
2525.61108 0.149378
2526.00391 0.149273
2526.39795 0.149168
2526.79199 0.149063
2527.18604 0.148958
2527.58008 0.148854
2527.97412 0.148749
2528.36792 0.148644
2528.76196 0.148539
2529.15601 0.148434
2529.55103 0.14833
2529.94507 0.148225
2530.34009 0.148125
2530.73389 0.148026
2531.12891 0.147926
2531.52295 0.147827
2531.91797 0.147728
2532.31201 0.147629
2532.70703 0.14753
2533.10205 0.14743
2533.49707 0.147331
2533.89209 0.147232
2534.28711 0.147133
2534.68188 0.147033
2535.07690 0.146934
2535.47290 0.146835
2535.86792 0.146736
2536.26294 0.146637
2536.65894 0.146537
2537.05396 0.146438
2537.44995 0.146339
2537.84497 0.14624
2538.24097 0.146141
2538.63696 0.146041
2539.03198 0.145942
2539.42798 0.145843
2539.82397 0.145744
2540.21997 0.145645
2540.61597 0.145546
2541.01196 0.145447
2541.40796 0.145347
2541.80493 0.145248
2542.20093 0.145149
2542.59692 0.14505
2542.99390 0.144951
2543.38989 0.144852
2543.78711 0.144753
2544.18311 0.144654
2544.58008 0.144555
2544.97705 0.144456
2545.37305 0.144357
2545.77002 0.144258
2546.16699 0.144159
2546.56396 0.14406
2546.96094 0.143961
2547.35791 0.143862
2547.75488 0.143763
2548.15308 0.143664
2548.55005 0.143565
2548.94702 0.143466
2549.34399 0.143367
2549.74194 0.143268
2550.13892 0.143167
2550.53711 0.143063
2550.93506 0.142958
2551.33203 0.142854
2551.72998 0.14275
2552.12793 0.142646
2552.52588 0.142542
2552.92407 0.142438
2553.32202 0.142334
2553.71997 0.14223
2554.11792 0.142126
2554.51611 0.142022
2554.91406 0.141918
2555.31299 0.141813
2555.71094 0.141709
2556.11011 0.141605
2556.50806 0.141501
2556.90698 0.141397
2557.30493 0.141293
2557.70410 0.141189
2558.10303 0.141085
2558.50098 0.140981
2558.89990 0.140877
2559.29907 0.140773
2559.69800 0.14067
2560.09692 0.140567
2560.49707 0.140468
2560.89600 0.140369
2561.29492 0.140271
2561.69409 0.140172
2562.09399 0.140073
2562.49292 0.139975
2562.89307 0.139876
2563.29199 0.139777
2563.69189 0.139679
2564.09204 0.13958
2564.49097 0.139482
2564.89111 0.139383
2565.29102 0.139284
2565.69092 0.139185
2566.09106 0.139087
2566.49097 0.138988
2566.89111 0.13889
2567.29102 0.138791
2567.69092 0.138692
2568.09204 0.138594
2568.49194 0.138495
2568.89307 0.138397
2569.29297 0.138298
2569.69409 0.138199
2570.09399 0.138101
2570.49512 0.138002
2570.89600 0.137904
2571.29590 0.137805
2571.69702 0.137707
2572.09790 0.137608
2572.49902 0.13751
2572.89990 0.137411
2573.30200 0.137312
2573.70288 0.137214
2574.10400 0.137115
2574.50488 0.137017
2574.90601 0.136918
2575.30811 0.13682
2575.70898 0.136721
2576.11108 0.136623
2576.51294 0.136524
2576.91406 0.136426
2577.31592 0.136327
2577.71802 0.136229
2578.12012 0.13613
2578.52197 0.136032
2578.92407 0.135933
2579.32593 0.135835
2579.72803 0.135737
2580.12988 0.135636
2580.53198 0.135533
2580.93506 0.13543
2581.33691 0.135326
2581.73999 0.135223
2582.14209 0.13512
2582.54395 0.135017
2582.94702 0.134913
2583.35010 0.13481
2583.75293 0.134707
2584.15601 0.134603
2584.55811 0.1345
2584.96094 0.134397
2585.36401 0.134294
2585.76709 0.13419
2586.16992 0.134087
2586.57397 0.133984
2586.97705 0.133881
2587.37988 0.133777
2587.78394 0.133674
2588.18701 0.133571
2588.59106 0.133468
2588.99390 0.133365
2589.39795 0.133262
2589.80200 0.133158
2590.20508 0.133058
2590.60889 0.13296
2591.01294 0.132862
2591.41699 0.132764
2591.82104 0.132665
2592.22510 0.132567
2592.62891 0.132469
2593.03296 0.132371
2593.43701 0.132273
2593.84204 0.132175
2594.24609 0.132077
2594.65088 0.131979
2595.05493 0.131881
2595.45996 0.131783
2595.86499 0.131685
2596.26904 0.131587
2596.67407 0.131489
2597.07910 0.13139
2597.48389 0.131292
2597.88794 0.131194
2598.29297 0.131096
2598.69897 0.130998
2599.10400 0.1309
2599.50903 0.130802
2599.91406 0.130704
2600.32007 0.130603
2600.72510 0.130501
2601.12988 0.1304
2601.53589 0.130298
2601.94189 0.130196
2602.34692 0.130094
2602.75293 0.129993
2603.15894 0.129891
2603.56396 0.129789
2603.96997 0.129687
2604.37598 0.129585
2604.78198 0.129484
2605.18799 0.129382
2605.59497 0.12928
2606.00098 0.129178
2606.40698 0.129077
2606.81299 0.128975
2607.21997 0.128873
2607.62598 0.128771
2608.03296 0.12867
2608.43896 0.128568
2608.84595 0.128466
2609.25293 0.128364
2609.65991 0.128263
2610.06689 0.12816
2610.47412 0.128053
2610.87988 0.127947
2611.28809 0.12784
2611.69507 0.127734
2612.10205 0.127628
2612.50903 0.127521
2612.91602 0.127415
2613.32397 0.127308
2613.73096 0.127202
2614.13892 0.127096
2614.54590 0.126989
2614.95410 0.126883
2615.36206 0.126776
2615.76904 0.12667
2616.17700 0.126564
2616.58496 0.126457
2616.99292 0.126351
2617.40088 0.126244
2617.80908 0.126138
2618.21704 0.126032
2618.62500 0.125925
2619.03296 0.125819
2619.44189 0.125713
2619.85010 0.125606
2620.25903 0.125503
2620.66699 0.125402
2621.07593 0.1253
2621.48389 0.125199
2621.89307 0.125097
2622.30200 0.124996
2622.70996 0.124894
2623.11890 0.124793
2623.52808 0.124691
2623.93799 0.124589
2624.34595 0.124488
2624.75610 0.124386
2625.16504 0.124285
2625.57397 0.124183
2625.98291 0.124082
2626.39307 0.12398
2626.80200 0.123879
2627.21191 0.123777
2627.62109 0.123676
2628.03101 0.123574
2628.44092 0.123473
2628.85107 0.123371
2629.26001 0.12327
2629.66992 0.123168
2630.08008 0.123067
2630.48999 0.122968
2630.89990 0.122869
2631.31104 0.12277
2631.72095 0.12267
2632.13110 0.122571
2632.54199 0.122472
2632.95190 0.122373
2633.36206 0.122274
2633.77295 0.122175
2634.18408 0.122076
2634.59399 0.121976
2635.00488 0.121877
2635.41602 0.121778
2635.82690 0.121679
2636.23804 0.12158
2636.64893 0.121481
2637.06006 0.121381
2637.47095 0.121282
2637.88208 0.121183
2638.29297 0.121084
2638.70508 0.120984
2639.11597 0.120885
2639.52710 0.120786
2639.93896 0.120687
2640.35010 0.120584
2640.76196 0.12048
2641.17407 0.120376
2641.58496 0.120273
2641.99707 0.120169
2642.40894 0.120066
2642.82104 0.119962
2643.23291 0.119858
2643.64502 0.119755
2644.05688 0.119651
2644.46997 0.119547
2644.88208 0.119444
2645.29395 0.11934
2645.70703 0.119236
2646.11890 0.119133
2646.53198 0.119029
2646.94409 0.118926
2647.35693 0.118822
2647.77002 0.118718
2648.18311 0.118615
2648.59497 0.118511
2649.00806 0.118407
2649.42090 0.118304
2649.83398 0.1182
2650.24805 0.118099
2650.66089 0.118
2651.07397 0.117901
2651.48706 0.117802
2651.90088 0.117703
2652.31396 0.117604
2652.72803 0.117505
2653.14111 0.117406
2653.55493 0.117307
2653.96899 0.117208
2654.38208 0.117109
2654.79590 0.11701
2655.20996 0.11691
2655.62402 0.116811
2656.03809 0.116712
2656.45190 0.116613
2656.86597 0.116514
2657.28003 0.116415
2657.69507 0.116316
2658.10889 0.116217
2658.52295 0.116117
2658.93799 0.116018
2659.35205 0.115919
2659.76709 0.11582
2660.18188 0.115721
2660.59595 0.115622
2661.01099 0.115523
2661.42603 0.115423
2661.84106 0.115324
2662.25610 0.115225
2662.67090 0.115126
2663.08594 0.115027
2663.50098 0.114928
2663.91699 0.114829
2664.33203 0.11473
2664.74707 0.114631
2665.16309 0.114531
2665.57788 0.114432
2665.99390 0.114333
2666.40894 0.114234
2666.82495 0.114135
2667.24097 0.114036
2667.65698 0.113937
2668.07300 0.113837
2668.48901 0.113738
2668.90503 0.113639
2669.32104 0.11354
2669.73706 0.113441
2670.15308 0.11334
2670.56909 0.113237
2670.98608 0.113133
2671.40210 0.11303
2671.81909 0.112926
2672.23511 0.112823
2672.65210 0.11272
2673.06812 0.112616
2673.48511 0.112513
2673.90210 0.11241
2674.31909 0.112306
2674.73608 0.112203
2675.15308 0.1121
2675.57007 0.111996
2675.98706 0.111893
2676.40405 0.111789
2676.82104 0.111686
2677.23901 0.111583
2677.65601 0.111479
2678.07300 0.111376
2678.49097 0.111273
2678.90894 0.111169
2679.32593 0.111066
2679.74390 0.110963
2680.16211 0.110861
2680.58008 0.110762
2680.99805 0.110663
2681.41602 0.110564
2681.83301 0.110465
2682.25195 0.110366
2682.66992 0.110267
2683.08789 0.110168
2683.50610 0.110069
2683.92505 0.10997
2684.34302 0.109871
2684.76196 0.109772
2685.17993 0.109673
2685.59912 0.109573
2686.01807 0.109474
2686.43604 0.109375
2686.85498 0.109276
2687.27393 0.109177
2687.69312 0.109078
2688.11206 0.108979
2688.53101 0.10888
2688.94995 0.108781
2689.36890 0.108682
2689.78906 0.108583
2690.20801 0.108484
2690.62695 0.108385
2691.04712 0.108286
2691.46704 0.108186
2691.88599 0.108087
2692.30591 0.107988
2692.72510 0.107889
2693.14502 0.10779
2693.56494 0.107691
2693.98511 0.107592
2694.40503 0.107493
2694.82495 0.107394
2695.24512 0.107295
2695.66602 0.107196
2696.08594 0.107097
2696.50610 0.106998
2696.92700 0.106899
2697.34692 0.1068
2697.76709 0.1067
2698.18799 0.106601
2698.60889 0.106502
2699.02905 0.106403
2699.44995 0.106304
2699.87109 0.106205
2700.29199 0.106147
2700.71289 0.106107
2701.13403 0.106067
2701.55493 0.106028
2701.97607 0.105988
2702.39697 0.105948
2702.81909 0.105908
2703.23999 0.105869
2703.66211 0.105829
2704.08301 0.105789
2704.50488 0.105749
2704.92603 0.10571
2705.34790 0.10567
2705.77002 0.10563
2706.19189 0.10559
2706.61401 0.105551
2707.03589 0.105511
2707.45801 0.105471
2707.87988 0.105431
2708.30200 0.105391
2708.72412 0.105352
2709.14600 0.105312
2709.56909 0.105272
2709.99097 0.105232
2710.41406 0.105196
2710.83594 0.105161
2711.25903 0.105125
2711.68188 0.105089
2712.10400 0.105054
2712.52710 0.105018
2712.94995 0.104982
2713.37305 0.104946
2713.79590 0.104911
2714.21899 0.104875
2714.64209 0.104839
2715.06494 0.104803
2715.48901 0.104768
2715.91211 0.104732
2716.33496 0.104696
2716.75903 0.10466
2717.18311 0.104625
2717.60596 0.104589
2718.03003 0.104553
2718.45410 0.104517
2718.87695 0.104481
2719.30103 0.104446
2719.72510 0.10441
2720.14893 0.104374
2720.57300 0.104338
2720.99805 0.104302
2721.42212 0.104267
2721.84595 0.104231
2722.27002 0.104195
2722.69507 0.104159
2723.11890 0.104123
2723.54395 0.104088
2723.96802 0.104052
2724.39307 0.104016
2724.81812 0.10398
2725.24292 0.103944
2725.66699 0.103909
2726.09204 0.103873
2726.51709 0.103837
2726.94189 0.103801
2727.36792 0.103765
2727.79297 0.103729
2728.21802 0.103693
2728.64307 0.103657
2729.06909 0.103622
2729.49390 0.103586
2729.91992 0.10355
2730.34497 0.103511
2730.77100 0.103471
2731.19702 0.103431
2731.62305 0.103391
2732.04907 0.103351
2732.47412 0.103311
2732.89990 0.103272
2733.32593 0.103232
2733.75293 0.103192
2734.17896 0.103152
2734.60498 0.103112
2735.03101 0.103072
2735.45801 0.103032
2735.88403 0.102992
2736.31104 0.102953
2736.73706 0.102913
2737.16406 0.102873
2737.59106 0.102833
2738.01807 0.102793
2738.44507 0.102753
2738.87109 0.102713
2739.29810 0.102673
2739.72510 0.102633
2740.15308 0.102595
2740.58008 0.102559
2741.00708 0.102523
2741.43408 0.102487
2741.86206 0.102451
2742.28906 0.102415
2742.71704 0.102379
2743.14404 0.102344
2743.57202 0.102308
2744.00000 0.102272
2744.42700 0.102236
2744.85498 0.1022
2745.28296 0.102164
2745.71094 0.102128
2746.13892 0.102092
2746.56812 0.102056
2746.99609 0.10202
2747.42407 0.101984
2747.85205 0.101948
2748.28101 0.101912
2748.70898 0.101876
2749.13794 0.10184
2749.56592 0.101805
2749.99512 0.101768
2750.42407 0.101729
2750.85303 0.101689
2751.28101 0.101649
2751.70996 0.101609
2752.13892 0.101569
2752.56812 0.101529
2752.99805 0.101489
2753.42700 0.101449
2753.85596 0.101409
2754.28491 0.101369
2754.71509 0.101329
2755.14404 0.10129
2755.57397 0.10125
2756.00293 0.10121
2756.43311 0.10117
2756.86304 0.10113
2757.29199 0.10109
2757.72192 0.10105
2758.15210 0.10101
2758.58203 0.10097
2759.01196 0.10093
2759.44312 0.10089
2759.87305 0.10085
2760.30298 0.100813
2760.73291 0.100777
2761.16406 0.100741
2761.59399 0.100705
2762.02490 0.100669
2762.45508 0.100633
2762.88599 0.100597
2763.31689 0.100561
2763.74805 0.100525
2764.17798 0.100489
2764.60889 0.100453
2765.04102 0.100417
2765.47095 0.100381
2765.90308 0.100345
2766.33398 0.100309
2766.76489 0.100273
2767.19702 0.100237
2767.62793 0.100201
2768.05908 0.100165
2768.49097 0.100129
2768.92310 0.100093
2769.35400 0.100056
2769.78589 0.10002
2770.21802 0.099984
2770.64990 0.099948
2771.08203 0.099912
2771.51392 0.099876
2771.94604 0.09984
2772.37793 0.099804
2772.81006 0.099768
2773.24194 0.099732
2773.67505 0.099696
2774.10693 0.09966
2774.54004 0.099624
2774.97192 0.099587
2775.40503 0.099551
2775.83789 0.099515
2776.27002 0.099479
2776.70288 0.099443
2777.13599 0.099407
2777.56909 0.099371
2778.00195 0.099335
2778.43506 0.099298
2778.86792 0.099262
2779.30200 0.099226
2779.73511 0.09919
2780.16797 0.099152
2780.60205 0.099112
2781.03491 0.099072
2781.46899 0.099032
2781.90210 0.098992
2782.33594 0.098952
2782.77002 0.098912
2783.20410 0.098872
2783.63794 0.098832
2784.07202 0.098792
2784.50610 0.098752
2784.93994 0.098712
2785.37402 0.098672
2785.80811 0.098632
2786.24194 0.098592
2786.67700 0.098551
2787.11108 0.098511
2787.54590 0.098471
2787.97998 0.098431
2788.41504 0.098391
2788.85010 0.098351
2789.28491 0.098311
2789.71899 0.098271
2790.15405 0.098232
2790.58911 0.098196
2791.02393 0.09816
2791.45898 0.098124
2791.89502 0.098087
2792.33008 0.098051
2792.76489 0.098015
2793.20093 0.097979
2793.63599 0.097943
2794.07202 0.097906
2794.50708 0.09787
2794.94312 0.097834
2795.37891 0.097798
2795.81396 0.097762
2796.25000 0.097725
2796.68604 0.097689
2797.12207 0.097653
2797.55811 0.097617
2797.99512 0.09758
2798.43091 0.097544
2798.86694 0.097508
2799.30298 0.097472
2799.73999 0.097435
2800.17603 0.097415
2800.61304 0.097419
2801.05005 0.097423
2801.48608 0.097427
2801.92310 0.097431
2802.36011 0.097435
2802.79712 0.097439
2803.23389 0.097442
2803.67090 0.097446
2804.10791 0.09745
2804.54492 0.097454
2804.98193 0.097458
2805.41895 0.097462
2805.85693 0.097466
2806.29395 0.09747
2806.73193 0.097473
2807.16895 0.097477
2807.60693 0.097481
2808.04492 0.097485
2808.48291 0.097489
2808.91992 0.097493
2809.35791 0.097496
2809.79590 0.0975
2810.23389 0.097502
2810.67310 0.097502
2811.11108 0.097502
2811.54907 0.097502
2811.98706 0.097502
2812.42603 0.097502
2812.86401 0.097502
2813.30298 0.097501
2813.74097 0.097501
2814.17993 0.097501
2814.61890 0.097501
2815.05811 0.097501
2815.49609 0.097501
2815.93506 0.097501
2816.37402 0.097501
2816.81299 0.097501
2817.25195 0.0975
2817.69189 0.0975
2818.13110 0.0975
2818.57007 0.0975
2819.01001 0.0975
2819.44897 0.0975
2819.88892 0.0975
2820.32910 0.097502
2820.76807 0.097506
2821.20801 0.09751
2821.64795 0.097513
2822.08789 0.097517
2822.52808 0.097521
2822.96802 0.097524
2823.40796 0.097528
2823.84790 0.097532
2824.28809 0.097535
2824.72900 0.097539
2825.16895 0.097543
2825.60889 0.097546
2826.05005 0.09755
2826.48999 0.097554
2826.93091 0.097557
2827.37207 0.097561
2827.81299 0.097565
2828.25391 0.097568
2828.69507 0.097572
2829.13501 0.097575
2829.57690 0.097579
2830.01807 0.097582
2830.45898 0.097577
2830.89990 0.097573
2831.34204 0.097568
2831.78296 0.097563
2832.22412 0.097558
2832.66602 0.097553
2833.10791 0.097548
2833.54907 0.097543
2833.99097 0.097538
2834.43311 0.097534
2834.87500 0.097529
2835.31689 0.097524
2835.75903 0.097519
2836.20093 0.097514
2836.64307 0.097509
2837.08496 0.097504
2837.52808 0.097499
2837.96997 0.097494
2838.41211 0.097489
2838.85498 0.097484
2839.29810 0.097479
2839.73999 0.097474
2840.18311 0.097471
2840.62598 0.09747
2841.06909 0.097469
2841.51099 0.097468
2841.95508 0.097467
2842.39697 0.097466
2842.84106 0.097464
2843.28394 0.097463
2843.72705 0.097462
2844.16992 0.097461
2844.61401 0.09746
2845.05688 0.097459
2845.50098 0.097458
2845.94507 0.097456
2846.38794 0.097455
2846.83203 0.097454
2847.27588 0.097453
2847.71997 0.097452
2848.16406 0.097451
2848.60791 0.097449
2849.05200 0.097448
2849.49609 0.097447
2849.93994 0.097446
2850.38501 0.097445
2850.82910 0.097443
2851.27295 0.097442
2851.71802 0.097441
2852.16309 0.09744
2852.60693 0.097438
2853.05200 0.097437
2853.49707 0.097436
2853.94189 0.097435
2854.38599 0.097433
2854.83203 0.097432
2855.27710 0.097431
2855.72192 0.09743
2856.16699 0.097428
2856.61206 0.097427
2857.05811 0.097426
2857.50293 0.097424
2857.94800 0.097423
2858.39404 0.097422
2858.84009 0.097421
2859.28491 0.097419
2859.73096 0.097418
2860.17700 0.097415
2860.62305 0.09741
2861.06909 0.097404
2861.51489 0.097399
2861.96094 0.097394
2862.40698 0.097388
2862.85400 0.097383
2863.30005 0.097378
2863.74609 0.097372
2864.19312 0.097367
2864.63892 0.097362
2865.08594 0.097356
2865.53198 0.097351
2865.97900 0.097346
2866.42603 0.09734
2866.87305 0.097335
2867.32007 0.09733
2867.76709 0.097324
2868.21411 0.097319
2868.66089 0.097313
2869.10791 0.097308
2869.55591 0.097303
2870.00293 0.097297
2870.45093 0.097296
2870.89795 0.097294
2871.34595 0.097293
2871.79297 0.097291
2872.24097 0.09729
2872.68896 0.097288
2873.13696 0.097286
2873.58496 0.097285
2874.03296 0.097283
2874.48096 0.097282
2874.92896 0.09728
2875.37695 0.097279
2875.82495 0.097277
2876.27393 0.097276
2876.72192 0.097274
2877.17090 0.097272
2877.61890 0.097271
2878.06812 0.097269
2878.51611 0.097267
2878.96509 0.097266
2879.41406 0.097264
2879.86304 0.097263
2880.31201 0.097258
2880.76099 0.097253
2881.20996 0.097247
2881.65894 0.097241
2882.10889 0.097236
2882.55811 0.09723
2883.00708 0.097224
2883.45703 0.097219
2883.90601 0.097213
2884.35596 0.097207
2884.80591 0.097202
2885.25488 0.097196
2885.70508 0.09719
2886.15503 0.097185
2886.60498 0.097179
2887.05493 0.097173
2887.50488 0.097168
2887.95508 0.097162
2888.40601 0.097156
2888.85596 0.09715
2889.30591 0.097145
2889.75708 0.097139
2890.20703 0.097135
2890.65796 0.097133
2891.10791 0.097131
2891.55908 0.09713
2892.01001 0.097128
2892.46094 0.097126
2892.91211 0.097124
2893.36304 0.097122
2893.81396 0.09712
2894.26489 0.097118
2894.71606 0.097117
2895.16699 0.097115
2895.61890 0.097113
2896.07007 0.097111
2896.52197 0.097109
2896.97290 0.097107
2897.42505 0.097105
2897.87695 0.097103
2898.32910 0.097101
2898.78101 0.0971
2899.23193 0.097098
2899.68408 0.097096
2900.13599 0.097095
2900.58911 0.097097
2901.04102 0.097098
2901.49292 0.0971
2901.94604 0.097101
2902.39795 0.097103
2902.85010 0.097105
2903.30298 0.097106
2903.75610 0.097108
2904.20801 0.097109
2904.66089 0.097111
2905.11401 0.097112
2905.56689 0.097114
2906.02002 0.097115
2906.47290 0.097116
2906.92603 0.097118
2907.37891 0.097119
2907.83301 0.09712
2908.28589 0.097122
2908.73901 0.097123
2909.19312 0.097124
2909.64600 0.097125
2910.10010 0.097126
2910.55298 0.097123
2911.00708 0.09712
2911.46094 0.097117
2911.91504 0.097115
2912.36890 0.097112
2912.82300 0.097109
2913.27710 0.097106
2913.73096 0.097103
2914.18604 0.0971
2914.63989 0.097097
2915.09399 0.097094
2915.54907 0.097091
2916.00293 0.097088
2916.45801 0.097085
2916.91309 0.097081
2917.36694 0.097078
2917.82202 0.097075
2918.27710 0.097072
2918.73193 0.097069
2919.18701 0.097066
2919.64209 0.097062
2920.09692 0.09706
2920.55298 0.097061
2921.00806 0.097061
2921.46289 0.097062
2921.91895 0.097062
2922.37500 0.097063
2922.83008 0.097063
2923.28589 0.097064
2923.74097 0.097064
2924.19702 0.097065
2924.65308 0.097065
2925.10889 0.097066
2925.56494 0.097066
2926.02100 0.097066
2926.47705 0.097067
2926.93408 0.097067
2927.38989 0.097067
2927.84595 0.097068
2928.30298 0.097068
2928.75903 0.097068
2929.21606 0.097068
2929.67310 0.097069
2930.12891 0.097068
2930.58594 0.097064
2931.04297 0.09706
2931.50000 0.097056
2931.95703 0.097052
2932.41406 0.097048
2932.87109 0.097044
2933.32910 0.09704
2933.78589 0.097036
2934.24292 0.097032
2934.70093 0.097028
2935.15796 0.097023
2935.61597 0.097019
2936.07300 0.097015
2936.53101 0.097011
2936.98901 0.097007
2937.44702 0.097002
2937.90503 0.096998
2938.36304 0.096994
2938.82104 0.09699
2939.27905 0.096985
2939.73804 0.096981
2940.19604 0.096978
2940.65405 0.096978
2941.11304 0.096977
2941.57104 0.096977
2942.03003 0.096976
2942.48901 0.096976
2942.94702 0.096975
2943.40601 0.096975
2943.86499 0.096974
2944.32397 0.096973
2944.78296 0.096973
2945.24194 0.096972
2945.70093 0.096971
2946.15991 0.096971
2946.62012 0.09697
2947.07910 0.096969
2947.53906 0.096968
2947.99805 0.096967
2948.45801 0.096967
2948.91699 0.096966
2949.37695 0.096965
2949.83691 0.096964
2950.29712 0.096963
2950.75708 0.096962
2951.21704 0.096961
2951.67700 0.09696
2952.13696 0.096959
2952.59692 0.096958
2953.05811 0.096957
2953.51807 0.096955
2953.97900 0.096954
2954.43896 0.096953
2954.89990 0.096952
2955.36011 0.096951
2955.82104 0.096949
2956.28198 0.096948
2956.74292 0.096947
2957.20410 0.096945
2957.66504 0.096944
2958.12598 0.096943
2958.58691 0.096941
2959.04810 0.09694
2959.51001 0.096938
2959.97095 0.096937
2960.43188 0.096931
2960.89404 0.096926
2961.35596 0.09692
2961.81689 0.096915
2962.27905 0.096909
2962.74097 0.096903
2963.20288 0.096898
2963.66504 0.096892
2964.12695 0.096886
2964.58911 0.09688
2965.05103 0.096875
2965.51294 0.096869
2965.97607 0.096863
2966.43799 0.096857
2966.90088 0.096851
2967.36304 0.096845
2967.82593 0.096839
2968.28809 0.096833
2968.75098 0.096827
2969.21411 0.096821
2969.67700 0.096815
2970.13989 0.09681
2970.60303 0.096808
2971.06592 0.096806
2971.52905 0.096804
2971.99292 0.096802
2972.45605 0.096799
2972.91895 0.096797
2973.38306 0.096795
2973.84595 0.096792
2974.31006 0.09679
2974.77393 0.096788
2975.23804 0.096785
2975.70093 0.096783
2976.16504 0.096781
2976.62891 0.096778
2977.09302 0.096776
2977.55688 0.096773
2978.02197 0.096771
2978.48608 0.096768
2978.94995 0.096765
2979.41504 0.096763
2979.87891 0.09676
2980.34399 0.096754
2980.80811 0.096748
2981.27295 0.096741
2981.73804 0.096734
2982.20288 0.096727
2982.66797 0.09672
2983.13306 0.096714
2983.59790 0.096707
2984.06299 0.0967
2984.52808 0.096693
2984.99292 0.096686
2985.45898 0.096679
2985.92407 0.096672
2986.38989 0.096665
2986.85498 0.096658
2987.32104 0.096651
2987.78711 0.096643
2988.25293 0.096636
2988.71899 0.096629
2989.18408 0.096622
2989.64990 0.096615
2990.11597 0.096608
2990.58301 0.096605
2991.04907 0.096602
2991.51489 0.096598
2991.98193 0.096595
2992.44800 0.096592
2992.91504 0.096588
2993.38110 0.096585
2993.84790 0.096581
2994.31494 0.096578
2994.78101 0.096574
2995.24805 0.096571
2995.71509 0.096567
2996.18188 0.096564
2996.64893 0.09656
2997.11694 0.096557
2997.58398 0.096553
2998.05103 0.096549
2998.51904 0.096545
2998.98608 0.096542
2999.45410 0.096538
2999.92090 0.096534
3000.38892 0.096527
3000.85693 0.096518
3001.32495 0.09651
3001.79199 0.096502
3002.26001 0.096494
3002.72900 0.096485
3003.19702 0.096477
3003.66504 0.096469
3004.13306 0.096461
3004.60205 0.096452
3005.07007 0.096444
3005.53906 0.096436
3006.00708 0.096428
3006.47607 0.096419
3006.94409 0.096411
3007.41309 0.096403
3007.88208 0.096394
3008.35107 0.096386
3008.82007 0.096378
3009.28906 0.09637
3009.75806 0.096361
3010.22803 0.096355
3010.69702 0.096351
3011.16602 0.096346
3011.63501 0.096342
3012.10498 0.096338
3012.57495 0.096334
3013.04395 0.096329
3013.51392 0.096325
3013.98389 0.096321
3014.45410 0.096317
3014.92407 0.096312
3015.39404 0.096308
3015.86401 0.096304
3016.33398 0.0963
3016.80396 0.096295
3017.27490 0.096291
3017.74512 0.096287
3018.21606 0.096282
3018.68604 0.096278
3019.15698 0.096274
3019.62695 0.09627
3020.09790 0.096265
3020.56909 0.096261
3021.04004 0.096257
3021.51099 0.096252
3021.98193 0.096248
3022.45288 0.096244
3022.92407 0.096239
3023.39600 0.096235
3023.86694 0.096231
3024.33789 0.096226
3024.81006 0.096222
3025.28101 0.096218
3025.75293 0.096213
3026.22510 0.096209
3026.69702 0.096205
3027.16797 0.0962
3027.64111 0.096196
3028.11304 0.096191
3028.58496 0.096187
3029.05688 0.096183
3029.52905 0.096178
3030.00098 0.096174
3030.47412 0.096165
3030.94604 0.096157
3031.41895 0.096148
3031.89111 0.096139
3032.36401 0.096131
3032.83691 0.096122
3033.31006 0.096113
3033.78198 0.096104
3034.25488 0.096096
3034.72900 0.096087
3035.20190 0.096078
3035.67505 0.09607
3036.14795 0.096061
3036.62109 0.096052
3037.09497 0.096044
3037.56812 0.096035
3038.04199 0.096026
3038.51611 0.096017
3038.98901 0.096009
3039.46289 0.096
3039.93701 0.095991
3040.41089 0.095986
3040.88501 0.095981
3041.35889 0.095977
3041.83301 0.095972
3042.30688 0.095967
3042.78198 0.095963
3043.25610 0.095958
3043.72998 0.095953
3044.20508 0.095949
3044.67993 0.095944
3045.15405 0.095939
3045.62891 0.095935
3046.10400 0.09593
3046.57910 0.095925
3047.05396 0.09592
3047.52905 0.095916
3048.00391 0.095911
3048.47900 0.095906
3048.95410 0.095902
3049.42993 0.095897
3049.90503 0.095892
3050.38110 0.095884
3050.85596 0.095875
3051.33203 0.095867
3051.80688 0.095858
3052.28296 0.095849
3052.75903 0.09584
3053.23511 0.095831
3053.71094 0.095823
3054.18701 0.095814
3054.66309 0.095805
3055.13892 0.095796
3055.61597 0.095787
3056.09204 0.095779
3056.56909 0.09577
3057.04492 0.095761
3057.52197 0.095752
3057.99902 0.095743
3058.47510 0.095734
3058.95190 0.095726
3059.42896 0.095717
3059.90601 0.095708
3060.38306 0.095702
3060.86011 0.095698
3061.33691 0.095693
3061.81396 0.095688
3062.29199 0.095683
3062.76904 0.095679
3063.24707 0.095674
3063.72412 0.095669
3064.20190 0.095664
3064.67993 0.095659
3065.15698 0.095655
3065.63501 0.09565
3066.11304 0.095645
3066.59106 0.09564
3067.06909 0.095636
3067.54810 0.095631
3068.02588 0.095626
3068.50391 0.095621
3068.98291 0.095616
3069.46094 0.095612
3069.93896 0.095607
3070.41797 0.095598
3070.89697 0.09559
3071.37598 0.095581
3071.85400 0.095572
3072.33301 0.095563
3072.81201 0.095554
3073.29199 0.095545
3073.77100 0.095536
3074.25000 0.095527
3074.72900 0.095518
3075.20801 0.095509
3075.68799 0.0955
3076.16699 0.095492
3076.64697 0.095483
3077.12598 0.095474
3077.60596 0.095465
3078.08594 0.095456
3078.56592 0.095447
3079.04590 0.095438
3079.52588 0.095429
3080.00610 0.09542
3080.48608 0.095415
3080.96704 0.09541
3081.44702 0.095406
3081.92700 0.095401
3082.40796 0.095396
3082.88794 0.095391
3083.36890 0.095386
3083.85010 0.095381
3084.33008 0.095376
3084.81104 0.095371
3085.29199 0.095367
3085.77295 0.095362
3086.25391 0.095357
3086.73511 0.095352
3087.21704 0.095347
3087.69800 0.095342
3088.17896 0.095337
3088.66089 0.095332
3089.14209 0.095327
3089.62402 0.095323
3090.10596 0.095317
3090.58691 0.095308
3091.06909 0.095299
3091.55103 0.09529
3092.03296 0.095281
3092.51489 0.095272
3092.99707 0.095263
3093.47900 0.095254
3093.96191 0.095245
3094.44409 0.095236
3094.92700 0.095226
3095.40894 0.095217
3095.89209 0.095208
3096.37402 0.095199
3096.85693 0.09519
3097.34009 0.095181
3097.82300 0.095172
3098.30591 0.095163
3098.78906 0.095154
3099.27197 0.095145
3099.75488 0.095136
3100.23804 0.095115
3100.72192 0.095083
3101.20508 0.09505
3101.68799 0.095018
3102.17212 0.094985
3102.65601 0.094953
3103.13892 0.09492
3103.62305 0.094887
3104.10693 0.094855
3104.59106 0.094822
3105.07495 0.09479
3105.55908 0.094757
3106.04297 0.094724
3106.52808 0.094692
3107.01196 0.094659
3107.49609 0.094627
3107.98096 0.094594
3108.46509 0.094561
3108.94995 0.094529
3109.43506 0.094496
3109.91895 0.094463
3110.40405 0.09443
3110.88892 0.094398
3111.37402 0.094365
3111.85889 0.094332
3112.34399 0.0943
3112.83008 0.094267
3113.31494 0.094234
3113.80005 0.094201
3114.28589 0.094169
3114.77100 0.094136
3115.25708 0.094103
3115.74194 0.09407
3116.22803 0.094038
3116.71411 0.094005
3117.19995 0.093972
3117.68604 0.093939
3118.17212 0.093906
3118.65796 0.093873
3119.14404 0.093841
3119.63110 0.093808
3120.11694 0.093774
3120.60400 0.093737
3121.09009 0.0937
3121.57593 0.093663
3122.06299 0.093626
3122.55005 0.093589
3123.03711 0.093552
3123.52393 0.093515
3124.01001 0.093478
3124.49805 0.093442
3124.98511 0.093405
3125.47192 0.093368
3125.95898 0.093331
3126.44702 0.093294
3126.93408 0.093257
3127.42090 0.09322
3127.90894 0.093183
3128.39697 0.093146
3128.88501 0.093109
3129.37207 0.093072
3129.86011 0.093035
3130.34790 0.093
3130.83594 0.092967
3131.32397 0.092934
3131.81201 0.092901
3132.30103 0.092868
3132.78906 0.092835
3133.27710 0.092802
3133.76611 0.092769
3134.25391 0.092736
3134.74292 0.092703
3135.23193 0.09267
3135.71997 0.092637
3136.20898 0.092604
3136.69800 0.092571
3137.18701 0.092538
3137.67700 0.092505
3138.16602 0.092472
3138.65503 0.092439
3139.14404 0.092405
3139.63403 0.092372
3140.12305 0.092338
3140.61304 0.092301
3141.10205 0.092264
3141.59204 0.092227
3142.08203 0.092189
3142.57202 0.092152
3143.06201 0.092115
3143.55200 0.092078
3144.04199 0.092041
3144.53198 0.092004
3145.02197 0.091966
3145.51196 0.091929
3146.00293 0.091892
3146.49292 0.091855
3146.98389 0.091817
3147.47412 0.09178
3147.96509 0.091743
3148.45605 0.091706
3148.94702 0.091669
3149.43799 0.091631
3149.92896 0.091594
3150.41992 0.09156
3150.91089 0.091527
3151.40210 0.091494
3151.89404 0.09146
3152.38501 0.091427
3152.87598 0.091394
3153.36792 0.09136
3153.86011 0.091327
3154.35107 0.091294
3154.84302 0.09126
3155.33496 0.091227
3155.82690 0.091194
3156.31909 0.09116
3156.81104 0.091127
3157.30298 0.091094
3157.79492 0.09106
3158.28809 0.091027
3158.78003 0.090994
3159.27197 0.09096
3159.76489 0.090927
3160.25806 0.090891
3160.75000 0.090854
3161.24292 0.090816
3161.73608 0.090779
3162.22900 0.090742
3162.72192 0.090704
3163.21509 0.090667
3163.70801 0.090629
3164.20093 0.090592
3164.69507 0.090554
3165.18799 0.090517
3165.68091 0.090479
3166.17505 0.090442
3166.66797 0.090404
3167.16211 0.090367
3167.65601 0.090329
3168.14990 0.090292
3168.64404 0.090254
3169.13794 0.090217
3169.63208 0.090179
3170.12598 0.090143
3170.62012 0.090109
3171.11499 0.090076
3171.60889 0.090042
3172.10400 0.090009
3172.59790 0.089975
3173.09302 0.089941
3173.58691 0.089908
3174.08203 0.089874
3174.57690 0.089841
3175.07202 0.089807
3175.56689 0.089773
3176.06201 0.08974
3176.55688 0.089706
3177.05200 0.089672
3177.54810 0.089639
3178.04297 0.089605
3178.53809 0.089571
3179.03394 0.089538
3179.53003 0.089504
3180.02490 0.08947
3180.52100 0.089432
3181.01709 0.089395
3181.51294 0.089357
3182.00903 0.089319
3182.50488 0.089282
3183.00098 0.089244
3183.49707 0.089206
3183.99390 0.089169
3184.48999 0.089131
3184.98706 0.089093
3185.48291 0.089056
3185.97998 0.089018
3186.47607 0.08898
3186.97290 0.088943
3187.46997 0.088905
3187.96704 0.088867
3188.46411 0.088829
3188.96094 0.088792
3189.45801 0.088754
3189.95605 0.088716
3190.45288 0.088682
3190.94995 0.088648
3191.44800 0.088614
3191.94507 0.08858
3192.44312 0.088546
3192.94092 0.088513
3193.43799 0.088479
3193.93604 0.088445
3194.43408 0.088411
3194.93188 0.088377
3195.42993 0.088343
3195.92798 0.088309
3196.42700 0.088275
3196.92505 0.088241
3197.42407 0.088207
3197.92212 0.088173
3198.41992 0.088139
3198.91895 0.088105
3199.41797 0.088072
3199.91699 0.088038
3200.41602 0.088001
3200.91504 0.087964
3201.41406 0.087927
3201.91309 0.08789
3202.41211 0.087853
3202.91089 0.087816
3203.40991 0.08778
3203.90991 0.087743
3204.40894 0.087706
3204.90894 0.087669
3205.40894 0.087632
3205.90796 0.087595
3206.40796 0.087558
3206.90796 0.087521
3207.40796 0.087484
3207.90796 0.087447
3208.40796 0.08741
3208.90796 0.087373
3209.40894 0.087336
3209.90894 0.087299
3210.40894 0.087265
3210.90991 0.087232
3211.41089 0.087199
3211.91089 0.087166
3212.41211 0.087133
3212.91309 0.0871
3213.41406 0.087067
3213.91504 0.087034
3214.41602 0.087
3214.91699 0.086967
3215.41797 0.086934
3215.91895 0.086901
3216.42090 0.086868
3216.92212 0.086835
3217.42407 0.086802
3217.92505 0.086768
3218.42700 0.086735
3218.92896 0.086702
3219.43091 0.086669
3219.93311 0.086636
3220.43506 0.086599
3220.93701 0.086562
3221.43896 0.086525
3221.94092 0.086488
3222.44312 0.086451
3222.94604 0.086414
3223.44800 0.086377
3223.95093 0.08634
3224.45288 0.086303
3224.95605 0.086266
3225.45898 0.086229
3225.96191 0.086191
3226.46509 0.086154
3226.96802 0.086117
3227.47095 0.08608
3227.97412 0.086043
3228.47705 0.086006
3228.97998 0.085969
3229.48389 0.085932
3229.98706 0.085895
3230.49097 0.085862
3230.99512 0.085828
3231.49805 0.085795
3232.00195 0.085762
3232.50610 0.085728
3233.01001 0.085695
3233.51392 0.085662
3234.01807 0.085629
3234.52197 0.085595
3235.02710 0.085562
3235.53101 0.085529
3236.03491 0.085495
3236.54004 0.085462
3237.04395 0.085429
3237.54907 0.085395
3238.05396 0.085362
3238.55908 0.085329
3239.06299 0.085295
3239.56812 0.085262
3240.07300 0.085228
3240.57910 0.085191
3241.08398 0.085154
3241.58911 0.085117
3242.09399 0.085079
3242.60010 0.085042
3243.10498 0.085005
3243.61108 0.084968
3244.11694 0.084931
3244.62305 0.084893
3245.12793 0.084856
3245.63403 0.084819
3246.13989 0.084782
3246.64600 0.084745
3247.15308 0.084707
3247.65894 0.08467
3248.16504 0.084633
3248.67212 0.084596
3249.17798 0.084559
3249.68506 0.084521
3250.19092 0.084486
3250.69800 0.084452
3251.20508 0.084419
3251.71191 0.084385
3252.21899 0.084352
3252.72607 0.084319
3253.23291 0.084285
3253.73999 0.084252
3254.24707 0.084218
3254.75391 0.084185
3255.26196 0.084151
3255.77002 0.084118
3256.27710 0.084084
3256.78491 0.084051
3257.29199 0.084017
3257.80005 0.083984
3258.30811 0.08395
3258.81592 0.083917
3259.32397 0.083883
3259.83203 0.08385
3260.34106 0.083814
3260.84912 0.083777
3261.35693 0.083739
3261.86597 0.083702
3262.37402 0.083665
3262.88306 0.083627
3263.39209 0.08359
3263.89990 0.083553
3264.40894 0.083515
3264.91797 0.083478
3265.42700 0.083441
3265.93604 0.083403
3266.44507 0.083366
3266.95508 0.083329
3267.46411 0.083292
3267.97290 0.083254
3268.48291 0.083217
3268.99194 0.08318
3269.50195 0.083142
3270.01196 0.083105
3270.52100 0.083071
3271.03101 0.083038
3271.54102 0.083004
3272.05200 0.082971
3272.56201 0.082937
3273.07202 0.082903
3273.58203 0.08287
3274.09204 0.082836
3274.60303 0.082803
3275.11304 0.082769
3275.62402 0.082735
3276.13501 0.082702
3276.64502 0.082668
3277.15601 0.082635
3277.66699 0.082601
3278.17798 0.082567
3278.68896 0.082534
3279.19995 0.0825
3279.71191 0.082466
3280.22290 0.082431
3280.73389 0.082394
3281.24609 0.082356
3281.75708 0.082319
3282.26904 0.082281
3282.78101 0.082244
3283.29199 0.082207
3283.80396 0.082169
3284.31592 0.082132
3284.82788 0.082094
3285.34106 0.082057
3285.85303 0.082019
3286.36499 0.081982
3286.87695 0.081945
3287.38989 0.081907
3287.90210 0.08187
3288.41504 0.081832
3288.92700 0.081795
3289.43994 0.081758
3289.95288 0.08172
3290.46606 0.081686
3290.97900 0.081652
3291.49194 0.081619
3292.00488 0.081585
3292.51904 0.081551
3293.03198 0.081517
3293.54492 0.081484
3294.05908 0.08145
3294.57202 0.081416
3295.08594 0.081382
3295.60010 0.081349
3296.11304 0.081315
3296.62695 0.081281
3297.14111 0.081247
3297.65503 0.081213
3298.16895 0.08118
3298.68408 0.081146
3299.19800 0.081112
3299.71191 0.081078
3300.22705 0.081053
3300.74097 0.08104
3301.25610 0.081027
3301.77002 0.081014
3302.28491 0.081001
3302.80005 0.080988
3303.31494 0.080974
3303.83008 0.080961
3304.34497 0.080948
3304.86011 0.080935
3305.37500 0.080922
3305.89111 0.080908
3306.40601 0.080895
3306.92090 0.080882
3307.43701 0.080869
3307.95288 0.080856
3308.46899 0.080842
3308.98389 0.080829
3309.50000 0.080816
3310.01611 0.080803
3310.53198 0.080793
3311.04810 0.080784
3311.56396 0.080774
3312.08105 0.080765
3312.59692 0.080755
3313.11401 0.080746
3313.62988 0.080736
3314.14697 0.080727
3314.66309 0.080717
3315.17993 0.080708
3315.69702 0.080698
3316.21411 0.080689
3316.73096 0.080679
3317.24805 0.08067
3317.76489 0.08066
3318.28198 0.080651
3318.80005 0.080641
3319.31689 0.080632
3319.83496 0.080622
3320.35205 0.08061
3320.87012 0.080597
3321.38696 0.080584
3321.90503 0.08057
3322.42310 0.080557
3322.94092 0.080544
3323.45898 0.080531
3323.97803 0.080518
3324.49609 0.080504
3325.01392 0.080491
3325.53198 0.080478
3326.05103 0.080465
3326.56909 0.080451
3327.08789 0.080438
3327.60693 0.080425
3328.12500 0.080412
3328.64404 0.080398
3329.16309 0.080385
3329.68188 0.080372
3330.20093 0.08036
3330.71997 0.080351
3331.23999 0.080341
3331.75903 0.080332
3332.27905 0.080322
3332.79810 0.080312
3333.31812 0.080303
3333.83691 0.080293
3334.35693 0.080284
3334.87695 0.080274
3335.39697 0.080265
3335.91699 0.080255
3336.43701 0.080245
3336.95703 0.080236
3337.47705 0.080226
3337.99805 0.080217
3338.51807 0.080207
3339.03906 0.080198
3339.55908 0.080188
3340.08008 0.080178
3340.60107 0.080165
3341.12109 0.080151
3341.64209 0.080138
3342.16309 0.080125
3342.68408 0.080112
3343.20508 0.080098
3343.72705 0.080085
3344.24805 0.080072
3344.76904 0.080058
3345.29102 0.080045
3345.81201 0.080032
3346.33398 0.080019
3346.85498 0.080005
3347.37695 0.079992
3347.89893 0.079979
3348.42090 0.079965
3348.94312 0.079952
3349.46509 0.079939
3349.98804 0.079926
3350.51001 0.079916
3351.03198 0.079906
3351.55493 0.079897
3352.07690 0.079887
3352.60010 0.079877
3353.12207 0.079868
3353.64502 0.079858
3354.16797 0.079849
3354.69092 0.079839
3355.21411 0.079829
3355.73706 0.07982
3356.26001 0.07981
3356.78296 0.079801
3357.30688 0.079791
3357.83008 0.079781
3358.35400 0.079772
3358.87695 0.079762
3359.40088 0.079752
3359.92505 0.079743
3360.44800 0.07973
3360.97192 0.079717
3361.49609 0.079703
3362.02100 0.07969
3362.54395 0.079677
3363.06909 0.079663
3363.59302 0.07965
3364.11694 0.079637
3364.64209 0.079623
3365.16699 0.07961
3365.69092 0.079597
3366.21606 0.079584
3366.74097 0.07957
3367.26611 0.079557
3367.79102 0.079544
3368.31592 0.07953
3368.84106 0.079517
3369.36597 0.079504
3369.89111 0.07949
3370.41699 0.07948
3370.94189 0.07947
3371.46802 0.079461
3371.99292 0.079451
3372.51904 0.079441
3373.04492 0.079432
3373.57104 0.079422
3374.09595 0.079413
3374.62305 0.079403
3375.14893 0.079393
3375.67505 0.079384
3376.20093 0.079374
3376.72803 0.079364
3377.25391 0.079355
3377.78101 0.079345
3378.30688 0.079335
3378.83398 0.079326
3379.36108 0.079316
3379.88696 0.079306
3380.41406 0.079294
3380.94092 0.079281
3381.46899 0.079267
3381.99609 0.079254
3382.52295 0.079241
3383.05005 0.079227
3383.57788 0.079214
3384.10498 0.079201
3384.63306 0.079187
3385.15991 0.079174
3385.68799 0.079161
3386.21606 0.079148
3386.74390 0.079134
3387.27197 0.079121
3387.80005 0.079108
3388.32788 0.079094
3388.85596 0.079081
3389.38501 0.079068
3389.91309 0.079054
3390.44189 0.079044
3390.96997 0.079034
3391.49902 0.079025
3392.02808 0.079015
3392.55591 0.079005
3393.08496 0.078996
3393.61401 0.078986
3394.14404 0.078977
3394.67310 0.078967
3395.20190 0.078957
3395.73096 0.078948
3396.26001 0.078938
3396.79004 0.078928
3397.32007 0.078919
3397.84912 0.078909
3398.37891 0.078899
3398.90894 0.07889
3399.43896 0.07888
3399.96899 0.07887
3400.49902 0.078832
3401.02905 0.078792
3401.55908 0.078752
3402.08911 0.078712
3402.62012 0.078672
3403.14990 0.078632
3403.68091 0.078592
3404.21094 0.078552
3404.74194 0.078512
3405.27295 0.078472
3405.80396 0.078432
3406.33496 0.078392
3406.86597 0.078352
3407.39697 0.078312
3407.92798 0.078272
3408.45996 0.078232
3408.99097 0.078192
3409.52197 0.078152
3410.05396 0.078112
3410.58594 0.078076
3411.11694 0.07804
3411.64893 0.078003
3412.18091 0.077967
3412.71289 0.077931
3413.24512 0.077894
3413.77710 0.077858
3414.31006 0.077822
3414.84204 0.077785
3415.37402 0.077749
3415.90698 0.077713
3416.43896 0.077676
3416.97192 0.07764
3417.50488 0.077604
3418.03711 0.077568
3418.57007 0.077531
3419.10303 0.077495
3419.63599 0.077459
3420.16895 0.077421
3420.70288 0.077381
3421.23608 0.077341
3421.76904 0.077301
3422.30298 0.077261
3422.83594 0.077221
3423.37012 0.077182
3423.90405 0.077142
3424.43799 0.077102
3424.97095 0.077062
3425.50488 0.077022
3426.03906 0.076982
3426.57300 0.076942
3427.10791 0.076902
3427.64209 0.076862
3428.17603 0.076822
3428.71094 0.076783
3429.24512 0.076743
3429.78003 0.076703
3430.31494 0.076665
3430.84912 0.076628
3431.38403 0.076592
3431.91895 0.076555
3432.45410 0.076519
3432.98999 0.076482
3433.52490 0.076446
3434.06006 0.076409
3434.59497 0.076373
3435.13110 0.076336
3435.66602 0.0763
3436.20190 0.076263
3436.73804 0.076227
3437.27295 0.07619
3437.80908 0.076154
3438.34497 0.076117
3438.88110 0.076081
3439.41699 0.076044
3439.95410 0.076008
3440.48999 0.075968
3441.02588 0.075928
3441.56299 0.075888
3442.09912 0.075848
3442.63599 0.075808
3443.17310 0.075768
3443.70898 0.075728
3444.24707 0.075688
3444.78296 0.075648
3445.32104 0.075608
3445.85791 0.075568
3446.39502 0.075528
3446.93188 0.075488
3447.46899 0.075448
3448.00708 0.075408
3448.54395 0.075368
3449.08203 0.075328
3449.62012 0.075288
3450.15796 0.075249
3450.69604 0.075212
3451.23389 0.075176
3451.77197 0.075139
3452.31006 0.075103
3452.84790 0.075066
3453.38599 0.07503
3453.92505 0.074994
3454.46289 0.074957
3455.00195 0.074921
3455.54004 0.074884
3456.07910 0.074848
3456.61792 0.074811
3457.15698 0.074775
3457.69604 0.074738
3458.23511 0.074702
3458.77393 0.074666
3459.31299 0.074629
3459.85303 0.074593
3460.39209 0.074554
3460.93091 0.074514
3461.47095 0.074474
3462.01099 0.074434
3462.55005 0.074394
3463.09009 0.074354
3463.62988 0.074314
3464.16992 0.074274
3464.70996 0.074234
3465.25000 0.074194
3465.79102 0.074154
3466.33105 0.074114
3466.87109 0.074074
3467.41211 0.074034
3467.95190 0.073994
3468.49292 0.073954
3469.03394 0.073915
3469.57495 0.073875
3470.11499 0.073835
3470.65601 0.073795
3471.19800 0.073755
3471.73901 0.073715
3472.28003 0.073675
3472.82202 0.073635
3473.36304 0.073595
3473.90405 0.073556
3474.44604 0.073516
3474.98804 0.073476
3475.52905 0.073436
3476.07104 0.073396
3476.61304 0.073356
3477.15503 0.073316
3477.69702 0.073277
3478.23999 0.073237
3478.78198 0.073197
3479.32397 0.073157
3479.86597 0.073117
3480.40894 0.07308
3480.95190 0.073044
3481.49390 0.073007
3482.03711 0.072971
3482.58008 0.072935
3483.12305 0.072898
3483.66602 0.072862
3484.20898 0.072826
3484.75195 0.07279
3485.29492 0.072753
3485.83911 0.072717
3486.38208 0.07268
3486.92603 0.072644
3487.46899 0.072608
3488.01294 0.072572
3488.55688 0.072535
3489.10107 0.072499
3489.64502 0.072463
3490.18896 0.072425
3490.73291 0.072385
3491.27710 0.072345
3491.82202 0.072306
3492.36597 0.072266
3492.90991 0.072226
3493.45508 0.072187
3494.00000 0.072147
3494.54395 0.072107
3495.08911 0.072067
3495.63403 0.072028
3496.17896 0.071988
3496.72412 0.071948
3497.26904 0.071908
3497.81396 0.071869
3498.36011 0.071829
3498.90503 0.071789
3499.45093 0.07175
3499.99609 0.07171
3500.54199 0.071658
3501.08789 0.071607
3501.63403 0.071555
3502.17896 0.071503
3502.72510 0.071452
3503.27100 0.0714
3503.81812 0.071349
3504.36401 0.071297
3504.90991 0.071246
3505.45703 0.071194
3506.00293 0.071142
3506.55005 0.071091
3507.09595 0.071039
3507.64307 0.070988
3508.18994 0.070936
3508.73706 0.070885
3509.28394 0.070833
3509.83105 0.070782
3510.37793 0.070728
3510.92603 0.070673
3511.47290 0.070618
3512.02002 0.070563
3512.56812 0.070509
3513.11499 0.070454
3513.66309 0.070399
3514.21094 0.070344
3514.75903 0.070289
3515.30688 0.070235
3515.85498 0.07018
3516.40308 0.070125
3516.95093 0.07007
3517.50000 0.070016
3518.04810 0.069961
3518.59595 0.069906
3519.14502 0.069851
3519.69409 0.069797
3520.24194 0.069744
3520.79102 0.069692
3521.34009 0.069641
3521.88892 0.06959
3522.43799 0.069539
3522.98706 0.069487
3523.53711 0.069436
3524.08594 0.069385
3524.63501 0.069334
3525.18506 0.069282
3525.73389 0.069231
3526.28394 0.06918
3526.83398 0.069129
3527.38403 0.069078
3527.93408 0.069026
3528.48389 0.068975
3529.03394 0.068924
3529.58398 0.068873
3530.13403 0.068821
3530.68506 0.068766
3531.23511 0.068712
3531.78491 0.068658
3532.33594 0.068603
3532.88696 0.068549
3533.43701 0.068494
3533.98901 0.06844
3534.53906 0.068386
3535.09009 0.068331
3535.64209 0.068277
3536.19312 0.068223
3536.74390 0.068168
3537.29492 0.068114
3537.84692 0.06806
3538.39795 0.068005
3538.94995 0.067951
3539.50195 0.067897
3540.05396 0.067843
3540.60596 0.067792
3541.15796 0.067741
3541.70996 0.06769
3542.26196 0.067639
3542.81396 0.067588
3543.36597 0.067537
3543.91895 0.067486
3544.47095 0.067436
3545.02393 0.067385
3545.57690 0.067334
3546.12891 0.067283
3546.68188 0.067232
3547.23511 0.067181
3547.78809 0.06713
3548.34106 0.06708
3548.89502 0.067029
3549.44800 0.066978
3550.00098 0.066927
3550.55493 0.066873
3551.10791 0.066819
3551.66211 0.066765
3552.21606 0.066711
3552.76904 0.066657
3553.32300 0.066603
3553.87695 0.066549
3554.43091 0.066495
3554.98511 0.066441
3555.54004 0.066387
3556.09399 0.066333
3556.64795 0.066279
3557.20288 0.066226
3557.75708 0.066172
3558.31201 0.066118
3558.86694 0.066064
3559.42212 0.06601
3559.97705 0.065956
3560.53101 0.065902
3561.08691 0.065849
3561.64209 0.065795
3562.19702 0.065741
3562.75195 0.065687
3563.30811 0.065634
3563.86401 0.06558
3564.41895 0.065526
3564.97510 0.065472
3565.53101 0.065419
3566.08594 0.065365
3566.64209 0.065311
3567.19800 0.065258
3567.75488 0.065204
3568.31104 0.06515
3568.86694 0.065097
3569.42407 0.065043
3569.97998 0.06499
3570.53711 0.064939
3571.09302 0.064889
3571.64990 0.064838
3572.20703 0.064788
3572.76392 0.064738
3573.32104 0.064687
3573.87793 0.064637
3574.43506 0.064586
3574.99194 0.064536
3575.55005 0.064486
3576.10693 0.064435
3576.66504 0.064385
3577.22192 0.064335
3577.78003 0.064284
3578.33789 0.064234
3578.89600 0.064184
3579.45288 0.064134
3580.01099 0.064083
3580.57007 0.06403
3581.12793 0.063976
3581.68604 0.063923
3582.24512 0.06387
3582.80298 0.063816
3583.36206 0.063763
3583.91992 0.06371
3584.47900 0.063657
3585.03809 0.063603
3585.59692 0.06355
3586.15601 0.063497
3586.71509 0.063444
3587.27393 0.06339
3587.83301 0.063337
3588.39307 0.063284
3588.95190 0.063231
3589.51196 0.063177
3590.07104 0.063125
3590.63110 0.063075
3591.19092 0.063025
3591.75098 0.062975
3592.31104 0.062925
3592.87109 0.062875
3593.43091 0.062825
3593.99097 0.062775
3594.55103 0.062725
3595.11206 0.062675
3595.67212 0.062625
3596.23291 0.062575
3596.79297 0.062525
3597.35400 0.062475
3597.91504 0.062425
3598.47607 0.062375
3599.03711 0.062325
3599.59790 0.062275
3600.15894 0.062231
3600.71997 0.062204
3601.28198 0.062177
3601.84302 0.06215
3602.40503 0.062123
3602.96704 0.062096
3603.52808 0.062068
3604.09009 0.062041
3604.65210 0.062014
3605.21411 0.061987
3605.77588 0.06196
3606.33789 0.061932
3606.89990 0.061905
3607.46289 0.061878
3608.02490 0.061851
3608.58789 0.061823
3609.14990 0.061796
3609.71289 0.061769
3610.27588 0.061743
3610.83789 0.061718
3611.40088 0.061694
3611.96411 0.06167
3612.52808 0.061645
3613.09106 0.061621
3613.65405 0.061597
3614.21802 0.061572
3614.78101 0.061548
3615.34399 0.061524
3615.90796 0.061499
3616.47192 0.061475
3617.03589 0.06145
3617.60010 0.061426
3618.16406 0.061401
3618.72803 0.061377
3619.29199 0.061352
3619.85596 0.061328
3620.41992 0.061301
3620.98511 0.061273
3621.54907 0.061246
3622.11401 0.061218
3622.67896 0.06119
3623.24292 0.061163
3623.80811 0.061135
3624.37305 0.061108
3624.93799 0.06108
3625.50293 0.061052
3626.06909 0.061024
3626.63403 0.060997
3627.19897 0.060969
3627.76489 0.060941
3628.33105 0.060914
3628.89600 0.060886
3629.46191 0.060858
3630.02808 0.06083
3630.59399 0.060802
3631.15991 0.060774
3631.72607 0.060745
3632.29199 0.060717
3632.85791 0.060689
3633.42505 0.06066
3633.99097 0.060632
3634.55811 0.060603
3635.12402 0.060575
3635.69092 0.060547
3636.25806 0.060518
3636.82495 0.06049
3637.39209 0.060461
3637.95898 0.060433
3638.52588 0.060404
3639.09302 0.060376
3639.66089 0.060347
3640.22803 0.06032
3640.79492 0.060295
3641.36304 0.060269
3641.93091 0.060243
3642.49902 0.060218
3643.06592 0.060192
3643.63501 0.060167
3644.20190 0.060141
3644.77100 0.060115
3645.33911 0.06009
3645.90698 0.060064
3646.47607 0.060039
3647.04395 0.060013
3647.61304 0.059987
3648.18091 0.059961
3648.75000 0.059936
3649.31909 0.05991
3649.88794 0.059884
3650.45703 0.059856
3651.02588 0.059827
3651.59497 0.059798
3652.16504 0.05977
3652.73389 0.059741
3653.30298 0.059712
3653.87305 0.059683
3654.44312 0.059654
3655.01196 0.059626
3655.58203 0.059597
3656.15210 0.059568
3656.72192 0.059539
3657.29199 0.05951
3657.86206 0.059481
3658.43311 0.059452
3659.00293 0.059423
3659.57300 0.059394
3660.14404 0.059366
3660.71509 0.05934
3661.28491 0.059314
3661.85596 0.059288
3662.42700 0.059262
3662.99805 0.059236
3663.56909 0.05921
3664.13989 0.059184
3664.71094 0.059158
3665.28296 0.059132
3665.85400 0.059105
3666.42603 0.059079
3666.99707 0.059053
3667.56909 0.059027
3668.14111 0.059001
3668.71289 0.058975
3669.28491 0.058948
3669.85693 0.058922
3670.42896 0.058894
3671.00098 0.058864
3671.57300 0.058835
3672.14600 0.058806
3672.71802 0.058777
3673.29102 0.058748
3673.86401 0.058718
3674.43604 0.058689
3675.00903 0.05866
3675.58203 0.05863
3676.15503 0.058601
3676.72803 0.058572
3677.30200 0.058542
3677.87500 0.058513
3678.44800 0.058484
3679.02197 0.058454
3679.59497 0.058425
3680.16895 0.058396
3680.74292 0.058366
3681.31689 0.058337
3681.88989 0.058307
3682.46509 0.058278
3683.03906 0.058248
3683.61304 0.058219
3684.18701 0.058189
3684.76099 0.05816
3685.33594 0.05813
3685.90991 0.058101
3686.48511 0.058071
3687.06006 0.058042
3687.63501 0.058012
3688.20898 0.057983
3688.78491 0.057953
3689.36011 0.057924
3689.93506 0.057894
3690.51001 0.057867
3691.08496 0.05784
3691.66089 0.057813
3692.23706 0.057787
3692.81201 0.05776
3693.38794 0.057733
3693.96411 0.057706
3694.54004 0.057679
3695.11499 0.057652
3695.69189 0.057626
3696.26807 0.057599
3696.84399 0.057572
3697.41992 0.057545
3697.99707 0.057518
3698.57300 0.057491
3699.14990 0.057464
3699.72705 0.057437
3700.30298 0.057427
3700.87988 0.057431
3701.45703 0.057435
3702.03394 0.057439
3702.61206 0.057444
3703.18896 0.057448
3703.76611 0.057452
3704.34399 0.057456
3704.92090 0.05746
3705.49902 0.057465
3706.07593 0.057469
3706.65405 0.057473
3707.23193 0.057477
3707.81006 0.057482
3708.38794 0.057486
3708.96606 0.05749
3709.54395 0.057494
3710.12305 0.057499
3710.70093 0.057506
3711.28003 0.057513
3711.85791 0.057521
3712.43701 0.057528
3713.01611 0.057535
3713.59497 0.057542
3714.17407 0.057549
3714.75293 0.057556
3715.33203 0.057563
3715.91089 0.05757
3716.48999 0.057578
3717.07007 0.057585
3717.64893 0.057592
3718.22900 0.057599
3718.80908 0.057606
3719.38794 0.057613
3719.96802 0.05762
3720.54810 0.057625
3721.12793 0.057629
3721.70801 0.057633
3722.28906 0.057638
3722.86890 0.057642
3723.44897 0.057646
3724.03003 0.05765
3724.61011 0.057655
3725.19092 0.057659
3725.77197 0.057663
3726.35303 0.057667
3726.93408 0.057672
3727.51489 0.057676
3728.09595 0.05768
3728.67700 0.057684
3729.25806 0.057688
3729.84009 0.057693
3730.42090 0.057697
3731.00293 0.057701
3731.58398 0.057705
3732.16602 0.05771
3732.74805 0.057714
3733.33008 0.057718
3733.91211 0.057722
3734.49390 0.057727
3735.07593 0.057731
3735.65894 0.057735
3736.24097 0.05774
3736.82300 0.057744
3737.40601 0.057748
3737.98901 0.057752
3738.57202 0.057757
3739.15503 0.057761
3739.73706 0.057765
3740.32007 0.057771
3740.90405 0.057778
3741.48706 0.057785
3742.07007 0.057792
3742.65405 0.0578
3743.23706 0.057807
3743.82104 0.057814
3744.40405 0.057821
3744.98804 0.057828
3745.57202 0.057835
3746.15601 0.057843
3746.73999 0.05785
3747.32397 0.057857
3747.90796 0.057864
3748.49194 0.057871
3749.07690 0.057879
3749.66089 0.057886
3750.24609 0.057892
3750.83105 0.057896
3751.41504 0.0579
3752.00000 0.057904
3752.58496 0.057909
3753.16992 0.057913
3753.75488 0.057917
3754.34106 0.057921
3754.92603 0.057926
3755.51099 0.05793
3756.09692 0.057934
3756.68188 0.057938
3757.26807 0.057943
3757.85400 0.057947
3758.43994 0.057951
3759.02588 0.057955
3759.61206 0.05796
3760.19800 0.057965
3760.78394 0.057972
3761.37012 0.057979
3761.95703 0.057987
3762.54297 0.057994
3763.12988 0.058001
3763.71704 0.058008
3764.30298 0.058015
3764.88989 0.058023
3765.47705 0.05803
3766.06396 0.058037
3766.65088 0.058044
3767.23901 0.058051
3767.82593 0.058059
3768.41309 0.058066
3769.00098 0.058073
3769.58789 0.05808
3770.17603 0.058087
3770.76392 0.058091
3771.35205 0.058095
3771.93994 0.058099
3772.52808 0.058104
3773.11597 0.058108
3773.70410 0.058112
3774.29199 0.058116
3774.88110 0.058121
3775.46899 0.058125
3776.05811 0.058129
3776.64697 0.058133
3777.23608 0.058138
3777.82397 0.058142
3778.41309 0.058146
3779.00195 0.05815
3779.59204 0.058155
3780.18091 0.058159
3780.77002 0.058163
3781.36011 0.058167
3781.94897 0.058171
3782.53906 0.058176
3783.12793 0.05818
3783.71802 0.058184
3784.30811 0.058188
3784.89795 0.058193
3785.48804 0.058197
3786.07788 0.058201
3786.66895 0.058205
3787.25903 0.05821
3787.84912 0.058214
3788.43994 0.058218
3789.03101 0.058222
3789.62109 0.058227
3790.21191 0.058232
3790.80298 0.058239
3791.39404 0.058246
3791.98511 0.058254
3792.57593 0.058261
3793.16699 0.058268
3793.75903 0.058275
3794.35010 0.058283
3794.94189 0.05829
3795.53394 0.058297
3796.12500 0.058304
3796.71704 0.058311
3797.30908 0.058319
3797.90088 0.058326
3798.49292 0.058333
3799.08496 0.05834
3799.67798 0.058348
3800.27002 0.058356
3800.86304 0.058366
3801.45508 0.058376
3802.04810 0.058387
3802.63989 0.058397
3803.23291 0.058407
3803.82593 0.058417
3804.41895 0.058427
3805.01196 0.058437
3805.60596 0.058447
3806.19897 0.058458
3806.79199 0.058468
3807.38599 0.058478
3807.97900 0.058488
3808.57300 0.058498
3809.16699 0.058508
3809.76099 0.058518
3810.35498 0.058528
3810.94897 0.058538
3811.54297 0.058549
3812.13696 0.058559
3812.73096 0.058569
3813.32593 0.058579
3813.91992 0.058589
3814.51489 0.058599
3815.11011 0.058609
3815.70410 0.058619
3816.29907 0.058629
3816.89404 0.058639
3817.48901 0.058649
3818.08398 0.058659
3818.67993 0.058669
3819.27490 0.058679
3819.87109 0.058689
3820.46606 0.058702
3821.06201 0.058715
3821.65698 0.058728
3822.25293 0.058741
3822.84912 0.058754
3823.44507 0.058767
3824.04102 0.05878
3824.63696 0.058793
3825.23389 0.058806
3825.83008 0.058819
3826.42700 0.058832
3827.02295 0.058845
3827.62012 0.058858
3828.21606 0.058871
3828.81299 0.058884
3829.40991 0.058897
3830.00708 0.05891
3830.60400 0.05892
3831.20093 0.05893
3831.79907 0.05894
3832.39600 0.05895
3832.99390 0.05896
3833.59106 0.05897
3834.18896 0.05898
3834.78711 0.05899
3835.38501 0.059
3835.98193 0.05901
3836.58008 0.05902
3837.17798 0.05903
3837.77710 0.059039
3838.37500 0.059049
3838.97412 0.059059
3839.57202 0.059069
3840.17090 0.05908
3840.76904 0.059093
3841.36792 0.059106
3841.96704 0.059119
3842.56592 0.059132
3843.16504 0.059145
3843.76392 0.059158
3844.36401 0.059171
3844.96289 0.059184
3845.56201 0.059196
3846.16211 0.059209
3846.76099 0.059222
3847.36108 0.059235
3847.96094 0.059248
3848.56104 0.059261
3849.16089 0.059274
3849.76099 0.059287
3850.36108 0.059298
3850.96094 0.059308
3851.56201 0.059318
3852.16211 0.059327
3852.76294 0.059337
3853.36401 0.059347
3853.96411 0.059357
3854.56494 0.059367
3855.16602 0.059376
3855.76709 0.059386
3856.36792 0.059396
3856.96899 0.059406
3857.57104 0.059416
3858.17212 0.059425
3858.77393 0.059435
3859.37500 0.059445
3859.97705 0.059455
3860.57910 0.059464
3861.17993 0.059474
3861.78198 0.059484
3862.38501 0.059494
3862.98706 0.059503
3863.58911 0.059513
3864.19092 0.059523
3864.79395 0.059533
3865.39600 0.059542
3865.99902 0.059552
3866.60205 0.059562
3867.20410 0.059571
3867.80688 0.059581
3868.40991 0.059591
3869.01294 0.059601
3869.61694 0.05961
3870.21997 0.059621
3870.82300 0.059634
3871.42700 0.059647
3872.03003 0.059659
3872.63403 0.059672
3873.23804 0.059685
3873.84204 0.059698
3874.44604 0.059711
3875.05005 0.059723
3875.65405 0.059736
3876.25806 0.059749
3876.86206 0.059762
3877.46704 0.059774
3878.07104 0.059787
3878.67603 0.0598
3879.28101 0.059813
3879.88501 0.059825
3880.48999 0.059836
3881.09497 0.059845
3881.69995 0.059855
3882.30493 0.059864
3882.91089 0.059874
3883.51611 0.059884
3884.12109 0.059893
3884.72705 0.059903
3885.33301 0.059912
3885.93799 0.059922
3886.54395 0.059932
3887.14990 0.059941
3887.75610 0.059951
3888.36206 0.05996
3888.96899 0.05997
3889.57495 0.059979
3890.18091 0.059989
3890.78809 0.059998
3891.39404 0.060008
3892.00098 0.060017
3892.60791 0.060027
3893.21509 0.060036
3893.82202 0.060046
3894.42798 0.060055
3895.03589 0.060065
3895.64307 0.060074
3896.25000 0.060084
3896.85791 0.060093
3897.46509 0.060103
3898.07300 0.060112
3898.68091 0.060122
3899.28809 0.060131
3899.89600 0.060141
3900.50391 0.060141
3901.11304 0.060139
3901.72095 0.060138
3902.32910 0.060136
3902.93701 0.060134
3903.54590 0.060132
3904.15405 0.06013
3904.76294 0.060129
3905.37207 0.060127
3905.98096 0.060125
3906.59009 0.060123
3907.19897 0.060121
3907.80811 0.060119
3908.41699 0.060118
3909.02588 0.060116
3909.63599 0.060114
3910.24512 0.06011
3910.85498 0.060105
3911.46509 0.0601
3912.07397 0.060095
3912.68408 0.06009
3913.29395 0.060085
3913.90503 0.060079
3914.51489 0.060074
3915.12500 0.060069
3915.73511 0.060064
3916.34595 0.060058
3916.95605 0.060053
3917.56689 0.060048
3918.17798 0.060042
3918.78906 0.060037
3919.39990 0.060032
3920.01001 0.060026
3920.62207 0.060021
3921.23291 0.060015
3921.84399 0.06001
3922.45605 0.060004
3923.06689 0.059999
3923.67896 0.059994
3924.29102 0.059988
3924.90210 0.059982
3925.51392 0.059977
3926.12598 0.059971
3926.73901 0.059966
3927.35107 0.05996
3927.96289 0.059955
3928.57495 0.059949
3929.18799 0.059943
3929.80005 0.059938
3930.41309 0.059934
3931.02588 0.059932
3931.63892 0.059929
3932.25098 0.059927
3932.86499 0.059924
3933.47803 0.059922
3934.09106 0.059919
3934.70410 0.059916
3935.31812 0.059914
3935.93091 0.059911
3936.54492 0.059908
3937.15894 0.059906
3937.77197 0.059903
3938.38599 0.0599
3939.00000 0.059898
3939.61499 0.059895
3940.22900 0.059891
3940.84302 0.059885
3941.45703 0.059879
3942.07202 0.059873
3942.68604 0.059867
3943.30103 0.059861
3943.91602 0.059855
3944.53101 0.059849
3945.14600 0.059843
3945.76099 0.059837
3946.37598 0.059831
3946.99097 0.059825
3947.60596 0.059818
3948.22192 0.059812
3948.83691 0.059806
3949.45288 0.0598
3950.06909 0.059794
3950.68506 0.059788
3951.30103 0.059781
3951.91699 0.059775
3952.53296 0.059769
3953.14893 0.059762
3953.76489 0.059756
3954.38208 0.05975
3954.99805 0.059743
3955.61499 0.059737
3956.23096 0.059731
3956.84790 0.059724
3957.46509 0.059718
3958.08203 0.059711
3958.69897 0.059705
3959.31592 0.059698
3959.93408 0.059692
3960.55103 0.059688
3961.16797 0.059685
3961.78589 0.059682
3962.40405 0.059678
3963.02100 0.059675
3963.63892 0.059671
3964.25708 0.059668
3964.87500 0.059664
3965.49292 0.059661
3966.11206 0.059658
3966.72998 0.059654
3967.34790 0.059651
3967.96704 0.059647
3968.58496 0.059643
3969.20410 0.05964
3969.82300 0.059636
3970.44189 0.05963
3971.06104 0.059624
3971.67993 0.059617
3972.29907 0.05961
3972.91797 0.059603
3973.53809 0.059596
3974.15698 0.059589
3974.77710 0.059582
3975.39600 0.059575
3976.01611 0.059568
3976.63599 0.059561
3977.25610 0.059554
3977.87598 0.059547
3978.49609 0.05954
3979.11694 0.059533
3979.73706 0.059526
3980.35693 0.059519
3980.97803 0.059512
3981.59912 0.059505
3982.21899 0.059498
3982.84009 0.059491
3983.46094 0.059483
3984.08203 0.059476
3984.70288 0.059469
3985.32495 0.059462
3985.94604 0.059455
3986.56689 0.059447
3987.18896 0.05944
3987.81104 0.059433
3988.43188 0.059425
3989.05396 0.059418
3989.67603 0.059411
3990.29810 0.059405
3990.91992 0.059401
3991.54199 0.059396
3992.16504 0.059392
3992.78711 0.059388
3993.40894 0.059384
3994.03198 0.059379
3994.65503 0.059375
3995.27710 0.059371
3995.89990 0.059366
3996.52295 0.059362
3997.14600 0.059358
3997.77002 0.059353
3998.39307 0.059349
3999.01611 0.059344
3999.63989 0.05934
4000.26294 0.059331
4000.88696 0.059317
4001.51001 0.059303
4002.13403 0.059289
4002.75806 0.059274
4003.38208 0.05926
4004.00708 0.059246
4004.63110 0.059232
4005.25488 0.059217
4005.87891 0.059203
4006.50391 0.059189
4007.12891 0.059174
4007.75293 0.05916
4008.37793 0.059146
4009.00293 0.059132
4009.62793 0.059117
4010.25293 0.059103
4010.87793 0.059089
4011.50391 0.059074
4012.12891 0.05906
4012.75488 0.059046
4013.37988 0.059031
4014.00610 0.059017
4014.63208 0.059002
4015.25806 0.058988
4015.88403 0.058974
4016.51001 0.058959
4017.13599 0.058945
4017.76196 0.05893
4018.38892 0.058916
4019.01489 0.058902
4019.64209 0.058887
4020.26807 0.058874
4020.89502 0.058863
4021.52197 0.058852
4022.14893 0.05884
4022.77588 0.058829
4023.40308 0.058818
4024.03003 0.058806
4024.65796 0.058795
4025.28491 0.058784
4025.91309 0.058772
4026.54102 0.058761
4027.16797 0.05875
4027.79590 0.058738
4028.42407 0.058727
4029.05200 0.058715
4029.67993 0.058704
4030.30811 0.058692
4030.93701 0.05868
4031.56494 0.058668
4032.19409 0.058655
4032.82202 0.058643
4033.45093 0.058631
4034.08008 0.058618
4034.70898 0.058606
4035.33789 0.058594
4035.96704 0.058581
4036.59595 0.058569
4037.22510 0.058557
4037.85498 0.058544
4038.48389 0.058532
4039.11401 0.05852
4039.74390 0.058507
4040.37402 0.058495
4041.00293 0.058482
4041.63403 0.05847
4042.26294 0.058457
4042.89404 0.058445
4043.52393 0.058433
4044.15503 0.05842
4044.78491 0.058408
4045.41602 0.058395
4046.04590 0.058383
4046.67700 0.05837
4047.30811 0.058358
4047.93896 0.058345
4048.57007 0.058333
4049.20093 0.05832
4049.83301 0.058308
4050.46411 0.058298
4051.09497 0.058288
4051.72705 0.058279
4052.35889 0.058269
4052.98999 0.05826
4053.62207 0.05825
4054.25391 0.058241
4054.88599 0.058232
4055.51807 0.058222
4056.15088 0.058213
4056.78296 0.058203
4057.41602 0.058194
4058.04810 0.058184
4058.68091 0.058175
4059.31299 0.058165
4059.94604 0.058156
4060.57910 0.058143
4061.21191 0.058131
4061.84497 0.058118
4062.47900 0.058105
4063.11206 0.058093
4063.74609 0.05808
4064.37891 0.058067
4065.01294 0.058054
4065.64600 0.058042
4066.28003 0.058029
4066.91406 0.058016
4067.54810 0.058003
4068.18188 0.057991
4068.81689 0.057978
4069.45093 0.057965
4070.08496 0.057952
4070.71997 0.057939
4071.35498 0.057927
4071.98999 0.057914
4072.62402 0.057901
4073.25903 0.057888
4073.89404 0.057875
4074.52905 0.057862
4075.16504 0.057849
4075.80005 0.057837
4076.43506 0.057824
4077.07104 0.057811
4077.70703 0.057798
4078.34204 0.057785
4078.97803 0.057772
4079.61401 0.057759
4080.25000 0.057748
4080.88599 0.057738
4081.52197 0.057728
4082.15894 0.057718
4082.79492 0.057708
4083.43188 0.057698
4084.06812 0.057689
4084.70508 0.057679
4085.34204 0.057669
4085.97900 0.057659
4086.61597 0.057649
4087.25293 0.057639
4087.88989 0.05763
4088.52710 0.05762
4089.16504 0.05761
4089.80200 0.0576
4090.43994 0.057588
4091.07788 0.057575
4091.71509 0.057562
4092.35303 0.057549
4092.99097 0.057535
4093.62891 0.057522
4094.26807 0.057509
4094.90601 0.057496
4095.54395 0.057483
4096.18311 0.05747
4096.82080 0.057457
4097.45996 0.057444
4098.09912 0.05743
4098.73779 0.057417
4099.37695 0.057404
4100.01611 0.057391
4100.65479 0.057387
4101.29395 0.057383
4101.93408 0.057379
4102.57324 0.057375
4103.21289 0.057371
4103.85303 0.057368
4104.49316 0.057364
4105.13184 0.05736
4105.77197 0.057356
4106.41309 0.057352
4107.05322 0.057348
4107.69287 0.057344
4108.33301 0.05734
4108.97412 0.057336
4109.61377 0.057332
4110.25488 0.057329
4110.89600 0.057328
4111.53711 0.057328
4112.17822 0.057327
4112.81885 0.057326
4113.45996 0.057325
4114.10205 0.057324
4114.74316 0.057323
4115.38379 0.057322
4116.02588 0.057321
4116.66699 0.057321
4117.31006 0.05732
4117.95117 0.057319
4118.59277 0.057318
4119.23486 0.057317
4119.87695 0.057316
4120.52002 0.057313
4121.16309 0.057309
4121.80518 0.057305
4122.44678 0.0573
4123.08984 0.057296
4123.73291 0.057292
4124.37598 0.057288
4125.01904 0.057284
4125.66211 0.05728
4126.30518 0.057276
4126.94824 0.057272
4127.59180 0.057268
4128.23486 0.057263
4128.87891 0.057259
4129.52197 0.057255
4130.16699 0.057251
4130.81104 0.057247
4131.45508 0.057243
4132.09912 0.057239
4132.74316 0.057234
4133.38721 0.05723
4134.03076 0.057226
4134.67578 0.057222
4135.31982 0.057218
4135.96484 0.057214
4136.60986 0.057209
4137.25488 0.057205
4137.89990 0.057201
4138.54492 0.057197
4139.18994 0.057193
4139.83496 0.057188
4140.48096 0.057184
4141.12598 0.05718
4141.77197 0.057176
4142.41797 0.057172
4143.06299 0.057167
4143.70898 0.057163
4144.35498 0.057159
4145.00195 0.057155
4145.64795 0.05715
4146.29395 0.057146
4146.93994 0.057142
4147.58691 0.057138
4148.23389 0.057133
4148.87988 0.057129
4149.52686 0.057125
4150.17383 0.057122
4150.82080 0.05712
4151.46777 0.057119
4152.11621 0.057118
4152.76318 0.057117
4153.41113 0.057116
4154.05811 0.057115
4154.70605 0.057114
4155.35400 0.057113
4156.00098 0.057111
4156.64893 0.05711
4157.29688 0.057109
4157.94482 0.057108
4158.59277 0.057107
4159.24219 0.057106
4159.89014 0.057105
4160.53906 0.057101
4161.18701 0.057096
4161.83594 0.057092
4162.48486 0.057088
4163.13379 0.057083
4163.78320 0.057079
4164.43213 0.057075
4165.08203 0.05707
4165.73096 0.057066
4166.37988 0.057062
4167.02979 0.057057
4167.67920 0.057053
4168.32910 0.057048
4168.97900 0.057044
4169.62891 0.05704
4170.27881 0.057035
4170.92920 0.057031
4171.58008 0.057026
4172.22998 0.057022
4172.87988 0.057018
4173.53076 0.057013
4174.18213 0.057009
4174.83203 0.057004
4175.48291 0.057
4176.13379 0.056995
4176.78516 0.056991
4177.43701 0.056987
4178.08691 0.056982
4178.73877 0.056978
4179.39111 0.056973
4180.04199 0.056969
4180.69385 0.056968
4181.34619 0.056966
4181.99805 0.056965
4182.64893 0.056964
4183.30078 0.056962
4183.95410 0.056961
4184.60596 0.05696
4185.25781 0.056959
4185.91113 0.056957
4186.56299 0.056956
4187.21582 0.056955
4187.86914 0.056953
4188.52197 0.056952
4189.17480 0.056951
4189.82812 0.056949
4190.48096 0.056945
4191.13379 0.056941
4191.78809 0.056936
4192.44092 0.056932
4193.09521 0.056927
4193.74902 0.056923
4194.40186 0.056918
4195.05615 0.056914
4195.70996 0.056909
4196.36523 0.056904
4197.01904 0.0569
4197.67285 0.056895
4198.32812 0.056891
4198.98193 0.056886
4199.63721 0.056881
4200.29199 0.056874
4200.94580 0.056864
4201.60107 0.056854
4202.25586 0.056844
4202.91113 0.056834
4203.56592 0.056824
4204.22217 0.056813
4204.87695 0.056803
4205.53320 0.056793
4206.18799 0.056783
4206.84424 0.056773
4207.50000 0.056763
4208.15576 0.056752
4208.81299 0.056742
4209.46777 0.056732
4210.12500 0.056722
4210.78076 0.056712
4211.43799 0.056701
4212.09424 0.056691
4212.75098 0.056681
4213.40820 0.056671
4214.06396 0.05666
4214.72119 0.05665
4215.37793 0.05664
4216.03613 0.05663
4216.69287 0.056619
4217.35107 0.056609
4218.00781 0.056599
4218.66602 0.056588
4219.32324 0.056578
4219.98096 0.056568
4220.63916 0.056561
4221.29688 0.056553
4221.95508 0.056546
4222.61279 0.056539
4223.27100 0.056532
4223.93018 0.056525
4224.58789 0.056518
4225.24707 0.056511
4225.90576 0.056503
4226.56396 0.056496
4227.22412 0.056489
4227.88281 0.056482
4228.54199 0.056475
4229.20117 0.056467
4229.85986 0.05646
4230.52002 0.056449
4231.17920 0.056438
4231.83887 0.056426
4232.49902 0.056414
4233.15918 0.056402
4233.81787 0.05639
4234.47900 0.056378
4235.13916 0.056366
4235.79883 0.056355
4236.45898 0.056343
4237.12012 0.056331
4237.78076 0.056319
4238.44092 0.056307
4239.10205 0.056295
4239.76318 0.056283
4240.42383 0.056271
4241.08496 0.056259
4241.74609 0.056247
4242.40723 0.056235
4243.06885 0.056224
4243.72998 0.056212
4244.39209 0.0562
4245.05420 0.056188
4245.71484 0.056176
4246.37695 0.056164
4247.04004 0.056152
4247.70215 0.05614
4248.36377 0.056128
4249.02588 0.056116
4249.68799 0.056104
4250.35107 0.056093
4251.01416 0.056085
4251.67578 0.056076
4252.33887 0.056067
4253.00195 0.056058
4253.66602 0.056049
4254.32910 0.05604
4254.99219 0.056032
4255.65479 0.056023
4256.31787 0.056014
4256.98193 0.056005
4257.64600 0.055996
4258.31006 0.055987
4258.97412 0.055978
4259.63818 0.055969
4260.30176 0.055959
4260.96582 0.055947
4261.62988 0.055935
4262.29395 0.055923
4262.95898 0.055911
4263.62402 0.055898
4264.28809 0.055886
4264.95312 0.055874
4265.61816 0.055862
4266.28320 0.05585
4266.94824 0.055838
4267.61279 0.055826
4268.27881 0.055813
4268.94385 0.055801
4269.60986 0.055789
4270.27490 0.055777
4270.94092 0.055765
4271.60693 0.055753
4272.27295 0.05574
4272.93896 0.055728
4273.60498 0.055716
4274.27100 0.055704
4274.93799 0.055692
4275.60400 0.055679
4276.27100 0.055667
4276.93799 0.055655
4277.60400 0.055643
4278.27100 0.05563
4278.93799 0.055618
4279.60498 0.055606
4280.27197 0.055594
4280.93994 0.055581
4281.60693 0.055569
4282.27490 0.055557
4282.94189 0.055545
4283.60986 0.055532
4284.27783 0.05552
4284.94580 0.055508
4285.61377 0.055495
4286.28223 0.055483
4286.95020 0.055471
4287.61914 0.055458
4288.28711 0.055446
4288.95605 0.055434
4289.62402 0.055421
4290.29297 0.055411
4290.96191 0.055401
4291.63086 0.055392
4292.29980 0.055383
4292.96924 0.055374
4293.63818 0.055364
4294.30811 0.055355
4294.97705 0.055346
4295.64697 0.055337
4296.31592 0.055328
4296.98584 0.055318
4297.65576 0.055309
4298.32617 0.0553
4298.99707 0.055291
4299.66699 0.055281
4300.33691 0.055269
4301.00684 0.055254
4301.67822 0.055239
4302.34912 0.055224
4303.02002 0.055209
4303.68994 0.055194
4304.36084 0.055179
4305.03223 0.055164
4305.70410 0.055149
4306.37500 0.055134
4307.04590 0.055119
4307.71680 0.055104
4308.38916 0.055089
4309.06104 0.055074
4309.73193 0.055059
4310.40381 0.055044
4311.07715 0.055028
4311.74902 0.055013
4312.42090 0.054998
4313.09277 0.054983
4313.76611 0.054968
4314.43799 0.054953
4315.11084 0.054938
4315.78418 0.054923
4316.45605 0.054907
4317.12891 0.054892
4317.80176 0.054877
4318.47607 0.054862
4319.14893 0.054847
4319.82178 0.054832
4320.49609 0.054816
4321.16895 0.054801
4321.84277 0.054786
4322.51709 0.054771
4323.18994 0.054756
4323.86377 0.054741
4324.53906 0.054725
4325.21289 0.05471
4325.88721 0.054695
4326.56201 0.05468
4327.23584 0.054664
4327.91113 0.054649
4328.58496 0.054634
4329.25977 0.054619
4329.93506 0.054604
4330.60986 0.054591
4331.28613 0.054579
4331.95996 0.054567
4332.63623 0.054555
4333.31201 0.054543
4333.98682 0.054531
4334.66309 0.054518
4335.33789 0.054506
4336.01514 0.054494
4336.68994 0.054482
4337.36719 0.05447
4338.04297 0.054458
4338.71924 0.054445
4339.39600 0.054433
4340.07178 0.054421
4340.74902 0.054405
4341.42480 0.05439
4342.10205 0.054375
4342.77881 0.054359
4343.45605 0.054344
4344.13281 0.054328
4344.81104 0.054313
4345.48779 0.054298
4346.16602 0.054282
4346.84277 0.054267
4347.52100 0.054252
4348.19922 0.054236
4348.87598 0.054221
4349.55420 0.054205
4350.23193 0.05419
4350.91113 0.054174
4351.58887 0.054159
4352.26807 0.054143
4352.94580 0.054128
4353.62500 0.054113
4354.30322 0.054097
4354.98193 0.054082
4355.66113 0.054066
4356.33984 0.054051
4357.02002 0.054035
4357.69922 0.05402
4358.37793 0.054004
4359.05811 0.053989
4359.73682 0.053973
4360.41699 0.053957
4361.09717 0.053942
4361.77588 0.053926
4362.45703 0.053911
4363.13721 0.053895
4363.81689 0.05388
4364.49707 0.053864
4365.17822 0.053848
4365.85791 0.053833
4366.53906 0.053817
4367.22021 0.053802
4367.89990 0.053786
4368.58203 0.05377
4369.26318 0.053755
4369.94385 0.053739
4370.62500 0.053726
4371.30615 0.053714
4371.98779 0.053701
4372.66895 0.053689
4373.35107 0.053676
4374.03320 0.053664
4374.71484 0.053651
4375.39697 0.053639
4376.07910 0.053626
4376.76123 0.053614
4377.44385 0.053601
4378.12598 0.053588
4378.80908 0.053576
4379.49121 0.053563
4380.17383 0.05355
4380.85693 0.053534
4381.54004 0.053518
4382.22314 0.053503
4382.90576 0.053487
4383.58984 0.053471
4384.27295 0.053455
4384.95703 0.053439
4385.64014 0.053424
4386.32422 0.053408
4387.00781 0.053392
4387.69189 0.053376
4388.37598 0.053361
4389.06006 0.053345
4389.74414 0.053329
4390.42920 0.053313
4391.11279 0.053297
4391.79785 0.053281
4392.48193 0.053266
4393.16699 0.05325
4393.85205 0.053234
4394.53711 0.053218
4395.22217 0.053202
4395.90723 0.053186
4396.59277 0.053171
4397.27783 0.053155
4397.96387 0.053139
4398.64893 0.053123
4399.33496 0.053107
4400.02100 0.053091
4400.70703 0.053073
4401.39307 0.053054
4402.07910 0.053036
4402.76611 0.053017
4403.45215 0.052999
4404.13916 0.05298
4404.82520 0.052962
4405.51221 0.052943
4406.19922 0.052925
4406.88623 0.052906
4407.57324 0.052888
4408.25977 0.052869
4408.94678 0.052851
4409.63379 0.052832
4410.32178 0.052814
4411.00879 0.052795
4411.69678 0.052776
4412.38477 0.052758
4413.07324 0.052739
4413.76123 0.052721
4414.44922 0.052702
4415.13721 0.052684
4415.82617 0.052665
4416.51416 0.052646
4417.20312 0.052628
4417.89111 0.052609
4418.58008 0.052591
4419.26904 0.052572
4419.95801 0.052553
4420.64697 0.052538
4421.33594 0.052522
4422.02490 0.052507
4422.71484 0.052491
4423.40381 0.052475
4424.09424 0.05246
4424.78418 0.052444
4425.47412 0.052429
4426.16406 0.052413
4426.85400 0.052397
4427.54297 0.052382
4428.23389 0.052366
4428.92383 0.05235
4429.61523 0.052335
4430.30518 0.052318
4430.99609 0.052301
4431.68701 0.052284
4432.37793 0.052266
4433.06885 0.052249
4433.75977 0.052231
4434.45117 0.052214
4435.14307 0.052197
4435.83398 0.052179
4436.52490 0.052162
4437.21680 0.052144
4437.90918 0.052127
4438.60107 0.052109
4439.29297 0.052092
4439.98486 0.052074
4440.67676 0.052057
4441.36914 0.052039
4442.06201 0.052022
4442.75391 0.052004
4443.44678 0.051987
4444.14014 0.051969
4444.83301 0.051952
4445.52490 0.051934
4446.21924 0.051917
4446.91211 0.051899
4447.60498 0.051882
4448.29785 0.051864
4448.99219 0.051846
4449.68604 0.051829
4450.37891 0.051811
4451.07324 0.051794
4451.76709 0.051776
4452.46094 0.051759
4453.15479 0.051741
4453.85010 0.051723
4454.54395 0.051706
4455.23779 0.051688
4455.93311 0.05167
4456.62695 0.051653
4457.32178 0.051635
4458.01709 0.051617
4458.71191 0.0516
4459.40820 0.051582
4460.10303 0.051565
4460.79785 0.05155
4461.49414 0.051535
4462.18896 0.051521
4462.88477 0.051506
4463.58105 0.051491
4464.27588 0.051477
4464.97217 0.051462
4465.66797 0.051447
4466.36523 0.051433
4467.06104 0.051418
4467.75684 0.051403
4468.45410 0.051388
4469.14990 0.051374
4469.84717 0.051359
4470.54395 0.051342
4471.24121 0.051324
4471.93799 0.051306
4472.63477 0.051288
4473.33301 0.05127
4474.02979 0.051253
4474.72803 0.051235
4475.42480 0.051217
4476.12305 0.051199
4476.82080 0.051181
4477.51904 0.051163
4478.21680 0.051145
4478.91504 0.051128
4479.61279 0.05111
4480.31201 0.051092
4481.00977 0.051074
4481.70898 0.051056
4482.40820 0.051038
4483.10596 0.05102
4483.80518 0.051002
4484.50391 0.050984
4485.20410 0.050966
4485.90283 0.050948
4486.60205 0.05093
4487.30176 0.050912
4488.00098 0.050894
4488.70117 0.050876
4489.39990 0.050858
4490.10107 0.05084
4490.80078 0.050822
4491.50000 0.050804
4492.20117 0.050786
4492.90088 0.050768
4493.60205 0.05075
4494.30176 0.050732
4495.00293 0.050714
4495.70410 0.050696
4496.40479 0.050678
4497.10498 0.05066
4497.80713 0.050642
4498.50781 0.050624
4499.20898 0.050606
4499.91113 0.050588
4500.61182 0.050575
4501.31396 0.050564
4502.01611 0.050552
4502.71777 0.05054
4503.41895 0.050529
4504.12207 0.050517
4504.82422 0.050505
4505.52588 0.050494
4506.22900 0.050482
4506.93115 0.05047
4507.63379 0.050459
4508.33594 0.050447
4509.04004 0.050435
4509.74219 0.050424
4510.44482 0.050414
4511.14795 0.050405
4511.85205 0.050396
4512.55518 0.050388
4513.25879 0.050379
4513.96191 0.05037
4514.66602 0.050362
4515.37012 0.050353
4516.07422 0.050344
4516.77783 0.050336
4517.48193 0.050327
4518.18701 0.050318
4518.89111 0.050309
4519.59619 0.050301
4520.29980 0.050291
4521.00488 0.050279
4521.70898 0.050267
4522.41504 0.050255
4523.12012 0.050244
4523.82520 0.050232
4524.52979 0.05022
4525.23486 0.050208
4525.94092 0.050196
4526.64600 0.050185
4527.35303 0.050173
4528.05811 0.050161
4528.76416 0.050149
4529.47021 0.050137
4530.17578 0.050126
4530.88184 0.050114
4531.58887 0.050102
4532.29492 0.05009
4533.00195 0.050078
4533.70801 0.050067
4534.41602 0.050055
4535.12305 0.050043
4535.83008 0.050031
4536.53711 0.050019
4537.24414 0.050007
4537.95117 0.049995
4538.65918 0.049984
4539.36621 0.049972
4540.07422 0.04996
4540.78223 0.049948
4541.49023 0.049936
4542.19824 0.049924
4542.90576 0.049912
4543.61377 0.049901
4544.32324 0.049889
4545.03076 0.049877
4545.74023 0.049865
4546.44824 0.049853
4547.15723 0.049841
4547.86621 0.049829
4548.57520 0.049817
4549.28418 0.049806
4549.99414 0.049794
4550.70312 0.049782
4551.41211 0.04977
4552.12207 0.049758
4552.83203 0.049746
4553.54199 0.049734
4554.25098 0.049722
4554.96094 0.04971
4555.67090 0.049698
4556.38184 0.049686
4557.09180 0.049674
4557.80176 0.049663
4558.51318 0.049651
4559.22412 0.049639
4559.93506 0.049627
4560.64600 0.049617
4561.35596 0.049608
4562.06689 0.0496
4562.77881 0.049591
4563.49023 0.049582
4564.20215 0.049573
4564.91309 0.049564
4565.62500 0.049555
4566.33594 0.049546
4567.04785 0.049537
4567.76123 0.049528
4568.47314 0.049519
4569.18506 0.04951
4569.89697 0.049501
4570.60986 0.049489
4571.32178 0.049477
4572.03516 0.049465
4572.74805 0.049453
4573.46094 0.049441
4574.17383 0.049429
4574.88721 0.049417
4575.60010 0.049405
4576.31299 0.049393
4577.02686 0.049381
4577.74023 0.049369
4578.45410 0.049357
4579.16797 0.049345
4579.88184 0.049332
4580.59619 0.04932
4581.31006 0.049308
4582.02393 0.049296
4582.73877 0.049284
4583.45312 0.049272
4584.16699 0.04926
4584.88184 0.049248
4585.59717 0.049236
4586.31201 0.049224
4587.02686 0.049212
4587.74219 0.0492
4588.45801 0.049187
4589.17285 0.049175
4589.88818 0.049163
4590.60400 0.049151
4591.31885 0.049139
4592.03516 0.049127
4592.75098 0.049115
4593.46680 0.049103
4594.18311 0.049091
4594.89893 0.049078
4595.61621 0.049066
4596.33301 0.049054
4597.04883 0.049042
4597.76611 0.04903
4598.48193 0.049018
4599.19922 0.049006
4599.91699 0.048994
4600.63379 0.048984
4601.35107 0.048974
4602.06787 0.048964
4602.78613 0.048955
4603.50293 0.048945
4604.22119 0.048935
4604.93896 0.048926
4605.65723 0.048916
4606.37500 0.048906
4607.09277 0.048897
4607.81104 0.048887
4608.52881 0.048877
4609.24805 0.048867
4609.96680 0.048858
4610.68506 0.048851
4611.40381 0.048844
4612.12305 0.048837
4612.84180 0.048831
4613.56104 0.048824
4614.27979 0.048817
4615.00000 0.04881
4615.71924 0.048804
4616.43896 0.048797
4617.15918 0.04879
4617.87793 0.048784
4618.59912 0.048777
4619.31787 0.04877
4620.03906 0.048763
4620.75879 0.048753
4621.47900 0.048744
4622.20020 0.048734
4622.91992 0.048724
4623.64111 0.048714
4624.36182 0.048704
4625.08301 0.048695
4625.80420 0.048685
4626.52490 0.048675
4627.24707 0.048665
4627.96777 0.048656
4628.68896 0.048646
4629.41113 0.048636
4630.13281 0.048626
4630.85400 0.048615
4631.57715 0.048605
4632.29883 0.048594
4633.02100 0.048584
4633.74316 0.048573
4634.46484 0.048563
4635.18799 0.048552
4635.91113 0.048541
4636.63281 0.048531
4637.35596 0.04852
4638.07910 0.04851
4638.80176 0.048499
4639.52490 0.048488
4640.24902 0.048478
4640.97217 0.048467
4641.69580 0.048456
4642.41895 0.048446
4643.14307 0.048435
4643.86719 0.048425
4644.59082 0.048414
4645.31494 0.048403
4646.04004 0.048393
4646.76416 0.048382
4647.48779 0.048371
4648.21289 0.048361
4648.93799 0.04835
4649.66211 0.04834
4650.38721 0.048329
4651.11182 0.048318
4651.83691 0.048308
4652.56299 0.048297
4653.28809 0.048286
4654.01318 0.048276
4654.73877 0.048265
4655.46484 0.048254
4656.18994 0.048244
4656.91699 0.048233
4657.64307 0.048222
4658.36914 0.048212
4659.09521 0.048201
4659.82080 0.04819
4660.54688 0.04818
4661.27393 0.048169
4662.00098 0.048158
4662.72803 0.048148
4663.45508 0.048137
4664.18213 0.048126
4664.90918 0.048116
4665.63623 0.048105
4666.36279 0.048094
4667.09082 0.048084
4667.81885 0.048073
4668.54590 0.048062
4669.27393 0.048051
4670.00195 0.048041
4670.72998 0.048033
4671.45801 0.048025
4672.18701 0.048018
4672.91504 0.04801
4673.64404 0.048002
4674.37207 0.047994
4675.10107 0.047987
4675.83008 0.047979
4676.55908 0.047971
4677.28809 0.047963
4678.01709 0.047956
4678.74707 0.047948
4679.47607 0.04794
4680.20605 0.047931
4680.93506 0.047921
4681.66504 0.04791
4682.39502 0.047899
4683.12500 0.047888
4683.85498 0.047878
4684.58496 0.047867
4685.31494 0.047856
4686.04590 0.047845
4686.77588 0.047834
4687.50684 0.047824
4688.23779 0.047813
4688.96924 0.047802
4689.70020 0.047791
4690.43115 0.047781
4691.16211 0.04777
4691.89404 0.047759
4692.62500 0.047748
4693.35596 0.047737
4694.08789 0.047727
4694.81982 0.047716
4695.55176 0.047705
4696.28418 0.047694
4697.01611 0.047683
4697.74902 0.047672
4698.48096 0.047662
4699.21289 0.047651
4699.94580 0.04764
4700.67920 0.04763
4701.41211 0.047619
4702.14502 0.047609
4702.87793 0.047598
4703.61084 0.047588
4704.34424 0.047577
4705.07812 0.047567
4705.81104 0.047556
4706.54492 0.047546
4707.27881 0.047535
4708.01318 0.047525
4708.74707 0.047515
4709.47998 0.047504
4710.21484 0.047494
4710.94922 0.047483
4711.68408 0.047473
4712.41797 0.047462
4713.15283 0.047452
4713.88818 0.047441
4714.62305 0.047431
4715.35693 0.04742
4716.09277 0.04741
4716.82812 0.047399
4717.56299 0.047389
4718.29883 0.047378
4719.03418 0.047368
4719.77002 0.047357
4720.50586 0.047347
4721.24219 0.047336
4721.97803 0.047326
4722.71387 0.047315
4723.45020 0.047305
4724.18701 0.047294
4724.92285 0.047284
4725.66016 0.047273
4726.39600 0.047263
4727.13281 0.047252
4727.87109 0.047242
4728.60693 0.047231
4729.34521 0.047221
4730.08203 0.04721
4730.81885 0.0472
4731.55713 0.047189
4732.29492 0.047179
4733.03320 0.047168
4733.77100 0.047157
4734.50781 0.047147
4735.24707 0.047136
4735.98486 0.047126
4736.72314 0.047115
4737.46094 0.047105
4738.20020 0.047094
4738.93896 0.047084
4739.67822 0.047073
4740.41699 0.047064
4741.15576 0.047057
4741.89502 0.047049
4742.63379 0.047041
4743.37402 0.047034
4744.11279 0.047026
4744.85303 0.047019
4745.59180 0.047011
4746.33203 0.047003
4747.07178 0.046996
4747.81201 0.046988
4748.55176 0.04698
4749.29297 0.046973
4750.03320 0.046965
4750.77393 0.046954
4751.51416 0.046944
4752.25488 0.046933
4752.99609 0.046923
4753.73682 0.046912
4754.47803 0.046901
4755.21924 0.046891
4755.96094 0.04688
4756.70215 0.046869
4757.44385 0.046859
4758.18604 0.046848
4758.92676 0.046838
4759.66895 0.046827
4760.41113 0.046816
4761.15283 0.046806
4761.89600 0.046795
4762.63818 0.046784
4763.38086 0.046774
4764.12305 0.046763
4764.86621 0.046752
4765.60889 0.046742
4766.35205 0.046731
4767.09521 0.04672
4767.83789 0.04671
4768.58203 0.046699
4769.32520 0.046689
4770.06787 0.046678
4770.81201 0.046667
4771.55615 0.046656
4772.29980 0.046646
4773.04395 0.046635
4773.78809 0.046624
4774.53223 0.046614
4775.27588 0.046603
4776.02100 0.046592
4776.76611 0.046582
4777.50977 0.046571
4778.25488 0.04656
4779.00000 0.04655
4779.74512 0.046539
4780.49023 0.046528
4781.23584 0.046518
4781.98096 0.046507
4782.72705 0.046496
4783.47217 0.046485
4784.21777 0.046475
4784.96387 0.046464
4785.70996 0.046453
4786.45605 0.046443
4787.20215 0.046432
4787.94824 0.046421
4788.69482 0.04641
4789.44092 0.0464
4790.18799 0.046389
4790.93506 0.046378
4791.68213 0.046367
4792.42920 0.046357
4793.17578 0.046346
4793.92285 0.046335
4794.67090 0.046324
4795.41797 0.046314
4796.16602 0.046303
4796.91406 0.046292
4797.66211 0.046281
4798.41016 0.046271
4799.15820 0.04626
4799.90576 0.046249
4800.65381 0.046236
4801.40186 0.046223
4802.15088 0.04621
4802.89990 0.046197
4803.64795 0.046184
4804.39697 0.046171
4805.14600 0.046158
4805.89600 0.046144
4806.64502 0.046131
4807.39404 0.046118
4808.14404 0.046105
4808.89307 0.046092
4809.64307 0.046079
4810.39307 0.046067
4811.14307 0.046057
4811.89307 0.046047
4812.64307 0.046037
4813.39404 0.046026
4814.14404 0.046016
4814.89404 0.046006
4815.64502 0.045996
4816.39600 0.045985
4817.14600 0.045975
4817.89697 0.045965
4818.64893 0.045955
4819.39990 0.045944
4820.15088 0.045934
4820.90283 0.04592
4821.65381 0.045907
4822.40576 0.045894
4823.15820 0.045881
4823.91016 0.045868
4824.66211 0.045854
4825.41406 0.045841
4826.16699 0.045828
4826.91895 0.045815
4827.67090 0.045802
4828.42383 0.045788
4829.17676 0.045775
4829.93018 0.045762
4830.68311 0.045749
4831.43604 0.045735
4832.18896 0.045721
4832.94189 0.045708
4833.69580 0.045694
4834.44922 0.04568
4835.20312 0.045667
4835.95703 0.045653
4836.71094 0.04564
4837.46484 0.045626
4838.21924 0.045612
4838.97314 0.045599
4839.72803 0.045585
4840.48193 0.045572
4841.23682 0.045558
4841.99219 0.045544
4842.74707 0.045531
4843.50098 0.045517
4844.25684 0.045503
4845.01221 0.04549
4845.76709 0.045476
4846.52295 0.045462
4847.27783 0.045449
4848.03418 0.045435
4848.79004 0.045421
4849.54590 0.045408
4850.30176 0.045394
4851.05811 0.04538
4851.81396 0.045367
4852.57080 0.045353
4853.32715 0.045339
4854.08398 0.045326
4854.84082 0.045312
4855.59814 0.045298
4856.35400 0.045284
4857.11182 0.045271
4857.86914 0.045257
4858.62598 0.045243
4859.38379 0.04523
4860.14209 0.045216
4860.89893 0.045202
4861.65723 0.045188
4862.41504 0.045175
4863.17285 0.045161
4863.93115 0.045147
4864.68896 0.045133
4865.44824 0.04512
4866.20703 0.045106
4866.96484 0.045092
4867.72412 0.045078
4868.48291 0.045065
4869.24219 0.045051
4870.00098 0.045037
4870.75977 0.045023
4871.52002 0.04501
4872.27881 0.044996
4873.03906 0.044982
4873.79785 0.044968
4874.55811 0.044955
4875.31787 0.044941
4876.07812 0.044927
4876.83789 0.044913
4877.59912 0.044899
4878.35889 0.044886
4879.12012 0.044872
4879.87988 0.044858
4880.64111 0.044844
4881.40186 0.044831
4882.16309 0.044817
4882.92383 0.044803
4883.68604 0.044789
4884.44678 0.044775
4885.20801 0.044762
4885.97021 0.044748
4886.73096 0.044734
4887.49414 0.04472
4888.25488 0.044706
4889.01807 0.044692
4889.77979 0.044679
4890.54199 0.044667
4891.30518 0.044656
4892.06689 0.044645
4892.83008 0.044634
4893.59277 0.044623
4894.35498 0.044612
4895.11914 0.044601
4895.88184 0.04459
4896.64502 0.044579
4897.40820 0.044568
4898.17188 0.044557
4898.93604 0.044546
4899.69922 0.044535
4900.46289 0.04452
4901.22705 0.044502
4901.99121 0.044483
4902.75488 0.044465
4903.52002 0.044446
4904.28418 0.044428
4905.04883 0.04441
4905.81299 0.044391
4906.57910 0.044373
4907.34277 0.044355
4908.10791 0.044336
4908.87402 0.044318
4909.63916 0.044299
4910.40381 0.044281
4911.16992 0.044262
4911.93604 0.044244
4912.70215 0.044226
4913.46680 0.044207
4914.23291 0.044189
4915.00000 0.04417
4915.76611 0.044152
4916.53223 0.044133
4917.29883 0.044115
4918.06494 0.044096
4918.83203 0.044078
4919.59912 0.044059
4920.36621 0.044041
4921.13281 0.044023
4921.89990 0.044004
4922.66699 0.043986
4923.43506 0.043967
4924.20312 0.043949
4924.97021 0.04393
4925.73779 0.043912
4926.50586 0.043893
4927.27393 0.043875
4928.04199 0.043856
4928.81104 0.043838
4929.57910 0.043819
4930.34814 0.043801
4931.11621 0.043782
4931.88477 0.043764
4932.65381 0.043745
4933.42285 0.043727
4934.19189 0.043708
4934.96094 0.04369
4935.72998 0.043671
4936.50000 0.043652
4937.27002 0.043634
4938.04004 0.043615
4938.80908 0.043597
4939.57910 0.043578
4940.34912 0.04356
4941.12012 0.043541
4941.89014 0.043523
4942.66016 0.043504
4943.43115 0.043486
4944.20215 0.043467
4944.97217 0.043448
4945.74316 0.04343
4946.51416 0.043411
4947.28613 0.043393
4948.05713 0.043374
4948.82812 0.043355
4949.60010 0.043337
4950.37207 0.043318
4951.14307 0.0433
4951.91504 0.043281
4952.68701 0.043262
4953.45898 0.043244
4954.23096 0.043225
4955.00391 0.043207
4955.77588 0.043188
4956.54883 0.043169
4957.32178 0.043151
4958.09521 0.043132
4958.86816 0.043113
4959.64111 0.043095
4960.41406 0.043076
4961.18701 0.043057
4961.96094 0.043039
4962.73389 0.04302
4963.50781 0.043001
4964.28223 0.042983
4965.05615 0.042964
4965.83008 0.042945
4966.60400 0.042927
4967.37793 0.042908
4968.15283 0.042889
4968.92676 0.04287
4969.70215 0.042852
4970.47705 0.042833
4971.25195 0.042814
4972.02686 0.042796
4972.80176 0.042777
4973.57715 0.042758
4974.35303 0.042739
4975.12793 0.042721
4975.90381 0.042702
4976.68018 0.042683
4977.45605 0.042664
4978.23096 0.042646
4979.00684 0.042627
4979.78418 0.042608
4980.56006 0.042589
4981.33594 0.042571
4982.11279 0.042552
4982.89014 0.042533
4983.66699 0.042514
4984.44385 0.042496
4985.22119 0.042477
4985.99805 0.042458
4986.77490 0.042439
4987.55322 0.04242
4988.33105 0.042402
4989.10791 0.042383
4989.88623 0.042364
4990.66406 0.042348
4991.44189 0.042332
4992.22021 0.042316
4992.99902 0.042299
4993.77686 0.042283
4994.55518 0.042267
4995.33398 0.042251
4996.11279 0.042235
4996.89209 0.042219
4997.67090 0.042203
4998.45020 0.042187
4999.22900 0.042171
5000.00781 0.042155
5000.78809 0.042145
5001.56787 0.042134
5002.34814 0.042124
5003.12695 0.042113
5003.90723 0.042103
5004.68799 0.042092
5005.46777 0.042081
5006.24805 0.042071
5007.02783 0.04206
5007.80908 0.04205
5008.58984 0.042039
5009.37109 0.042029
5010.15186 0.042018
5010.93311 0.042008
5011.71387 0.041997
5012.49609 0.041987
5013.27686 0.041976
5014.05908 0.041966
5014.83984 0.041955
5015.62207 0.041945
5016.40381 0.041934
5017.18604 0.041924
5017.96777 0.041913
5018.75000 0.041903
5019.53320 0.041892
5020.31494 0.041882
5021.09814 0.041871
5021.88086 0.041861
5022.66406 0.04185
5023.44678 0.041839
5024.22998 0.041829
5025.01318 0.041818
5025.79688 0.041808
5026.58105 0.041797
5027.36377 0.041787
5028.14795 0.041776
5028.93213 0.041766
5029.71582 0.041755
5030.50000 0.041744
5031.28418 0.041733
5032.06787 0.041722
5032.85303 0.04171
5033.63818 0.041699
5034.42188 0.041688
5035.20801 0.041676
5035.99219 0.041665
5036.77686 0.041654
5037.56299 0.041642
5038.34814 0.041631
5039.13281 0.04162
5039.91895 0.041608
5040.70508 0.041597
5041.49121 0.041586
5042.27686 0.041575
5043.06299 0.041563
5043.84912 0.041552
5044.63477 0.041541
5045.42188 0.041529
5046.20801 0.041518
5046.99512 0.041507
5047.78223 0.041495
5048.56885 0.041484
5049.35596 0.041473
5050.14307 0.041461
5050.93115 0.04145
5051.71777 0.041439
5052.50586 0.041427
5053.29297 0.041416
5054.08105 0.041405
5054.86914 0.041393
5055.65723 0.041382
5056.44482 0.041371
5057.23389 0.041359
5058.02197 0.041348
5058.81104 0.041337
5059.60010 0.041325
5060.38818 0.041314
5061.17676 0.041303
5061.96582 0.041291
5062.75488 0.04128
5063.54395 0.041269
5064.33398 0.041257
5065.12402 0.041246
5065.91309 0.041235
5066.70312 0.041223
5067.49316 0.041212
5068.28320 0.0412
5069.07324 0.041189
5069.86279 0.041178
5070.65381 0.041166
5071.44385 0.041155
5072.23486 0.041144
5073.02588 0.041132
5073.81689 0.041121
5074.60791 0.04111
5075.39893 0.041098
5076.18994 0.041087
5076.98096 0.041075
5077.77295 0.041064
5078.56396 0.041053
5079.35596 0.041041
5080.14795 0.04103
5080.93994 0.041019
5081.73193 0.041007
5082.52490 0.040996
5083.31689 0.040984
5084.10889 0.040973
5084.90186 0.040962
5085.69482 0.04095
5086.48779 0.040939
5087.28076 0.040928
5088.07422 0.040916
5088.86719 0.040905
5089.66113 0.040893
5090.45410 0.040882
5091.24805 0.040871
5092.04199 0.040859
5092.83496 0.040848
5093.62891 0.040836
5094.42285 0.040825
5095.21777 0.040814
5096.01221 0.040802
5096.80713 0.040791
5097.60107 0.04078
5098.39600 0.040768
5099.19092 0.040757
5099.98584 0.040745
5100.78076 0.040728
5101.57617 0.04071
5102.37109 0.040692
5103.16699 0.040674
5103.96191 0.040657
5104.75781 0.040639
5105.55420 0.040621
5106.35010 0.040603
5107.14600 0.040585
5107.94189 0.040568
5108.73877 0.04055
5109.53516 0.040532
5110.33203 0.040514
5111.12793 0.040496
5111.92480 0.040479
5112.72217 0.040461
5113.51904 0.040443
5114.31592 0.040425
5115.11377 0.040407
5115.91113 0.04039
5116.70898 0.040372
5117.50586 0.040354
5118.30420 0.040336
5119.10303 0.040318
5119.89990 0.0403
5120.69922 0.040283
5121.49707 0.040265
5122.29492 0.040247
5123.09424 0.040229
5123.89307 0.040211
5124.69092 0.040193
5125.49121 0.040175
5126.29004 0.040158
5127.08887 0.04014
5127.88818 0.040122
5128.68799 0.040104
5129.48682 0.040086
5130.28711 0.040069
5131.08594 0.040054
5131.88721 0.040039
5132.68701 0.040024
5133.48682 0.040009
5134.28711 0.039993
5135.08789 0.039978
5135.88818 0.039963
5136.68896 0.039948
5137.49023 0.039933
5138.29102 0.039917
5139.09180 0.039902
5139.89307 0.039887
5140.69385 0.039869
5141.49609 0.039852
5142.29688 0.039834
5143.09912 0.039816
5143.90088 0.039798
5144.70312 0.03978
5145.50488 0.039762
5146.30713 0.039744
5147.10889 0.039726
5147.91211 0.039708
5148.71387 0.03969
5149.51709 0.039672
5150.31982 0.039654
5151.12305 0.039636
5151.92578 0.039619
5152.72900 0.039601
5153.53320 0.039583
5154.33594 0.039565
5155.14014 0.039547
5155.94287 0.039529
5156.74707 0.039511
5157.55078 0.039493
5158.35498 0.039475
5159.15918 0.039457
5159.96289 0.039439
5160.76807 0.039421
5161.57324 0.039403
5162.37695 0.039385
5163.18213 0.039367
5163.98682 0.039349
5164.79199 0.039331
5165.59717 0.039313
5166.40283 0.039295
5167.20801 0.039277
5168.01416 0.039259
5168.81885 0.039241
5169.62500 0.039224
5170.43115 0.039206
5171.23682 0.039188
5172.04297 0.03917
5172.85010 0.039152
5173.65576 0.039134
5174.46289 0.039116
5175.27002 0.039098
5176.07715 0.039079
5176.88281 0.039061
5177.68994 0.039043
5178.49805 0.039025
5179.30518 0.039007
5180.11279 0.038989
5180.91992 0.038971
5181.72803 0.038953
5182.53613 0.038935
5183.34424 0.038917
5184.15186 0.038899
5184.95996 0.038881
5185.76904 0.038863
5186.57715 0.038845
5187.38477 0.038827
5188.19385 0.038809
5189.00293 0.038791
5189.81201 0.038773
5190.62109 0.038755
5191.43018 0.038737
5192.24023 0.038719
5193.04883 0.038701
5193.85889 0.038683
5194.66797 0.038665
5195.47900 0.038646
5196.28906 0.038628
5197.09912 0.03861
5197.90918 0.038592
5198.71924 0.038574
5199.52979 0.038556
5200.33984 0.03854
5201.15088 0.038528
5201.96191 0.038516
5202.77295 0.038504
5203.58398 0.038491
5204.39502 0.038479
5205.20703 0.038467
5206.01807 0.038454
5206.83008 0.038442
5207.64209 0.03843
5208.45410 0.038418
5209.26611 0.038405
5210.07812 0.038393
5210.89014 0.038381
5211.70215 0.038368
5212.51514 0.038356
5213.32715 0.038344
5214.14014 0.038331
5214.95312 0.038319
5215.76611 0.038307
5216.57910 0.038295
5217.39307 0.038282
5218.20605 0.03827
5219.02002 0.038258
5219.83301 0.038245
5220.64697 0.038233
5221.46094 0.038221
5222.27490 0.038208
5223.08887 0.038196
5223.90283 0.038184
5224.71777 0.038171
5225.53223 0.038159
5226.34717 0.038147
5227.16211 0.038134
5227.97705 0.038122
5228.79199 0.03811
5229.60693 0.038097
5230.42188 0.038085
5231.23779 0.038073
5232.05322 0.038061
5232.86914 0.038048
5233.68506 0.038036
5234.50000 0.038024
5235.31689 0.038012
5236.13281 0.038
5236.94922 0.037987
5237.76611 0.037975
5238.58301 0.037963
5239.39893 0.037951
5240.21582 0.037939
5241.03320 0.037926
5241.85010 0.037914
5242.66699 0.037902
5243.48389 0.03789
5244.30176 0.037878
5245.12012 0.037865
5245.93701 0.037853
5246.75488 0.037841
5247.57324 0.037829
5248.39111 0.037817
5249.20898 0.037804
5250.02783 0.037792
5250.84619 0.03778
5251.66504 0.037768
5252.48389 0.037756
5253.30322 0.037743
5254.12207 0.037731
5254.94092 0.037719
5255.75977 0.037707
5256.58008 0.037694
5257.39893 0.037682
5258.21924 0.03767
5259.03809 0.037658
5259.85791 0.037645
5260.67822 0.037633
5261.49902 0.037621
5262.31885 0.037609
5263.13916 0.037597
5263.95898 0.037584
5264.77979 0.037572
5265.60107 0.03756
5266.42188 0.037548
5267.24316 0.037535
5268.06396 0.037523
5268.88623 0.037511
5269.70703 0.037499
5270.52783 0.037486
5271.35010 0.037474
5272.17188 0.037462
5272.99414 0.03745
5273.81592 0.037437
5274.63818 0.037425
5275.45996 0.037413
5276.28320 0.037401
5277.10498 0.037388
5277.92822 0.037376
5278.75098 0.037364
5279.57422 0.037351
5280.39697 0.037339
5281.22119 0.037327
5282.04395 0.037315
5282.86719 0.037302
5283.69092 0.03729
5284.51514 0.037278
5285.33789 0.037265
5286.16309 0.037253
5286.98682 0.037241
5287.81104 0.037228
5288.63477 0.037216
5289.45996 0.037204
5290.28516 0.037192
5291.10889 0.037179
5291.93408 0.037167
5292.75879 0.037155
5293.58398 0.037142
5294.41016 0.03713
5295.23486 0.037118
5296.06104 0.037105
5296.88623 0.037093
5297.71191 0.037081
5298.53809 0.037068
5299.36377 0.037056
5300.18994 0.037044
5301.01709 0.037035
5301.84277 0.037026
5302.66895 0.037016
5303.49609 0.037007
5304.32324 0.036998
5305.14990 0.036988
5305.97705 0.036979
5306.80420 0.03697
5307.63184 0.03696
5308.45898 0.036951
5309.28711 0.036942
5310.11377 0.036932
5310.94189 0.036923
5311.77100 0.036914
5312.59912 0.036904
5313.42676 0.036895
5314.25488 0.036886
5315.08301 0.036876
5315.91211 0.036867
5316.74121 0.036857
5317.56982 0.036848
5318.39893 0.036839
5319.22803 0.036829
5320.05713 0.03682
5320.88721 0.036811
5321.71582 0.036801
5322.54590 0.036792
5323.37598 0.036783
5324.20605 0.036773
5325.03613 0.036764
5325.86621 0.036754
5326.69580 0.036745
5327.52686 0.036736
5328.35693 0.036726
5329.18799 0.036717
5330.01904 0.036708
5330.85010 0.036698
5331.68115 0.036689
5332.51221 0.036679
5333.34277 0.03667
5334.17480 0.036661
5335.00586 0.036651
5335.83789 0.036642
5336.66992 0.036632
5337.50195 0.036623
5338.33398 0.036614
5339.16699 0.036604
5339.99902 0.036595
5340.83203 0.036585
5341.66406 0.036576
5342.49707 0.036567
5343.33008 0.036557
5344.16309 0.036548
5344.99609 0.036538
5345.82910 0.036529
5346.66309 0.03652
5347.49609 0.03651
5348.33008 0.036501
5349.16406 0.036491
5349.99805 0.036482
5350.83203 0.036472
5351.66602 0.036463
5352.50000 0.036453
5353.33496 0.036444
5354.16895 0.036435
5355.00391 0.036425
5355.83887 0.036416
5356.67383 0.036406
5357.50879 0.036397
5358.34424 0.036387
5359.18018 0.036378
5360.01514 0.036368
5360.85107 0.036359
5361.68701 0.036349
5362.52197 0.03634
5363.35889 0.03633
5364.19482 0.036321
5365.03076 0.036311
5365.86816 0.036302
5366.70410 0.036292
5367.54102 0.036283
5368.37695 0.036274
5369.21387 0.036264
5370.05176 0.036255
5370.88916 0.036245
5371.72607 0.036235
5372.56299 0.036226
5373.40088 0.036216
5374.23877 0.036207
5375.07715 0.036197
5375.91504 0.036188
5376.75293 0.036178
5377.59082 0.036169
5378.43018 0.036159
5379.26807 0.03615
5380.10693 0.03614
5380.94482 0.036131
5381.78418 0.036121
5382.62402 0.036112
5383.46191 0.036102
5384.30176 0.036093
5385.14111 0.036083
5385.98096 0.036074
5386.82080 0.036064
5387.66016 0.036055
5388.50000 0.036045
5389.33984 0.036036
5390.18115 0.036026
5391.02100 0.036017
5391.86084 0.036007
5392.70215 0.035998
5393.54297 0.035988
5394.38379 0.035978
5395.22510 0.035969
5396.06592 0.035959
5396.90723 0.03595
5397.74902 0.03594
5398.58984 0.035931
5399.43213 0.035921
5400.27295 0.035912
5401.11523 0.035902
5401.95801 0.035893
5402.79883 0.035883
5403.64209 0.035873
5404.48389 0.035864
5405.32715 0.035854
5406.16895 0.035845
5407.01221 0.035835
5407.85498 0.035826
5408.69922 0.035816
5409.54199 0.035806
5410.38477 0.035797
5411.22900 0.035787
5412.07178 0.035778
5412.91602 0.035768
5413.75977 0.035758
5414.60400 0.035749
5415.44824 0.035739
5416.29199 0.03573
5417.13721 0.03572
5417.98096 0.035711
5418.82617 0.035701
5419.67090 0.035691
5420.51611 0.035682
5421.36084 0.035672
5422.20605 0.035662
5423.05078 0.035653
5423.89697 0.035643
5424.74219 0.035634
5425.58789 0.035624
5426.43408 0.035614
5427.27979 0.035605
5428.12598 0.035595
5428.97217 0.035585
5429.81885 0.035576
5430.66504 0.035566
5431.51221 0.035557
5432.35889 0.035547
5433.20605 0.035537
5434.05322 0.035528
5434.89990 0.035518
5435.74707 0.035508
5436.59521 0.035498
5437.44189 0.035489
5438.29004 0.035479
5439.13818 0.035469
5439.98584 0.03546
5440.83398 0.03545
5441.68213 0.03544
5442.52979 0.035431
5443.37891 0.035421
5444.22803 0.035411
5445.07617 0.035402
5445.92480 0.035392
5446.77393 0.035382
5447.62402 0.035373
5448.47314 0.035363
5449.32178 0.035353
5450.17188 0.035343
5451.02100 0.035334
5451.87109 0.035324
5452.72119 0.035314
5453.57080 0.035305
5454.42090 0.035295
5455.27197 0.035285
5456.12305 0.035275
5456.97314 0.035266
5457.82422 0.035256
5458.67480 0.035246
5459.52588 0.035236
5460.37695 0.035227
5461.22803 0.035217
5462.08008 0.035207
5462.93115 0.035197
5463.78320 0.035188
5464.63477 0.035178
5465.48682 0.035168
5466.33887 0.035158
5467.19092 0.035149
5468.04297 0.035139
5468.89600 0.035129
5469.74902 0.035119
5470.60107 0.035109
5471.45410 0.0351
5472.30713 0.03509
5473.16016 0.03508
5474.01416 0.03507
5474.86719 0.035061
5475.72021 0.035051
5476.57422 0.035041
5477.42822 0.035031
5478.28223 0.035021
5479.13623 0.035012
5479.99023 0.035002
5480.84521 0.034992
5481.69922 0.034982
5482.55420 0.034972
5483.40820 0.034962
5484.26318 0.034953
5485.11816 0.034943
5485.97314 0.034933
5486.82910 0.034923
5487.68408 0.034913
5488.54004 0.034904
5489.39600 0.034894
5490.25098 0.034884
5491.10693 0.034874
5491.96289 0.034864
5492.81885 0.034854
5493.67578 0.034845
5494.53223 0.034835
5495.38916 0.034825
5496.24609 0.034815
5497.10303 0.034805
5497.95898 0.034795
5498.81592 0.034785
5499.67383 0.034776
5500.53076 0.034766
5501.38916 0.034756
5502.24707 0.034746
5503.10400 0.034736
5503.96191 0.034726
5504.81982 0.034716
5505.67920 0.034706
5506.53711 0.034696
5507.39600 0.034686
5508.25391 0.034676
5509.11279 0.034666
5509.97217 0.034656
5510.83105 0.034646
5511.68994 0.034636
5512.54883 0.034626
5513.40918 0.034616
5514.26807 0.034606
5515.12793 0.034596
5515.98779 0.034586
5516.84814 0.034577
5517.70801 0.034567
5518.56787 0.034557
5519.42822 0.034547
5520.28906 0.034537
5521.14893 0.034527
5522.00977 0.034517
5522.87109 0.034507
5523.73193 0.034497
5524.59277 0.034487
5525.45508 0.034477
5526.31592 0.034467
5527.17822 0.034457
5528.03906 0.034447
5528.90088 0.034437
5529.76318 0.034427
5530.62500 0.034417
5531.48682 0.034407
5532.35010 0.034397
5533.21191 0.034387
5534.07520 0.034377
5534.93799 0.034367
5535.80078 0.034356
5536.66406 0.034346
5537.52686 0.034336
5538.39014 0.034326
5539.25293 0.034316
5540.11719 0.034306
5540.98096 0.034296
5541.84521 0.034286
5542.70801 0.034276
5543.57324 0.034266
5544.43701 0.034256
5545.30078 0.034246
5546.16602 0.034236
5547.03076 0.034226
5547.89600 0.034216
5548.75977 0.034206
5549.62500 0.034196
5550.49121 0.034186
5551.35596 0.034175
5552.22217 0.034165
5553.08691 0.034155
5553.95312 0.034145
5554.81885 0.034135
5555.68506 0.034125
5556.55078 0.034115
5557.41699 0.034105
5558.28418 0.034095
5559.14990 0.034085
5560.01709 0.034075
5560.88379 0.034064
5561.75000 0.034054
5562.61816 0.034044
5563.48486 0.034034
5564.35205 0.034024
5565.22021 0.034014
5566.08691 0.034004
5566.95508 0.033994
5567.82324 0.033984
5568.69092 0.033973
5569.55908 0.033963
5570.42822 0.033952
5571.29590 0.033939
5572.16504 0.033927
5573.03320 0.033914
5573.90186 0.033901
5574.77100 0.033889
5575.64014 0.033876
5576.50977 0.033864
5577.37891 0.033851
5578.24902 0.033838
5579.11816 0.033826
5579.98779 0.033813
5580.85791 0.033803
5581.72803 0.033793
5582.59814 0.033783
5583.46777 0.033772
5584.33887 0.033762
5585.20898 0.033752
5586.08105 0.033742
5586.95117 0.033732
5587.82178 0.033722
5588.69287 0.033712
5589.56396 0.033701
5590.43604 0.033691
5591.30811 0.033681
5592.17920 0.033671
5593.05078 0.033661
5593.92285 0.033651
5594.79492 0.03364
5595.66699 0.03363
5596.54004 0.03362
5597.41309 0.03361
5598.28516 0.0336
5599.15820 0.03359
5600.03076 0.033579
5600.90381 0.033569
5601.77686 0.033559
5602.64990 0.033549
5603.52393 0.033539
5604.39697 0.033528
5605.27100 0.033518
5606.14502 0.033508
5607.01904 0.033498
5607.89307 0.033488
5608.76807 0.033478
5609.64209 0.033467
5610.51709 0.033457
5611.39111 0.033447
5612.26611 0.033437
5613.14111 0.033426
5614.01611 0.033416
5614.89111 0.033406
5615.76709 0.033396
5616.64209 0.033386
5617.51807 0.033375
5618.39404 0.033365
5619.27002 0.033355
5620.14600 0.033345
5621.02197 0.033335
5621.89795 0.033324
5622.77490 0.033314
5623.65088 0.033304
5624.52783 0.033294
5625.40479 0.033283
5626.28223 0.033273
5627.15918 0.033263
5628.03613 0.033253
5628.91406 0.033242
5629.79199 0.033232
5630.66895 0.033221
5631.54688 0.03321
5632.42480 0.033199
5633.30322 0.033188
5634.18115 0.033177
5635.06006 0.033166
5635.93799 0.033155
5636.81689 0.033144
5637.69580 0.033133
5638.57520 0.033122
5639.45410 0.033111
5640.33301 0.0331
5641.21191 0.033089
5642.09180 0.033078
5642.97119 0.033067
5643.85107 0.033056
5644.73096 0.033045
5645.61084 0.033034
5646.49121 0.033023
5647.37207 0.033012
5648.25195 0.033
5649.13184 0.032989
5650.01318 0.032978
5650.89404 0.032967
5651.77490 0.032956
5652.65576 0.032945
5653.53711 0.032934
5654.41895 0.032923
5655.29980 0.032912
5656.18213 0.032901
5657.06396 0.03289
5657.94580 0.032879
5658.82812 0.032868
5659.70996 0.032857
5660.59180 0.032846
5661.47510 0.032835
5662.35693 0.032824
5663.24023 0.032813
5664.12305 0.032802
5665.00586 0.03279
5665.89014 0.032779
5666.77295 0.032768
5667.65576 0.032757
5668.54004 0.032746
5669.42383 0.032735
5670.30811 0.032724
5671.19092 0.032713
5672.07617 0.032702
5672.95996 0.032691
5673.84424 0.03268
5674.72900 0.032669
5675.61377 0.032658
5676.49902 0.032646
5677.38281 0.032635
5678.26904 0.032624
5679.15381 0.032613
5680.03906 0.032602
5680.92480 0.032591
5681.81104 0.03258
5682.69580 0.032569
5683.58203 0.032558
5684.46777 0.032547
5685.35400 0.032535
5686.24121 0.032524
5687.12695 0.032513
5688.01416 0.032502
5688.90088 0.032491
5689.78809 0.03248
5690.67480 0.032469
5691.56201 0.032458
5692.44922 0.032446
5693.33691 0.032435
5694.22510 0.032424
5695.11182 0.032413
5696.00000 0.032402
5696.88818 0.032391
5697.77588 0.03238
5698.66504 0.032369
5699.55322 0.032357
5700.44092 0.032346
5701.33008 0.032335
5702.21924 0.032324
5703.10791 0.032313
5703.99707 0.032302
5704.88623 0.032291
5705.77588 0.03228
5706.66602 0.032268
5707.55518 0.032257
5708.44482 0.032246
5709.33496 0.032235
5710.22510 0.032224
5711.11523 0.032213
5712.00488 0.032202
5712.89600 0.032191
5713.78711 0.032179
5714.67822 0.032168
5715.56787 0.032157
5716.45898 0.032146
5717.35107 0.032135
5718.24219 0.032124
5719.13379 0.032113
5720.02490 0.032101
5720.91699 0.032088
5721.80908 0.032074
5722.70117 0.032061
5723.59277 0.032047
5724.48486 0.032034
5725.37793 0.03202
5726.27100 0.032007
5727.16309 0.031993
5728.05615 0.031979
5728.94922 0.031966
5729.84180 0.031952
5730.73584 0.031941
5731.62891 0.03193
5732.52197 0.031918
5733.41699 0.031907
5734.31006 0.031896
5735.20410 0.031885
5736.09814 0.031874
5736.99316 0.031863
5737.88721 0.031851
5738.78223 0.03184
5739.67578 0.031829
5740.57080 0.031818
5741.46582 0.031807
5742.36084 0.031796
5743.25586 0.031785
5744.15186 0.031773
5745.04688 0.031762
5745.94287 0.031751
5746.83887 0.03174
5747.73486 0.031729
5748.63086 0.031718
5749.52686 0.031706
5750.42285 0.031695
5751.31982 0.031684
5752.21680 0.031673
5753.11279 0.031662
5754.00977 0.031651
5754.90723 0.031639
5755.80518 0.031628
5756.70215 0.031617
5757.60010 0.031606
5758.49707 0.031595
5759.39502 0.031584
5760.29297 0.031572
5761.19092 0.031561
5762.08887 0.03155
5762.98682 0.031539
5763.88623 0.031528
5764.78418 0.031517
5765.68311 0.031505
5766.58203 0.031494
5767.48096 0.031483
5768.37988 0.031472
5769.27881 0.031461
5770.17920 0.03145
5771.07910 0.031438
5771.97900 0.031427
5772.87793 0.031416
5773.77783 0.031405
5774.67822 0.031394
5775.57910 0.031382
5776.47900 0.031371
5777.37891 0.03136
5778.27979 0.031349
5779.18115 0.031338
5780.08203 0.031327
5780.98291 0.031315
5781.88477 0.031304
5782.78613 0.031293
5783.68799 0.031282
5784.58887 0.031271
5785.49121 0.031259
5786.39307 0.031248
5787.29492 0.031237
5788.19678 0.031226
5789.10010 0.031215
5790.00195 0.031203
5790.90479 0.031192
5791.80811 0.031181
5792.71094 0.03117
5793.61377 0.031159
5794.51709 0.031147
5795.41992 0.031136
5796.32422 0.031125
5797.22803 0.031114
5798.13086 0.031103
5799.03613 0.031091
5799.93896 0.03108
5800.84424 0.031069
5801.74805 0.031058
5802.65283 0.031047
5803.55713 0.031035
5804.46191 0.031024
5805.36719 0.031013
5806.27197 0.031002
5807.17676 0.030991
5808.08301 0.030979
5808.98779 0.030968
5809.89404 0.030957
5810.79883 0.030946
5811.70605 0.030935
5812.61084 0.030923
5813.51807 0.030912
5814.42383 0.030901
5815.33105 0.03089
5816.23682 0.030879
5817.14404 0.030867
5818.05078 0.030856
5818.95801 0.030845
5819.86523 0.030834
5820.77197 0.03082
5821.68018 0.030807
5822.58691 0.030793
5823.49512 0.03078
5824.40283 0.030766
5825.31104 0.030753
5826.21924 0.030739
5827.12793 0.030725
5828.03613 0.030712
5828.94482 0.030698
5829.85400 0.030685
5830.76221 0.030673
5831.67090 0.030663
5832.58105 0.030652
5833.49023 0.030641
5834.39893 0.03063
5835.30908 0.03062
5836.21924 0.030609
5837.12793 0.030598
5838.03906 0.030587
5838.94922 0.030576
5839.85889 0.030566
5840.77002 0.030555
5841.68018 0.030544
5842.59082 0.030533
5843.50195 0.030522
5844.41309 0.030512
5845.32422 0.030501
5846.23486 0.03049
5847.14600 0.030479
5848.05811 0.030468
5848.97021 0.030458
5849.88184 0.030447
5850.79395 0.030436
5851.70605 0.030425
5852.61816 0.030414
5853.53076 0.030404
5854.44287 0.030393
5855.35596 0.030382
5856.26904 0.030371
5857.18213 0.03036
5858.09521 0.03035
5859.00781 0.030339
5859.92188 0.030328
5860.83496 0.030317
5861.74902 0.030306
5862.66309 0.030296
5863.57715 0.030285
5864.49121 0.030274
5865.40479 0.030263
5866.31982 0.030252
5867.23389 0.030241
5868.14893 0.030231
5869.06396 0.03022
5869.97900 0.030209
5870.89404 0.030198
5871.81006 0.030187
5872.72510 0.030177
5873.64111 0.030166
5874.55615 0.030155
5875.47217 0.030144
5876.38818 0.030133
5877.30420 0.030123
5878.22119 0.030112
5879.13721 0.030101
5880.05420 0.03009
5880.97021 0.030079
5881.88721 0.030069
5882.80420 0.030058
5883.72119 0.030047
5884.63916 0.030036
5885.55615 0.030025
5886.47412 0.030014
5887.39111 0.030004
5888.30908 0.029993
5889.22705 0.029982
5890.14502 0.029971
5891.06299 0.02996
5891.98193 0.029949
5892.89990 0.029939
5893.81885 0.029928
5894.73779 0.029917
5895.65723 0.029906
5896.57617 0.029895
5897.49609 0.029884
5898.41504 0.029874
5899.33398 0.029863
5900.25391 0.029851
5901.17383 0.029838
5902.09424 0.029825
5903.01416 0.029812
5903.93506 0.029799
5904.85498 0.029786
5905.77588 0.029772
5906.69580 0.029759
5907.61719 0.029746
5908.53809 0.029733
5909.45898 0.02972
5910.38086 0.029708
5911.30176 0.029697
5912.22412 0.029686
5913.14600 0.029675
5914.06689 0.029664
5914.98877 0.029653
5915.91211 0.029643
5916.83398 0.029632
5917.75586 0.029621
5918.67920 0.02961
5919.60205 0.029599
5920.52393 0.029589
5921.44824 0.029578
5922.37109 0.029567
5923.29395 0.029556
5924.21680 0.029545
5925.14111 0.029534
5926.06494 0.029524
5926.98877 0.029513
5927.91309 0.029502
5928.83691 0.029491
5929.76123 0.02948
5930.68604 0.029469
5931.60986 0.029459
5932.53516 0.029448
5933.45996 0.029437
5934.38477 0.029426
5935.31006 0.029415
5936.23486 0.029404
5937.16113 0.029394
5938.08594 0.029383
5939.01221 0.029372
5939.93799 0.029361
5940.86377 0.02935
5941.79102 0.029339
5942.71680 0.029329
5943.64404 0.029318
5944.56982 0.029307
5945.49707 0.029296
5946.42383 0.029285
5947.35107 0.029275
5948.27783 0.029264
5949.20605 0.029253
5950.13281 0.029242
5951.06104 0.029231
5951.98779 0.02922
5952.91602 0.029209
5953.84424 0.029199
5954.77197 0.029188
5955.70117 0.029177
5956.62891 0.029166
5957.55811 0.029155
5958.48682 0.029144
5959.41602 0.029134
5960.34521 0.029123
5961.27393 0.029112
5962.20410 0.029101
5963.13281 0.02909
5964.06299 0.029079
5964.99316 0.029069
5965.92188 0.029058
5966.85303 0.029047
5967.78320 0.029036
5968.71289 0.029025
5969.64404 0.029014
5970.57422 0.029002
5971.50488 0.028989
5972.43604 0.028976
5973.36719 0.028963
5974.29883 0.02895
5975.22998 0.028937
5976.16211 0.028923
5977.09277 0.02891
5978.02490 0.028897
5978.95703 0.028884
5979.88916 0.028871
5980.82178 0.02886
5981.75391 0.028849
5982.68701 0.028838
5983.61914 0.028827
5984.55176 0.028816
5985.48486 0.028806
5986.41797 0.028795
5987.35205 0.028784
5988.28516 0.028773
5989.21924 0.028762
5990.15186 0.028751
5991.08594 0.028741
5992.02002 0.02873
5992.95508 0.028719
5993.88916 0.028708
5994.82324 0.028697
5995.75781 0.028686
5996.69189 0.028675
5997.62695 0.028665
5998.56299 0.028654
5999.49805 0.028643
6000.43311 0.028633
6001.36914 0.028625
6002.30420 0.028617
6003.24023 0.028609
6004.17578 0.028601
6005.11182 0.028592
6006.04785 0.028584
6006.98389 0.028576
6007.92090 0.028568
6008.85693 0.028559
6009.79395 0.028551
6010.73096 0.028543
6011.66797 0.028535
6012.60596 0.028527
6013.54297 0.028518
6014.47998 0.02851
6015.41797 0.028502
6016.35596 0.028494
6017.29395 0.028486
6018.23193 0.028477
6019.16992 0.028469
6020.10889 0.028461
6021.04688 0.028453
6021.98584 0.028444
6022.92480 0.028436
6023.86377 0.028428
6024.80322 0.02842
6025.74219 0.028411
6026.68213 0.028403
6027.62207 0.028395
6028.56104 0.028387
6029.50098 0.028379
6030.44092 0.028369
6031.38086 0.028358
6032.32080 0.028347
6033.26221 0.028337
6034.20312 0.028326
6035.14307 0.028315
6036.08398 0.028304
6037.02490 0.028293
6037.96582 0.028282
6038.90820 0.028272
6039.84912 0.028261
6040.79102 0.028252
6041.73193 0.028243
6042.67383 0.028235
6043.61719 0.028226
6044.55908 0.028218
6045.50098 0.028209
6046.44385 0.0282
6047.38623 0.028192
6048.32910 0.028183
6049.27197 0.028175
6050.21484 0.028166
6051.15918 0.028158
6052.10205 0.028149
6053.04492 0.02814
6053.98877 0.028132
6054.93311 0.028123
6055.87695 0.028115
6056.82080 0.028106
6057.76514 0.028097
6058.70996 0.028089
6059.65381 0.02808
6060.59912 0.028072
6061.54395 0.028063
6062.48877 0.028054
6063.43408 0.028046
6064.37891 0.028037
6065.32520 0.028029
6066.27100 0.02802
6067.21582 0.028011
6068.16211 0.028003
6069.10791 0.027994
6070.05420 0.027985
6071.00000 0.027977
6071.94678 0.027968
6072.89404 0.02796
6073.83984 0.027951
6074.78809 0.027942
6075.73389 0.027934
6076.68213 0.027925
6077.62891 0.027916
6078.57715 0.027908
6079.52393 0.027899
6080.47217 0.02789
6081.41992 0.027882
6082.36816 0.027873
6083.31592 0.027865
6084.26514 0.027856
6085.21289 0.027847
6086.16211 0.027839
6087.11084 0.02783
6088.06006 0.027821
6089.00879 0.027813
6089.95801 0.027804
6090.90820 0.027793
6091.85693 0.027782
6092.80713 0.027771
6093.75684 0.02776
6094.70703 0.027749
6095.65723 0.027739
6096.60693 0.027728
6097.55811 0.027717
6098.50879 0.027706
6099.45898 0.027695
6100.41113 0.027685
6101.36084 0.027676
6102.31299 0.027668
6103.26416 0.027659
6104.21484 0.02765
6105.16699 0.027641
6106.11914 0.027633
6107.07080 0.027624
6108.02295 0.027615
6108.97607 0.027607
6109.92822 0.027598
6110.87988 0.027589
6111.83301 0.02758
6112.78613 0.027572
6113.73877 0.027563
6114.69189 0.027554
6115.64600 0.027546
6116.59912 0.027537
6117.55176 0.027528
6118.50586 0.027519
6119.45996 0.027511
6120.41406 0.027502
6121.36816 0.027493
6122.32324 0.027485
6123.27686 0.027476
6124.23193 0.027467
6125.18701 0.027458
6126.14209 0.02745
6127.09717 0.027441
6128.05176 0.027432
6129.00684 0.027423
6129.96289 0.027415
6130.91797 0.027406
6131.87402 0.027397
6132.83008 0.027388
6133.78613 0.02738
6134.74316 0.027371
6135.69922 0.027362
6136.65576 0.027353
6137.61182 0.027344
6138.56885 0.027336
6139.52588 0.027327
6140.48291 0.027318
6141.43994 0.027309
6142.39795 0.027301
6143.35498 0.027292
6144.31299 0.027283
6145.27100 0.027274
6146.22900 0.027265
6147.18799 0.027257
6148.14600 0.027248
6149.10400 0.027239
6150.06299 0.02723
6151.02197 0.027219
6151.98096 0.027208
6152.93994 0.027197
6153.89893 0.027186
6154.85889 0.027175
6155.81787 0.027164
6156.77783 0.027153
6157.73779 0.027142
6158.69824 0.027131
6159.65820 0.02712
6160.61816 0.02711
6161.57910 0.027101
6162.54004 0.027092
6163.50000 0.027084
6164.46094 0.027075
6165.42188 0.027066
6166.38281 0.027057
6167.34521 0.027048
6168.30615 0.027039
6169.26807 0.027031
6170.22900 0.027022
6171.19092 0.027013
6172.15381 0.027004
6173.11621 0.026995
6174.07910 0.026986
6175.04102 0.026977
6176.00391 0.026969
6176.96582 0.02696
6177.93018 0.026951
6178.89307 0.026942
6179.85596 0.026933
6180.81885 0.026924
6181.78320 0.026915
6182.74707 0.026906
6183.71094 0.026898
6184.67480 0.026889
6185.63916 0.02688
6186.60400 0.026871
6187.56787 0.026862
6188.53320 0.026853
6189.49805 0.026844
6190.46191 0.026835
6191.42676 0.026826
6192.39307 0.026817
6193.35791 0.026808
6194.32422 0.0268
6195.29004 0.026791
6196.25488 0.026782
6197.22119 0.026773
6198.18799 0.026764
6199.15381 0.026755
6200.12012 0.026746
6201.08691 0.026735
6202.05420 0.026723
6203.02100 0.026712
6203.98682 0.026701
6204.95508 0.02669
6205.92188 0.026679
6206.89014 0.026668
6207.85693 0.026657
6208.82520 0.026645
6209.79297 0.026634
6210.76123 0.026625
6211.72900 0.026616
6212.69824 0.026607
6213.66699 0.026598
6214.63477 0.026589
6215.60400 0.02658
6216.57324 0.026571
6217.54199 0.026562
6218.51221 0.026553
6219.48096 0.026544
6220.45117 0.026535
6221.41992 0.026526
6222.39111 0.026517
6223.35986 0.026508
6224.33105 0.026499
6225.30078 0.02649
6226.27197 0.026481
6227.24316 0.026472
6228.21289 0.026463
6229.18408 0.026454
6230.15479 0.026445
6231.12695 0.026436
6232.09814 0.026427
6233.06982 0.026419
6234.04199 0.02641
6235.01416 0.026401
6235.98486 0.026392
6236.95801 0.026383
6237.93018 0.026374
6238.90186 0.026365
6239.87500 0.026356
6240.84814 0.026346
6241.82080 0.026335
6242.79395 0.026324
6243.76807 0.026312
6244.74121 0.026301
6245.71387 0.02629
6246.68799 0.026279
6247.66211 0.026268
6248.63623 0.026257
6249.60986 0.026246
6250.58398 0.026236
6251.55908 0.026227
6252.53418 0.026218
6253.50781 0.02621
6254.48291 0.026201
6255.45801 0.026192
6256.43408 0.026183
6257.40918 0.026174
6258.38477 0.026165
6259.35986 0.026156
6260.33594 0.026147
6261.31201 0.026138
6262.28906 0.026129
6263.26514 0.02612
6264.24121 0.026111
6265.21777 0.026102
6266.19385 0.026093
6267.17090 0.026084
6268.14795 0.026075
6269.12500 0.026066
6270.10303 0.026057
6271.08105 0.026048
6272.05811 0.026039
6273.03613 0.02603
6274.01416 0.026021
6274.99219 0.026012
6275.97119 0.026003
6276.94922 0.025994
6277.92822 0.025985
6278.90576 0.025976
6279.88477 0.025967
6280.86377 0.025958
6281.84277 0.025949
6282.82324 0.02594
6283.80176 0.025931
6284.78223 0.025922
6285.76221 0.025913
6286.74219 0.025904
6287.72217 0.025895
6288.70215 0.025886
6289.68311 0.025877
6290.66309 0.025867
6291.64404 0.025855
6292.62500 0.025844
6293.60596 0.025833
6294.58691 0.025822
6295.56787 0.02581
6296.54980 0.025799
6297.53223 0.025788
6298.51318 0.025777
6299.49512 0.025766
6300.47803 0.025755
6301.45898 0.025746
6302.44189 0.025737
6303.42480 0.025728
6304.40723 0.025719
6305.39014 0.02571
6306.37305 0.025701
6307.35596 0.025692
6308.33984 0.025683
6309.32324 0.025674
6310.30713 0.025664
6311.29102 0.025655
6312.27393 0.025646
6313.25879 0.025637
6314.24316 0.025628
6315.22803 0.025619
6316.21191 0.02561
6317.19678 0.025601
6318.18213 0.025591
6319.16699 0.025582
6320.15186 0.025573
6321.13721 0.025564
6322.12305 0.025555
6323.10791 0.025546
6324.09424 0.025537
6325.08008 0.025527
6326.06592 0.025518
6327.05176 0.025509
6328.03906 0.0255
6329.02490 0.025491
6330.01221 0.025481
6330.99902 0.02547
6331.98584 0.025459
6332.97314 0.025447
6333.95996 0.025436
6334.94824 0.025425
6335.93604 0.025413
6336.92285 0.025402
6337.91113 0.025391
6338.89893 0.025379
6339.88818 0.025368
6340.87598 0.025359
6341.86523 0.025349
6342.85303 0.02534
6343.84180 0.025331
6344.83105 0.025322
6345.81982 0.025312
6346.81006 0.025303
6347.79883 0.025294
6348.78906 0.025285
6349.77783 0.025276
6350.76904 0.025266
6351.75879 0.025257
6352.74902 0.025248
6353.73877 0.025239
6354.72998 0.025229
6355.72119 0.02522
6356.71094 0.025211
6357.70312 0.025201
6358.69385 0.025192
6359.68506 0.025183
6360.67578 0.025174
6361.66797 0.025164
6362.66016 0.025155
6363.65186 0.025146
6364.64404 0.025136
6365.63623 0.025127
6366.62891 0.025118
6367.62109 0.025108
6368.61377 0.025099
6369.60693 0.02509
6370.60010 0.025079
6371.59277 0.025068
6372.58594 0.025056
6373.58008 0.025045
6374.57422 0.025033
6375.56689 0.025022
6376.56201 0.02501
6377.55615 0.024999
6378.54980 0.024987
6379.54395 0.024976
6380.53906 0.024966
6381.53418 0.024956
6382.52783 0.024947
6383.52295 0.024937
6384.51904 0.024928
6385.51416 0.024919
6386.50977 0.024909
6387.50488 0.0249
6388.50098 0.024891
6389.49707 0.024881
6390.49316 0.024872
6391.49023 0.024862
6392.48584 0.024853
6393.48193 0.024843
6394.47900 0.024834
6395.47607 0.024825
6396.47314 0.024815
6397.47119 0.024806
6398.46777 0.024796
6399.46484 0.024787
6400.46289 0.024777
6401.46094 0.024768
6402.45898 0.024759
6403.45703 0.024749
6404.45605 0.02474
6405.45410 0.02473
6406.45312 0.024721
6407.45117 0.024711
6408.45020 0.024702
6409.44922 0.024692
6410.44922 0.024682
6411.44824 0.02467
6412.44824 0.024659
6413.44678 0.024647
6414.44678 0.024635
6415.44678 0.024624
6416.44678 0.024612
6417.44824 0.024601
6418.44824 0.024589
6419.44922 0.024577
6420.45020 0.024567
6421.45117 0.024557
6422.45215 0.024548
6423.45312 0.024538
6424.45508 0.024529
6425.45605 0.024519
6426.45801 0.024509
6427.45996 0.0245
6428.46191 0.02449
6429.46387 0.024481
6430.46582 0.024471
6431.46924 0.024461
6432.47217 0.024451
6433.47510 0.024441
6434.47803 0.024431
6435.47998 0.024421
6436.48389 0.024411
6437.48682 0.024401
6438.49121 0.024391
6439.49512 0.024381
6440.49902 0.024371
6441.50293 0.024361
6442.50684 0.024351
6443.51221 0.024341
6444.51611 0.024331
6445.52100 0.024321
6446.52588 0.024311
6447.53076 0.0243
6448.53613 0.02429
6449.54102 0.02428
6450.54688 0.024269
6451.55176 0.024257
6452.55811 0.024245
6453.56396 0.024233
6454.56982 0.02422
6455.57715 0.024208
6456.58301 0.024196
6457.58984 0.024184
6458.59619 0.024172
6459.60400 0.02416
6460.60986 0.024149
6461.61816 0.024139
6462.62500 0.024128
6463.63184 0.024118
6464.64014 0.024108
6465.64795 0.024098
6466.65576 0.024088
6467.66406 0.024078
6468.67188 0.024068
6469.68115 0.024057
6470.68896 0.024047
6471.69922 0.024037
6472.70801 0.024027
6473.71680 0.024017
6474.72607 0.024007
6475.73486 0.023996
6476.74512 0.023986
6477.75391 0.023976
6478.76514 0.023966
6479.77393 0.023956
6480.78516 0.023945
6481.79492 0.023935
6482.80615 0.023925
6483.81592 0.023915
6484.82715 0.023905
6485.83789 0.023894
6486.84912 0.023884
6487.86084 0.023874
6488.87207 0.023864
6489.88379 0.023853
6490.89600 0.023841
6491.90820 0.023829
6492.91895 0.023817
6493.93213 0.023804
6494.94385 0.023792
6495.95703 0.02378
6496.97021 0.023767
6497.98193 0.023755
6498.99609 0.023743
6500.00879 0.02373
6501.02197 0.023721
6502.03613 0.023713
6503.04883 0.023704
6504.06299 0.023695
6505.07715 0.023686
6506.09082 0.023677
6507.10498 0.023668
6508.12012 0.023659
6509.13477 0.02365
6510.14893 0.023641
6511.16504 0.023632
6512.18018 0.023623
6513.19482 0.023614
6514.20996 0.023605
6515.22607 0.023596
6516.24219 0.023587
6517.25781 0.023578
6518.27295 0.023569
6519.29004 0.02356
6520.30615 0.023551
6521.32324 0.023539
6522.33887 0.023528
6523.35596 0.023517
6524.37402 0.023506
6525.39111 0.023495
6526.40820 0.023484
6527.42480 0.023473
6528.44287 0.023462
6529.46094 0.023451
6530.47900 0.023441
6531.49707 0.023432
6532.51514 0.023423
6533.53418 0.023414
6534.55176 0.023405
6535.57080 0.023396
6536.58984 0.023387
6537.60889 0.023378
6538.62793 0.023369
6539.64697 0.02336
6540.66699 0.023351
6541.68701 0.023342
6542.70703 0.023333
6543.72705 0.023324
6544.74707 0.023315
6545.76709 0.023306
6546.78809 0.023297
6547.80811 0.023288
6548.82910 0.023279
6549.85010 0.02327
6550.87109 0.023261
6551.89307 0.023252
6552.91406 0.023243
6553.93604 0.023234
6554.95801 0.023225
6555.97900 0.023216
6557.00098 0.023207
6558.02393 0.023198
6559.04590 0.023189
6560.06885 0.02318
6561.09082 0.023169
6562.11377 0.023158
6563.13721 0.023147
6564.16113 0.023136
6565.18408 0.023125
6566.20801 0.023114
6567.23096 0.023103
6568.25488 0.023092
6569.27881 0.023081
6570.30322 0.02307
6571.32812 0.023061
6572.35205 0.023052
6573.37598 0.023043
6574.40088 0.023034
6575.42578 0.023025
6576.45215 0.023016
6577.47705 0.023007
6578.50195 0.022998
6579.52783 0.022989
6580.55420 0.02298
6581.58008 0.022971
6582.60498 0.022962
6583.63184 0.022953
6584.65820 0.022944
6585.68506 0.022935
6586.71094 0.022926
6587.73877 0.022917
6588.76611 0.022908
6589.79297 0.022899
6590.81982 0.022888
6591.84814 0.022877
6592.87500 0.022866
6593.90283 0.022855
6594.93115 0.022844
6595.95898 0.022833
6596.98779 0.022822
6598.01611 0.02281
6599.04492 0.022799
6600.07422 0.022788
6601.10303 0.022779
6602.13184 0.02277
6603.16113 0.022761
6604.18994 0.022752
6605.22021 0.022743
6606.25000 0.022734
6607.27979 0.022725
6608.31006 0.022716
6609.33984 0.022707
6610.37109 0.022698
6611.40088 0.022689
6612.43213 0.02268
6613.46289 0.022671
6614.49414 0.022662
6615.52490 0.022653
6616.55713 0.022644
6617.58789 0.022635
6618.62012 0.022626
6619.65088 0.022616
6620.68408 0.022607
6621.71582 0.022598
6622.74805 0.022589
6623.78076 0.02258
6624.81299 0.022571
6625.84619 0.022562
6626.87891 0.022553
6627.91211 0.022544
6628.94482 0.022535
6629.97900 0.022526
6631.01318 0.022514
6632.04590 0.022502
6633.08105 0.02249
6634.11523 0.022478
6635.14893 0.022466
6636.18311 0.022454
6637.21777 0.022442
6638.25195 0.02243
6639.28809 0.022419
6640.32324 0.022407
6641.35791 0.022397
6642.39307 0.022387
6643.42920 0.022377
6644.46387 0.022367
6645.50000 0.022357
6646.53711 0.022348
6647.57324 0.022338
6648.60889 0.022328
6649.64600 0.022318
6650.68213 0.022308
6651.71924 0.022298
6652.75586 0.022288
6653.79297 0.022278
6654.83105 0.022268
6655.86816 0.022258
6656.90576 0.022248
6657.94385 0.022238
6658.98193 0.022228
6660.02002 0.022218
6661.05811 0.022206
6662.09717 0.022194
6663.13477 0.022182
6664.17383 0.02217
6665.21289 0.022158
6666.25195 0.022147
6667.29199 0.022135
6668.33105 0.022123
6669.37109 0.022111
6670.41016 0.0221
6671.45020 0.02209
6672.49023 0.02208
6673.53076 0.02207
6674.57080 0.02206
6675.61182 0.02205
6676.65186 0.02204
6677.69287 0.02203
6678.73389 0.02202
6679.77490 0.02201
6680.81689 0.022
6681.85791 0.02199
6682.89990 0.02198
6683.94189 0.02197
6684.98389 0.02196
6686.02588 0.021951
6687.06885 0.021941
6688.11084 0.021931
6689.15381 0.021921
6690.19678 0.02191
6691.24023 0.021899
6692.28320 0.021887
6693.32617 0.021875
6694.37012 0.021863
6695.41406 0.021851
6696.45801 0.021839
6697.50098 0.021827
6698.54492 0.021815
6699.58984 0.021803
6700.63379 0.021793
6701.67920 0.021783
6702.72412 0.021773
6703.76904 0.021763
6704.81396 0.021753
6705.85889 0.021743
6706.90479 0.021733
6707.95020 0.021723
6708.99609 0.021714
6710.04199 0.021704
6711.08789 0.021694
6712.13379 0.021684
6713.18115 0.021674
6714.22803 0.021664
6715.27393 0.021654
6716.32080 0.021644
6717.36816 0.021634
6718.41602 0.021624
6719.46289 0.021615
6720.51123 0.021604
6721.55811 0.021592
6722.60596 0.02158
6723.65381 0.021568
6724.70312 0.021556
6725.75098 0.021545
6726.79883 0.021533
6727.84814 0.021521
6728.89697 0.021509
6729.94580 0.021497
6730.99512 0.021487
6732.04492 0.021477
6733.09424 0.021467
6734.14404 0.021458
6735.19385 0.021448
6736.24414 0.021438
6737.29395 0.021428
6738.34424 0.021418
6739.39502 0.021408
6740.44580 0.021398
6741.49707 0.021388
6742.54688 0.021379
6743.59912 0.021369
6744.64990 0.021359
6745.70215 0.021349
6746.75293 0.021339
6747.80518 0.021329
6748.85693 0.021319
6749.90918 0.02131
6750.96094 0.021298
6752.01416 0.021286
6753.06689 0.021274
6754.12012 0.021263
6755.17188 0.021251
6756.22607 0.021239
6757.27881 0.021227
6758.33301 0.021215
6759.38623 0.021204
6760.43994 0.021193
6761.49414 0.021183
6762.54785 0.021173
6763.60303 0.021163
6764.65723 0.021153
6765.71094 0.021143
6766.76611 0.021134
6767.82080 0.021124
6768.87598 0.021114
6769.93213 0.021104
6770.98682 0.021094
6772.04199 0.021084
6773.09912 0.021075
6774.15381 0.021065
6775.20996 0.021055
6776.26709 0.021045
6777.32324 0.021035
6778.37988 0.021025
6779.43701 0.021016
6780.49414 0.021005
6781.55078 0.020993
6782.60791 0.020981
6783.66602 0.02097
6784.72314 0.020958
6785.78076 0.020946
6786.83789 0.020934
6787.89600 0.020923
6788.95508 0.020911
6790.01318 0.020899
6791.07178 0.020889
6792.13086 0.02088
6793.18896 0.02087
6794.24902 0.02086
6795.30811 0.02085
6796.36719 0.02084
6797.42676 0.020831
6798.48682 0.020821
6799.54590 0.020811
6800.60596 0.020801
6801.66699 0.020791
6802.72705 0.020782
6803.78809 0.020772
6804.84912 0.020762
6805.90918 0.020752
6806.97021 0.020743
6808.03223 0.020733
6809.09277 0.020723
6810.15479 0.020713
6811.21582 0.020701
6812.27783 0.02069
6813.33984 0.020678
6814.40186 0.020666
6815.46484 0.020655
6816.52686 0.020643
6817.58984 0.020631
6818.65283 0.02062
6819.71582 0.020608
6820.77881 0.020598
6821.84277 0.020588
6822.90576 0.020578
6823.97021 0.020568
6825.03418 0.020559
6826.09814 0.020549
6827.16211 0.020539
6828.22705 0.020529
6829.29102 0.02052
6830.35498 0.02051
6831.41992 0.020501
6832.48486 0.020492
6833.55078 0.020482
6834.61621 0.020473
6835.68213 0.020464
6836.74805 0.020455
6837.81299 0.020446
6838.87891 0.020436
6839.94482 0.020427
6841.01221 0.020416
6842.07910 0.020405
6843.14502 0.020394
6844.21191 0.020383
6845.27881 0.020372
6846.34619 0.020361
6847.41406 0.02035
6848.48096 0.020338
6849.54883 0.020327
6850.61719 0.020317
6851.68506 0.020308
6852.75293 0.020299
6853.82080 0.02029
6854.89014 0.020281
6855.95801 0.020271
6857.02686 0.020262
6858.09619 0.020253
6859.16602 0.020244
6860.23486 0.020234
6861.30420 0.020223
6862.37402 0.020212
6863.44385 0.020201
6864.51416 0.02019
6865.58398 0.020179
6866.65479 0.020168
6867.72510 0.020157
6868.79590 0.020146
6869.86719 0.020135
6870.93701 0.020125
6872.00879 0.020116
6873.08008 0.020107
6874.15186 0.020098
6875.22412 0.020089
6876.29492 0.020079
6877.36719 0.02007
6878.43896 0.020061
6879.51221 0.020052
6880.58398 0.020043
6881.65723 0.020034
6882.72998 0.020024
6883.80322 0.020015
6884.87598 0.020006
6885.95020 0.019997
6887.02295 0.019988
6888.09717 0.019979
6889.17090 0.019969
6890.24512 0.01996
6891.31885 0.019949
6892.39404 0.019938
6893.46777 0.019927
6894.54199 0.019916
6895.61816 0.019905
6896.69189 0.019894
6897.76807 0.019883
6898.84277 0.019872
6899.91895 0.019861
6900.99512 0.019852
6902.06982 0.019842
6903.14600 0.019833
6904.22314 0.019824
6905.29883 0.019815
6906.37500 0.019806
6907.45215 0.019797
6908.52881 0.019788
6909.60596 0.019779
6910.68408 0.01977
6911.76123 0.01976
6912.83789 0.019751
6913.91602 0.019742
6914.99414 0.019733
6916.07178 0.019724
6917.14990 0.019715
6918.22900 0.019706
6919.30713 0.019697
6920.38623 0.019687
6921.46484 0.019676
6922.54395 0.019665
6923.62402 0.019654
6924.70312 0.019643
6925.78223 0.019632
6926.86182 0.019622
6927.94189 0.019611
6929.02197 0.0196
6930.10205 0.019589
6931.18311 0.01958
6932.26318 0.019571
6933.34424 0.019562
6934.42480 0.019553
6935.50586 0.019544
6936.58691 0.019535
6937.66895 0.019526
6938.75000 0.019516
6939.83203 0.019507
6940.91406 0.019497
6941.99609 0.019486
6943.07910 0.019475
6944.16113 0.019464
6945.24414 0.019453
6946.32617 0.019442
6947.40918 0.019432
6948.49219 0.019421
6949.57617 0.01941
6950.65918 0.0194
6951.74316 0.019391
6952.82715 0.019382
6953.91113 0.019373
6954.99512 0.019364
6956.07910 0.019355
6957.16406 0.019346
6958.24805 0.019337
6959.33301 0.019328
6960.41797 0.019319
6961.50293 0.01931
6962.58789 0.019301
6963.67383 0.019292
6964.75879 0.019283
6965.84521 0.019274
6966.93115 0.019265
6968.01807 0.019256
6969.10400 0.019247
6970.18994 0.019237
6971.27686 0.019227
6972.36377 0.019216
6973.45117 0.019205
6974.53809 0.019194
6975.62500 0.019183
6976.71289 0.019173
6977.80078 0.019162
6978.88818 0.019151
6979.97705 0.01914
6981.06396 0.019131
6982.15283 0.019122
6983.24219 0.019113
6984.33008 0.019104
6985.41895 0.019095
6986.50781 0.019086
6987.59717 0.019077
6988.68701 0.019069
6989.77588 0.01906
6990.86621 0.019051
6991.95605 0.019042
6993.04590 0.019033
6994.13623 0.019024
6995.22705 0.019015
6996.31689 0.019006
6997.40820 0.018997
6998.49902 0.018988
6999.58984 0.018979
7000.68115 0.018968
7001.77197 0.018956
7002.86377 0.018944
7003.95605 0.018933
7005.04785 0.018921
7006.14014 0.018909
7007.23193 0.018897
7008.32520 0.018885
7009.41699 0.018873
7010.50977 0.018862
7011.60303 0.018852
7012.69580 0.018842
7013.79004 0.018832
7014.88281 0.018822
7015.97705 0.018812
7017.06982 0.018802
7018.16504 0.018792
7019.25879 0.018782
7020.35303 0.018771
7021.44678 0.018759
7022.54199 0.018748
7023.63721 0.018736
7024.73193 0.018724
7025.82715 0.018712
7026.92188 0.018701
7028.01807 0.018689
7029.11377 0.018677
7030.20898 0.018665
7031.30615 0.018655
7032.40186 0.018644
7033.49805 0.018633
7034.59521 0.018623
7035.69092 0.018612
7036.78809 0.018601
7037.88477 0.01859
7038.98193 0.01858
7040.08008 0.018569
7041.17822 0.018558
7042.27490 0.018548
7043.37305 0.018537
7044.47119 0.018526
7045.56885 0.018516
7046.66797 0.018505
7047.76709 0.018494
7048.86523 0.018484
7049.96387 0.018473
7051.06299 0.018461
7052.16309 0.018448
7053.26221 0.018436
7054.36182 0.018423
7055.46094 0.018411
7056.56201 0.018399
7057.66211 0.018386
7058.76221 0.018374
7059.86182 0.018362
7060.96289 0.018351
7062.06396 0.01834
7063.16504 0.018329
7064.26611 0.018319
7065.36719 0.018308
7066.46924 0.018298
7067.56982 0.018287
7068.67188 0.018276
7069.77393 0.018266
7070.87598 0.018254
7071.97900 0.018242
7073.08203 0.018229
7074.18408 0.018217
7075.28711 0.018205
7076.39014 0.018192
7077.49414 0.01818
7078.59717 0.018168
7079.70020 0.018155
7080.80420 0.018144
7081.90820 0.018134
7083.01221 0.018123
7084.11621 0.018113
7085.22119 0.018102
7086.32617 0.018092
7087.43018 0.018081
7088.53516 0.01807
7089.64014 0.01806
7090.74609 0.018048
7091.85107 0.018036
7092.95703 0.018024
7094.06299 0.018011
7095.16797 0.017999
7096.27393 0.017987
7097.38086 0.017975
7098.48682 0.017963
7099.59424 0.01795
7100.70117 0.017939
7101.80811 0.017929
7102.91504 0.017918
7104.02197 0.017908
7105.12988 0.017897
7106.23779 0.017887
7107.34619 0.017876
7108.45410 0.017866
7109.56201 0.017855
7110.66992 0.017845
7111.77881 0.017835
7112.88818 0.017824
7113.99707 0.017814
7115.10498 0.017803
7116.21484 0.017793
7117.32422 0.017782
7118.43408 0.017772
7119.54395 0.017762
7120.65381 0.01775
7121.76416 0.017738
7122.87402 0.017726
7123.98486 0.017714
7125.09521 0.017702
7126.20605 0.017689
7127.31689 0.017677
7128.42822 0.017665
7129.54004 0.017653
7130.65088 0.017642
7131.76318 0.017632
7132.87500 0.017621
7133.98682 0.017611
7135.09912 0.0176
7136.21094 0.01759
7137.32422 0.01758
7138.43701 0.017569
7139.54883 0.017559
7140.66309 0.017548
7141.77588 0.017536
7142.88916 0.017523
7144.00293 0.017511
7145.11719 0.017499
7146.22998 0.017487
7147.34521 0.017475
7148.45898 0.017463
7149.57324 0.017451
7150.68799 0.01744
7151.80322 0.01743
7152.91797 0.01742
7154.03320 0.017409
7155.14795 0.017399
7156.26416 0.017389
7157.37891 0.017378
7158.49609 0.017368
7159.61084 0.017358
7160.72803 0.017346
7161.84424 0.017334
7162.95996 0.017323
7164.07715 0.017311
7165.19385 0.017299
7166.31201 0.017287
7167.42920 0.017275
7168.54590 0.017263
7169.66406 0.017251
7170.78076 0.01724
7171.89893 0.01723
7173.01807 0.01722
7174.13623 0.017209
7175.25391 0.017199
7176.37305 0.017189
7177.49219 0.017179
7178.60986 0.017168
7179.72998 0.017158
7180.84912 0.017148
7181.96924 0.017138
7183.08789 0.017128
7184.20801 0.017117
7185.32812 0.017107
7186.44824 0.017097
7187.56885 0.017087
7188.68896 0.017076
7189.81006 0.017066
7190.93115 0.017055
7192.05176 0.017043
7193.17285 0.017031
7194.29492 0.017019
7195.41699 0.017007
7196.53809 0.016995
7197.66016 0.016984
7198.78223 0.016972
7199.90479 0.01696
7201.02686 0.01695
7202.14990 0.016939
7203.27197 0.016929
7204.39600 0.016919
7205.51904 0.016909
7206.64209 0.016899
7207.76611 0.016889
7208.88916 0.016879
7210.01318 0.016868
7211.13721 0.016857
7212.26221 0.016845
7213.38623 0.016833
7214.51123 0.016821
7215.63477 0.01681
7216.75977 0.016798
7217.88477 0.016786
7219.01123 0.016774
7220.13623 0.016763
7221.26221 0.016753
7222.38818 0.016743
7223.51416 0.016733
7224.64014 0.016722
7225.76611 0.016712
7226.89307 0.016702
7228.02002 0.016692
7229.14600 0.016682
7230.27295 0.016672
7231.39990 0.016659
7232.52783 0.016647
7233.65479 0.016634
7234.78320 0.016622
7235.91113 0.016609
7237.03906 0.016597
7238.16699 0.016585
7239.29590 0.016572
7240.42383 0.01656
7241.55322 0.01655
7242.68213 0.016539
7243.81201 0.016528
7244.94092 0.016517
7246.06982 0.016507
7247.20020 0.016496
7248.33008 0.016485
7249.45996 0.016474
7250.58984 0.016463
7251.72021 0.01645
7252.85107 0.016438
7253.98193 0.016426
7255.11279 0.016413
7256.24414 0.016401
7257.37500 0.016389
7258.50586 0.016376
7259.63818 0.016364
7260.77002 0.016353
7261.90186 0.016342
7263.03418 0.016332
7264.16699 0.016321
7265.29883 0.01631
7266.43213 0.0163
7267.56396 0.016289
7268.69678 0.016278
7269.83105 0.016268
7270.96387 0.016257
7272.09814 0.016246
7273.23096 0.016236
7274.36523 0.016225
7275.50000 0.016215
7276.63379 0.016204
7277.76807 0.016193
7278.90283 0.016183
7280.03809 0.016172
7281.17188 0.01616
7282.30811 0.016148
7283.44287 0.016135
7284.57910 0.016123
7285.71387 0.016111
7286.85010 0.016099
7287.98584 0.016087
7289.12207 0.016074
7290.25879 0.016063
7291.39502 0.016052
7292.53223 0.016041
7293.66895 0.016031
7294.80615 0.01602
7295.94287 0.01601
7297.08105 0.015999
7298.21777 0.015989
7299.35596 0.015978
7300.49414 0.015967
7301.63184 0.015955
7302.77100 0.015943
7303.90918 0.015931
7305.04785 0.015918
7306.18701 0.015906
7307.32617 0.015894
7308.46484 0.015882
7309.60400 0.01587
7310.74414 0.015859
7311.88379 0.015849
7313.02393 0.015838
7314.16406 0.015828
7315.30420 0.015817
7316.44482 0.015807
7317.58496 0.015796
7318.72607 0.015786
7319.86719 0.015775
7321.00781 0.015763
7322.14990 0.015751
7323.29199 0.015739
7324.43311 0.015727
7325.57520 0.015715
7326.71680 0.015703
7327.85889 0.015691
7329.00098 0.015679
7330.14404 0.015668
7331.28711 0.015657
7332.43018 0.015647
7333.57324 0.015636
7334.71582 0.015626
7335.85986 0.015616
7337.00391 0.015605
7338.14697 0.015595
7339.29199 0.015584
7340.43604 0.015574
7341.58008 0.015562
7342.72510 0.01555
7343.87012 0.015538
7345.01514 0.015526
7346.16016 0.015514
7347.30518 0.015502
7348.45020 0.01549
7349.59619 0.015478
7350.74219 0.015467
7351.88818 0.015457
7353.03418 0.015447
7354.18018 0.015436
7355.32715 0.015426
7356.47412 0.015416
7357.62109 0.015405
7358.76807 0.015395
7359.91504 0.015385
7361.06201 0.015373
7362.20996 0.015361
7363.35693 0.015349
7364.50488 0.015338
7365.65381 0.015326
7366.80176 0.015314
7367.95117 0.015302
7369.09912 0.01529
7370.24805 0.015279
7371.39697 0.015269
7372.54590 0.015258
7373.69580 0.015248
7374.84521 0.015238
7375.99512 0.015228
7377.14502 0.015217
7378.29492 0.015207
7379.44482 0.015197
7380.59619 0.015186
7381.74707 0.015174
7382.89697 0.015162
7384.04785 0.015151
7385.20020 0.015139
7386.35107 0.015127
7387.50195 0.015116
7388.65381 0.015104
7389.80615 0.015092
7390.95801 0.015082
7392.10986 0.015071
7393.26318 0.015061
7394.41602 0.015051
7395.56787 0.015041
7396.72217 0.015031
7397.87500 0.015021
7399.02783 0.015011
7400.18213 0.015
7401.33496 0.014989
7402.48877 0.014977
7403.64307 0.014965
7404.79688 0.014954
7405.95215 0.014942
7407.10596 0.01493
7408.26123 0.014919
7409.41602 0.014907
7410.57080 0.014896
7411.72705 0.014886
7412.88184 0.014876
7414.03809 0.014866
7415.19385 0.014856
7416.35010 0.014846
7417.50586 0.014836
7418.66309 0.014826
7419.81885 0.014816
7420.97607 0.014804
7422.13281 0.014793
7423.29004 0.014781
7424.44678 0.01477
7425.60400 0.014758
7426.76221 0.014746
7427.91992 0.014735
7429.07812 0.014723
7430.23584 0.014712
7431.39502 0.014703
7432.55322 0.014694
7433.71191 0.014685
7434.87109 0.014676
7436.02979 0.014667
7437.18896 0.014658
7438.34912 0.014649
7439.50879 0.014639
7440.66797 0.014629
7441.82910 0.014619
7442.98877 0.014608
7444.14893 0.014598
7445.31006 0.014587
7446.47021 0.014577
7447.63086 0.014566
7448.79199 0.014555
7449.95410 0.014545
7451.11523 0.014536
7452.27686 0.014527
7453.43799 0.014518
7454.60107 0.014508
7455.76318 0.014499
7456.92480 0.01449
7458.08789 0.014481
7459.25000 0.014472
7460.41406 0.014463
7461.57715 0.014452
7462.74023 0.014442
7463.90283 0.014431
7465.06689 0.014421
7466.23096 0.01441
7467.39502 0.0144
7468.55908 0.014389
7469.72314 0.014379
7470.88818 0.014369
7472.05322 0.01436
7473.21777 0.014351
7474.38281 0.014342
7475.54785 0.014333
7476.71289 0.014324
7477.87891 0.014315
7479.04492 0.014306
7480.21094 0.014297
7481.37695 0.014286
7482.54297 0.014276
7483.70996 0.014265
7484.87598 0.014255
7486.04297 0.014244
7487.20996 0.014234
7488.37793 0.014224
7489.54492 0.014213
7490.71289 0.014204
7491.88086 0.014195
7493.04883 0.014186
7494.21680 0.014177
7495.38477 0.014168
7496.55420 0.014159
7497.72314 0.01415
7498.89209 0.014141
7500.06104 0.014132
7501.22998 0.014118
7502.39893 0.014105
7503.56885 0.014091
7504.73877 0.014078
7505.90918 0.014064
7507.07910 0.01405
7508.25000 0.014037
7509.41992 0.014023
7510.59082 0.01401
7511.76221 0.013998
7512.93311 0.013986
7514.10400 0.013974
7515.27490 0.013962
7516.44678 0.01395
7517.61914 0.013938
7518.79102 0.013926
7519.96289 0.013914
7521.13623 0.0139
7522.30811 0.013887
7523.48096 0.013874
7524.65381 0.01386
7525.82715 0.013847
7527.00000 0.013833
7528.17383 0.01382
7529.34814 0.013806
7530.52100 0.013794
7531.69482 0.013782
7532.87012 0.01377
7534.04395 0.013758
7535.21924 0.013746
7536.39404 0.013734
7537.56787 0.013722
7538.74316 0.01371
7539.91797 0.013698
7541.09424 0.013685
7542.27002 0.013671
7543.44580 0.013658
7544.62207 0.013645
7545.79785 0.013631
7546.97510 0.013618
7548.15088 0.013605
7549.32812 0.013592
7550.50488 0.013579
7551.68213 0.013567
7552.85889 0.013555
7554.03711 0.013543
7555.21387 0.013531
7556.39209 0.01352
7557.56982 0.013508
7558.74902 0.013496
7559.92676 0.013484
7561.10498 0.013471
7562.28516 0.013458
7563.46289 0.013444
7564.64307 0.013431
7565.82178 0.013418
7567.00098 0.013405
7568.18115 0.013392
7569.36084 0.013378
7570.54102 0.013366
7571.72217 0.013354
7572.90186 0.013342
7574.08301 0.013331
7575.26318 0.013319
7576.44385 0.013307
7577.62500 0.013295
7578.80713 0.013284
7579.98779 0.013272
7581.16992 0.013259
7582.35205 0.013246
7583.53418 0.013232
7584.71582 0.013219
7585.89893 0.013206
7587.08203 0.013193
7588.26514 0.01318
7589.44824 0.013167
7590.63086 0.013155
7591.81396 0.013143
7592.99805 0.013131
7594.18213 0.01312
7595.36621 0.013108
7596.54980 0.013096
7597.73389 0.013085
7598.91797 0.013073
7600.10303 0.013061
7601.28809 0.013048
7602.47314 0.013035
7603.65820 0.013022
7604.84424 0.013009
7606.02881 0.012996
7607.21484 0.012983
7608.40088 0.01297
7609.58691 0.012957
7610.77393 0.012944
7611.95996 0.012931
7613.14697 0.012918
7614.33398 0.012905
7615.52100 0.012892
7616.70801 0.012879
7617.89600 0.012866
7619.08301 0.012853
7620.27100 0.012841
7621.45898 0.012829
7622.64697 0.012818
7623.83594 0.012806
7625.02393 0.012795
7626.21289 0.012783
7627.40186 0.012772
7628.59082 0.01276
7629.78076 0.012749
7630.97021 0.012735
7632.16016 0.01272
7633.35010 0.012706
7634.54004 0.012691
7635.72998 0.012676
7636.91992 0.012662
7638.11084 0.012647
7639.30176 0.012633
7640.49316 0.012619
7641.68408 0.012606
7642.87500 0.012593
7644.06689 0.01258
7645.25879 0.012567
7646.45117 0.012554
7647.64307 0.01254
7648.83496 0.012527
7650.02686 0.012514
7651.22021 0.0125
7652.41309 0.012486
7653.60596 0.012471
7654.79883 0.012457
7655.99316 0.012442
7657.18604 0.012428
7658.37988 0.012414
7659.57422 0.012399
7660.76807 0.012386
7661.96191 0.012373
7663.15723 0.01236
7664.35205 0.012347
7665.54590 0.012334
7666.74219 0.012321
7667.93701 0.012308
7669.13184 0.012295
7670.32812 0.012282
7671.52393 0.012268
7672.72021 0.012253
7673.91602 0.012239
7675.11182 0.012225
7676.30908 0.012211
7677.50586 0.012197
7678.70312 0.012183
7679.89990 0.012168
7681.09717 0.012155
7682.29395 0.012143
7683.49219 0.01213
7684.68994 0.012117
7685.88818 0.012104
7687.08594 0.012091
7688.28516 0.012078
7689.48291 0.012066
7690.68213 0.012052
7691.88086 0.012038
7693.08105 0.012024
7694.27979 0.01201
7695.47900 0.011996
7696.67920 0.011982
7697.87891 0.011968
7699.07910 0.011954
7700.27979 0.01194
7701.47998 0.011926
7702.68115 0.011912
7703.88086 0.011898
7705.08301 0.011884
7706.28418 0.01187
7707.48486 0.011856
7708.68701 0.011842
7709.88916 0.011828
7711.09082 0.011815
7712.29297 0.011803
7713.49512 0.01179
7714.69824 0.011777
7715.89990 0.011765
7717.10400 0.011752
7718.30713 0.01174
7719.50977 0.011727
7720.71289 0.011714
7721.91699 0.0117
7723.12109 0.011686
7724.32520 0.011672
7725.52881 0.011658
7726.73389 0.011645
7727.93799 0.011631
7729.14307 0.011617
7730.34814 0.011604
7731.55322 0.011591
7732.75879 0.011579
7733.96387 0.011566
7735.16992 0.011554
7736.37598 0.011541
7737.58203 0.011529
7738.78906 0.011516
7739.99512 0.011504
7741.20215 0.01149
7742.40820 0.011476
7743.61621 0.011463
7744.82324 0.011449
7746.02979 0.011435
7747.23779 0.011422
7748.44580 0.011408
7749.65381 0.011395
7750.86182 0.011382
7752.06982 0.011369
7753.27881 0.011357
7754.48682 0.011345
7755.69580 0.011332
7756.90576 0.01132
7758.11523 0.011308
7759.32422 0.011295
7760.53418 0.011283
7761.74414 0.011269
7762.95410 0.011255
7764.16504 0.011242
7765.37500 0.011228
7766.58496 0.011215
7767.79590 0.011201
7769.00684 0.011188
7770.21924 0.011175
7771.43018 0.011161
7772.64209 0.011148
7773.85400 0.011134
7775.06494 0.011121
7776.27686 0.011107
7777.49023 0.011094
7778.70215 0.011081
7779.91504 0.011067
7781.12793 0.011055
7782.34082 0.011043
7783.55420 0.011031
7784.76807 0.011019
7785.98096 0.011006
7787.19482 0.010994
7788.40918 0.010982
7789.62402 0.01097
7790.83789 0.010957
7792.05322 0.010944
7793.26807 0.01093
7794.48193 0.010917
7795.69824 0.010904
7796.91309 0.010891
7798.12793 0.010877
7799.34424 0.010864
7800.56006 0.010852
7801.77588 0.010839
7802.99316 0.010827
7804.20898 0.010815
7805.42578 0.010803
7806.64307 0.010791
7807.85986 0.010779
7809.07715 0.010767
7810.29395 0.010755
7811.51221 0.010742
7812.72998 0.010729
7813.94824 0.010716
7815.16699 0.010703
7816.38477 0.010689
7817.60400 0.010676
7818.82178 0.010663
7820.04102 0.01065
7821.25977 0.010638
7822.47900 0.010626
7823.69922 0.010615
7824.91895 0.010603
7826.13916 0.010591
7827.35889 0.010579
7828.57910 0.010567
7829.79980 0.010555
7831.02100 0.010543
7832.24121 0.010532
7833.46191 0.01052
7834.68408 0.010508
7835.90479 0.010496
7837.12598 0.010485
7838.34912 0.010473
7839.56982 0.010461
7840.79297 0.010449
7842.01514 0.010438
7843.23779 0.010426
7844.45996 0.010414
7845.68408 0.010403
7846.90723 0.010391
7848.12988 0.010379
7849.35400 0.010368
7850.57715 0.010356
7851.80078 0.010346
7853.02490 0.010335
7854.25000 0.010325
7855.47412 0.010314
7856.69922 0.010304
7857.92383 0.010293
7859.14893 0.010283
7860.37402 0.010272
7861.60010 0.01026
7862.82520 0.010249
7864.05078 0.010237
7865.27686 0.010226
7866.50293 0.010214
7867.72900 0.010202
7868.95605 0.010191
7870.18311 0.01018
7871.41016 0.010169
7872.63721 0.010159
7873.86523 0.010148
7875.09180 0.010138
7876.31982 0.010127
7877.54785 0.010117
7878.77588 0.010107
7880.00391 0.010096
7881.23291 0.010085
7882.46094 0.010073
7883.68994 0.010062
7884.91895 0.01005
7886.14893 0.010039
7887.37793 0.010027
7888.60791 0.010016
7889.83789 0.010004
7891.06787 0.009993
7892.29785 0.009982
7893.52783 0.00997
7894.75879 0.009959
7895.99023 0.009947
7897.22119 0.009936
7898.45215 0.009924
7899.68408 0.009913
7900.91504 0.009902
7902.14697 0.009892
7903.37891 0.009882
7904.61084 0.009872
7905.84277 0.009861
7907.07617 0.009851
7908.30908 0.009841
7909.54199 0.009831
7910.77393 0.00982
7912.00781 0.009808
7913.24219 0.009797
7914.47510 0.009786
7915.70898 0.009774
7916.94287 0.009763
7918.17676 0.009752
7919.41211 0.00974
7920.64600 0.00973
7921.88086 0.00972
7923.11621 0.009709
7924.35205 0.009699
7925.58691 0.009689
7926.82324 0.009679
7928.05908 0.009669
7929.29395 0.009659
7930.53076 0.009648
7931.76709 0.009637
7933.00391 0.009625
7934.24023 0.009614
7935.47803 0.009603
7936.71484 0.009592
7937.95215 0.009581
7939.18896 0.009569
7940.42676 0.009558
7941.66504 0.009547
7942.90283 0.009536
7944.14209 0.009525
7945.37988 0.009514
7946.61914 0.009503
7947.85791 0.009491
7949.09717 0.00948
7950.33594 0.00947
7951.57617 0.009459
7952.81494 0.009449
7954.05518 0.009439
7955.29492 0.009429
7956.53613 0.009419
7957.77588 0.009409
7959.01709 0.009399
7960.25684 0.009389
7961.49902 0.009378
7962.74023 0.009367
7963.98096 0.009356
7965.22314 0.009345
7966.46387 0.009334
7967.70703 0.009323
7968.94922 0.009312
7970.19092 0.009301
7971.43408 0.00929
7972.67578 0.009279
7973.91895 0.009268
7975.16309 0.009257
7976.40576 0.009246
7977.64893 0.009235
7978.89307 0.009224
7980.13721 0.009214
7981.38086 0.009204
7982.62500 0.009194
7983.87012 0.009184
7985.11523 0.009174
7986.35889 0.009165
7987.60400 0.009155
7988.85010 0.009145
7990.09619 0.009135
7991.34082 0.009125
7992.58691 0.009114
7993.83301 0.009104
7995.08008 0.009093
7996.32617 0.009082
7997.57178 0.009072
7998.81885 0.009061
8000.06592 0.009051
8001.31299 0.009041
8002.56104 0.009031
8003.80908 0.009021
8005.05713 0.009012
8006.30518 0.009002
8007.55322 0.008992
8008.80078 0.008982
8010.04980 0.008973
8011.29785 0.008962
8012.54688 0.008951
8013.79590 0.008941
8015.04590 0.00893
8016.29492 0.008919
8017.54492 0.008909
8018.79492 0.008898
8020.04492 0.008888
8021.29590 0.008877
8022.54590 0.008866
8023.79688 0.008856
8025.04785 0.008845
8026.29883 0.008835
8027.54980 0.008824
8028.80176 0.008814
8030.05420 0.008804
8031.30615 0.008794
8032.55811 0.008785
8033.81006 0.008776
8035.06299 0.008766
8036.31494 0.008757
8037.56787 0.008748
8038.82080 0.008738
8040.07422 0.008729
8041.32812 0.008719
8042.58203 0.008709
8043.83496 0.008698
8045.08887 0.008688
8046.34424 0.008678
8047.59814 0.008668
8048.85303 0.008657
8050.10693 0.008647
8051.36279 0.008637
8052.61816 0.008627
8053.87402 0.008616
8055.12891 0.008606
8056.38477 0.008596
8057.64111 0.008586
8058.89697 0.008576
8060.15283 0.008566
8061.41016 0.008556
8062.66699 0.008547
8063.92383 0.008538
8065.18115 0.008529
8066.43799 0.00852
8067.69580 0.008511
8068.95410 0.008501
8070.21094 0.008492
8071.47021 0.008482
8072.72803 0.008472
8073.98682 0.008462
8075.24609 0.008452
8076.50391 0.008441
8077.76416 0.008431
8079.02295 0.008421
8080.28320 0.008411
8081.54199 0.008401
8082.80176 0.008391
8084.06299 0.008381
8085.32324 0.008371
8086.58301 0.008361
8087.84424 0.008351
8089.10498 0.008341
8090.36621 0.008331
8091.62695 0.008322
8092.88916 0.008313
8094.14990 0.008304
8095.41211 0.008295
8096.67383 0.008286
8097.93701 0.008277
8099.19922 0.008268
8100.46191 0.008258
8101.72510 0.008248
8102.98779 0.008238
8104.25098 0.008228
8105.51514 0.008218
8106.77783 0.008208
8108.04199 0.008198
8109.30615 0.008188
8110.56982 0.008178
8111.83496 0.008168
8113.10010 0.008158
8114.36377 0.008148
8115.62891 0.008139
8116.89502 0.008129
8118.16016 0.008119
8119.42578 0.008109
8120.69189 0.008099
8121.95801 0.00809
8123.22412 0.008081
8124.49023 0.008073
8125.75684 0.008064
8127.02393 0.008055
8128.29102 0.008046
8129.55811 0.008037
8130.82617 0.008027
8132.09277 0.008017
8133.36084 0.008007
8134.62891 0.007998
8135.89697 0.007988
8137.16602 0.007978
8138.43408 0.007968
8139.70312 0.007958
8140.97217 0.007948
8142.24121 0.007939
8143.51123 0.007929
8144.77979 0.007919
8146.04980 0.007909
8147.31982 0.007899
8148.58984 0.00789
8149.85986 0.00788
8151.13086 0.007871
8152.40186 0.007862
8153.67285 0.007853
8154.94385 0.007844
8156.21484 0.007835
8157.48682 0.007827
8158.75879 0.007818
8160.03076 0.007809
8161.30322 0.007799
8162.57520 0.007789
8163.84814 0.00778
8165.12109 0.00777
8166.39404 0.00776
8167.66699 0.007751
8168.93994 0.007741
8170.21387 0.007731
8171.48682 0.007721
8172.76123 0.007712
8174.03613 0.007702
8175.31006 0.007692
8176.58398 0.007683
8177.85889 0.007673
8179.13379 0.007663
8180.40918 0.007654
8181.68506 0.007645
8182.95996 0.007637
8184.23584 0.007628
8185.51221 0.007619
8186.78809 0.00761
8188.06396 0.007602
8189.34082 0.007593
8190.61816 0.007584
8191.89502 0.007574
8193.17188 0.007565
8194.44922 0.007555
8195.72656 0.007545
8197.00488 0.007536
8198.28223 0.007526
8199.56055 0.007517
8200.83887 0.007507
8202.11719 0.007498
8203.39648 0.007488
8204.67480 0.007479
8205.95410 0.00747
8207.23340 0.00746
8208.51270 0.007451
8209.79297 0.007441
8211.07227 0.007433
8212.35254 0.007424
8213.63281 0.007416
8214.91406 0.007407
8216.19434 0.007399
8217.47559 0.00739
8218.75684 0.007382
8220.03809 0.007373
8221.31934 0.007364
8222.60059 0.007355
8223.88281 0.007345
8225.16504 0.007336
8226.44727 0.007327
8227.72852 0.007317
8229.01270 0.007308
8230.29590 0.007299
8231.57910 0.00729
8232.86230 0.007281
8234.14648 0.007273
8235.42969 0.007264
8236.71289 0.007255
8237.99707 0.007246
8239.28125 0.007238
8240.56641 0.007229
8241.85059 0.007221
8243.13574 0.007214
8244.42090 0.007206
8245.70605 0.007198
8246.99219 0.00719
8248.27734 0.007182
8249.56348 0.007174
8250.84961 0.007166
8252.13574 0.007157
8253.42285 0.007149
8254.70898 0.00714
8255.99609 0.007131
8257.28320 0.007123
8258.57031 0.007114
8259.85840 0.007105
8261.14648 0.007097
8262.43359 0.007088
8263.72168 0.007079
8265.01074 0.007071
8266.29883 0.007062
8267.58789 0.007053
8268.87695 0.007045
8270.16602 0.007036
8271.45508 0.007028
8272.74414 0.007021
8274.03418 0.007013
8275.32422 0.007005
8276.61426 0.006997
8277.90430 0.006989
8279.19531 0.006982
8280.48633 0.006974
8281.77734 0.006965
8283.06836 0.006956
8284.35938 0.006948
8285.65137 0.006939
8286.94238 0.006931
8288.23438 0.006922
8289.52734 0.006914
8290.81934 0.006905
8292.11133 0.006896
8293.40430 0.006888
8294.69727 0.006879
8295.99023 0.006871
8297.28418 0.006862
8298.57715 0.006854
8299.87109 0.006845
8301.16504 0.006837
8302.45996 0.006828
8303.75391 0.00682
8305.04883 0.006811
8306.34375 0.006803
8307.63867 0.006794
8308.93359 0.006786
8310.22852 0.006777
8311.52441 0.00677
8312.82031 0.006762
8314.11621 0.006754
8315.41211 0.006746
8316.70898 0.006739
8318.00586 0.006731
8319.30176 0.006724
8320.59961 0.006715
8321.89648 0.006707
8323.19336 0.006699
8324.49121 0.00669
8325.78906 0.006682
8327.08691 0.006673
8328.38574 0.006665
8329.68359 0.006656
8330.98242 0.006648
8332.28125 0.006639
8333.58008 0.006631
8334.87988 0.006623
8336.17871 0.006614
8337.47852 0.006606
8338.77832 0.006597
8340.07812 0.006589
8341.37891 0.006581
8342.67871 0.006574
8343.97852 0.006566
8345.28027 0.006559
8346.58203 0.006551
8347.88281 0.006543
8349.18457 0.006536
8350.48633 0.006528
8351.78809 0.00652
8353.08984 0.006511
8354.39258 0.006503
8355.69434 0.006494
8356.99707 0.006486
8358.30078 0.006478
8359.60352 0.006469
8360.90625 0.006461
8362.20996 0.006453
8363.51367 0.006444
8364.81738 0.006436
8366.12207 0.006428
8367.42578 0.006419
8368.73047 0.006411
8370.03516 0.006403
8371.33984 0.006395
8372.64648 0.006386
8373.95117 0.006378
8375.25586 0.00637
8376.56152 0.006361
8377.86816 0.006353
8379.17383 0.006345
8380.48047 0.006337
8381.78711 0.006329
8383.09375 0.006322
8384.40039 0.006314
8385.70801 0.006307
8387.01465 0.006299
8388.32227 0.006292
8389.63086 0.006284
8390.93848 0.006276
8392.24707 0.006268
8393.55469 0.00626
8394.86328 0.006252
8396.17188 0.006243
8397.48145 0.006235
8398.79004 0.006227
8400.09961 0.006219
8401.40918 0.006211
8402.71973 0.006204
8404.02930 0.006196
8405.33984 0.006188
8406.65039 0.006181
8407.96094 0.006173
8409.27148 0.006166
8410.58203 0.006158
8411.89355 0.006151
8413.20508 0.006145
8414.51660 0.006138
8415.82812 0.006131
8417.14062 0.006124
8418.45312 0.006117
8419.76562 0.00611
8421.07812 0.006103
8422.39062 0.006095
8423.70410 0.006088
8425.01758 0.00608
8426.33105 0.006073
8427.64453 0.006065
8428.95801 0.006058
8430.27246 0.00605
8431.58691 0.006043
8432.90137 0.006037
8434.21582 0.00603
8435.53125 0.006023
8436.84570 0.006016
8438.16113 0.006009
8439.47656 0.006003
8440.79297 0.005996
8442.10840 0.005989
8443.42480 0.005982
8444.74121 0.005975
8446.05762 0.005968
8447.37402 0.005962
8448.69141 0.005955
8450.00879 0.005948
8451.32617 0.005942
8452.64355 0.005936
8453.96094 0.00593
8455.27930 0.005924
8456.59766 0.005918
8457.91602 0.005912
8459.23438 0.005906
8460.55371 0.005899
8461.87207 0.005893
8463.19141 0.005886
8464.51074 0.005879
8465.83105 0.005872
8467.15039 0.005865
8468.47070 0.005859
8469.79102 0.005852
8471.11133 0.005845
8472.43164 0.005838
8473.75293 0.005832
8475.07422 0.005825
8476.39648 0.005818
8477.71680 0.005811
8479.03809 0.005804
8480.36035 0.005798
8481.68262 0.005791
8483.00488 0.005784
8484.32715 0.005777
8485.64941 0.005771
8486.97266 0.005764
8488.29590 0.005757
8489.61914 0.00575
8490.94238 0.005744
8492.26660 0.005738
8493.59082 0.005732
8494.91504 0.005726
8496.23926 0.00572
8497.56348 0.005714
8498.88867 0.005708
8500.21387 0.005702
8501.53906 0.005697
8502.86426 0.005691
8504.18945 0.005685
8505.51562 0.00568
8506.84180 0.005674
8508.16797 0.005668
8509.49414 0.005663
8510.82129 0.005657
8512.14746 0.005651
8513.47461 0.005646
8514.80176 0.00564
8516.12988 0.005635
8517.45703 0.005629
8518.78516 0.005623
8520.11328 0.005618
8521.44141 0.005612
8522.77148 0.005606
8524.09863 0.005601
8525.42773 0.005595
8526.75684 0.005589
8528.08594 0.005584
8529.41602 0.005578
8530.74609 0.005573
8532.07520 0.005568
8533.40527 0.005563
8534.73633 0.005558
8536.06641 0.005553
8537.39746 0.005548
8538.72852 0.005543
8540.05957 0.005538
8541.39160 0.005533
8542.72266 0.005527
8544.05469 0.005521
8545.38672 0.005516
8546.71875 0.00551
8548.05176 0.005504
8549.38379 0.005499
8550.71680 0.005493
8552.04980 0.005487
8553.38281 0.005482
8554.71680 0.005476
8556.05078 0.00547
8557.38477 0.005465
8558.71875 0.005459
8560.05273 0.005453
8561.38770 0.005448
8562.72168 0.005442
8564.05664 0.005437
8565.39258 0.005431
8566.72754 0.005425
8568.06348 0.00542
8569.39941 0.005414
8570.73535 0.005409
8572.07129 0.005404
8573.40723 0.005399
8574.74414 0.005394
8576.08105 0.005389
8577.41797 0.005384
8578.75488 0.005379
8580.09277 0.005374
8581.43066 0.005368
8582.76855 0.005362
8584.10645 0.005357
8585.44434 0.005351
8586.78320 0.005345
8588.12207 0.00534
8589.46094 0.005334
8590.79980 0.005328
8592.13965 0.005323
8593.47852 0.005317
8594.81836 0.005311
8596.15820 0.005306
8597.49902 0.0053
8598.83887 0.005294
8600.17969 0.005289
8601.52148 0.005283
8602.86133 0.005277
8604.20215 0.005272
8605.54395 0.005266
8606.88574 0.00526
8608.22754 0.005255
8609.56934 0.005249
8610.91211 0.005244
8612.25391 0.005239
8613.59668 0.005234
8614.93945 0.005229
8616.28320 0.005224
8617.62598 0.005219
8618.96973 0.005214
8620.31348 0.005209
8621.65723 0.005203
8623.00195 0.005197
8624.34570 0.005191
8625.69043 0.005186
8627.03516 0.00518
8628.37988 0.005174
8629.72559 0.005169
8631.07031 0.005164
8632.41602 0.00516
8633.76172 0.005156
8635.10840 0.005151
8636.45410 0.005147
8637.80078 0.005143
8639.14746 0.005138
8640.49414 0.005134
8641.84180 0.00513
8643.18848 0.005125
8644.53613 0.005121
8645.88379 0.005117
8647.23145 0.005112
8648.58008 0.005108
8649.92871 0.005104
8651.27734 0.005099
8652.62598 0.005095
8653.97461 0.005091
8655.32422 0.005086
8656.67285 0.005082
8658.02246 0.005078
8659.37305 0.005073
8660.72266 0.005069
8662.07324 0.005066
8663.42285 0.005062
8664.77344 0.005058
8666.12500 0.005055
8667.47559 0.005051
8668.82715 0.005047
8670.17871 0.005043
8671.53027 0.005039
8672.88184 0.005034
8674.23438 0.00503
8675.58691 0.005026
8676.93945 0.005021
8678.29199 0.005017
8679.64453 0.005012
8680.99805 0.005008
8682.35156 0.005004
8683.70508 0.004999
8685.05859 0.004995
8686.41309 0.00499
8687.76758 0.004986
8689.12207 0.004982
8690.47656 0.004977
8691.83105 0.004973
8693.18652 0.004968
8694.54199 0.004964
8695.89746 0.004959
8697.25293 0.004955
8698.60840 0.00495
8699.96484 0.004946
8701.32129 0.004942
8702.67773 0.004937
8704.03418 0.004933
8705.39160 0.004928
8706.74902 0.004924
8708.10645 0.004919
8709.46387 0.004915
8710.82129 0.004911
8712.17969 0.004907
8713.53809 0.004903
8714.89648 0.004899
8716.25488 0.004895
8717.61426 0.004891
8718.97266 0.004887
8720.33203 0.004883
8721.69141 0.004879
8723.05176 0.004874
8724.41113 0.00487
8725.77148 0.004865
8727.13184 0.004861
8728.49219 0.004856
8729.85352 0.004852
8731.21484 0.004847
8732.57520 0.004843
8733.93652 0.004838
8735.29883 0.004834
8736.66016 0.004829
8738.02246 0.004825
8739.38477 0.00482
8740.74707 0.004815
8742.11035 0.004811
8743.47266 0.004806
8744.83594 0.004802
8746.19922 0.004797
8747.56348 0.004793
8748.92676 0.004788
8750.29102 0.004783
8751.65527 0.004779
8753.01953 0.004774
8754.38379 0.00477
8755.74902 0.004765
8757.11426 0.004761
8758.47852 0.004756
8759.84473 0.004751
8761.20996 0.004747
8762.57617 0.004743
8763.94238 0.004739
8765.30859 0.004735
8766.67480 0.004731
8768.04199 0.004727
8769.40918 0.004723
8770.77637 0.004719
8772.14355 0.004714
8773.51074 0.00471
8774.87891 0.004705
8776.24707 0.0047
8777.61523 0.004696
8778.98340 0.004691
8780.35254 0.004686
8781.72168 0.004682
8783.08984 0.004677
8784.45996 0.004672
8785.82910 0.004668
8787.19922 0.004663
8788.56836 0.004658
8789.93945 0.004654
8791.30957 0.004649
8792.67969 0.004644
8794.05078 0.00464
8795.42188 0.004635
8796.79297 0.00463
8798.16406 0.004626
8799.53613 0.004621
8800.90820 0.004616
8802.28027 0.00461
8803.65234 0.004605
8805.02441 0.004599
8806.39746 0.004594
8807.77148 0.004588
8809.14355 0.004582
8810.51660 0.004577
8811.89062 0.004572
8813.26465 0.004567
8814.63867 0.004562
8816.01270 0.004557
8817.38672 0.004552
8818.76172 0.004548
8820.13672 0.004543
8821.51172 0.004537
8822.88672 0.004531
8824.26270 0.004526
8825.63867 0.00452
8827.01465 0.004515
8828.39062 0.004509
8829.76660 0.004504
8831.14355 0.004499
8832.52148 0.004494
8833.89746 0.00449
8835.27441 0.004485
8836.65137 0.004481
8838.02930 0.004476
8839.40723 0.004472
8840.78516 0.004467
8842.16406 0.004462
8843.54199 0.004458
8844.92090 0.004453
8846.29980 0.004449
8847.67871 0.004444
8849.05859 0.004439
8850.43848 0.004435
8851.81738 0.00443
8853.19824 0.004426
8854.57812 0.004421
8855.95898 0.004416
8857.33887 0.004412
8858.71973 0.004407
8860.10156 0.004403
8861.48242 0.004398
8862.86426 0.004393
8864.24609 0.004389
8865.62793 0.004384
8867.00977 0.004379
8868.39258 0.004375
8869.77539 0.00437
8871.15820 0.004366
8872.54102 0.004362
8873.92383 0.004358
8875.30762 0.004354
8876.69141 0.00435
8878.07520 0.004345
8879.45898 0.004341
8880.84375 0.004337
8882.22852 0.004332
8883.61328 0.004327
8884.99805 0.004323
8886.38281 0.004318
8887.76855 0.004313
8889.15430 0.004309
8890.54004 0.004304
8891.92578 0.004299
8893.31152 0.004294
8894.69922 0.00429
8896.08594 0.004285
8897.47266 0.00428
8898.85938 0.004276
8900.24707 0.004271
8901.63477 0.004266
8903.02246 0.004261
8904.41016 0.004257
8905.79883 0.004252
8907.18652 0.004247
8908.57520 0.004242
8909.96484 0.004238
8911.35352 0.004233
8912.74316 0.004228
8914.13281 0.004223
8915.52246 0.004218
8916.91211 0.004214
8918.30176 0.004209
8919.69238 0.004204
8921.08301 0.004199
8922.47363 0.004194
8923.86523 0.00419
8925.25586 0.004185
8926.64746 0.00418
8928.03906 0.004175
8929.43164 0.00417
8930.82324 0.004166
8932.21582 0.004161
8933.60840 0.004156
8935.00098 0.004151
8936.39453 0.004146
8937.78711 0.004141
8939.18066 0.004137
8940.57422 0.004132
8941.96875 0.004128
8943.36230 0.004123
8944.75684 0.004119
8946.15137 0.004115
8947.54590 0.00411
8948.94043 0.004106
8950.33594 0.004102
8951.73145 0.004097
8953.12695 0.004092
8954.52246 0.004087
8955.91895 0.004082
8957.31543 0.004077
8958.71191 0.004072
8960.10840 0.004067
8961.50488 0.004063
8962.90234 0.004058
8964.29980 0.004053
8965.69727 0.004048
8967.09473 0.004043
8968.49316 0.004038
8969.89160 0.004033
8971.29004 0.004028
8972.68848 0.004023
8974.08691 0.004018
8975.48633 0.004013
8976.88574 0.004008
8978.28516 0.004003
8979.68457 0.003998
8981.08496 0.003994
8982.48535 0.003989
8983.88574 0.003984
8985.28613 0.003979
8986.68652 0.003974
8988.08789 0.003969
8989.48926 0.003964
8990.89062 0.003959
8992.29199 0.003954
8993.69434 0.003949
8995.09668 0.003944
8996.49902 0.003939
8997.90137 0.003934
8999.30371 0.003929
9000.70703 0.003924
9002.11035 0.003919
9003.51367 0.003914
9004.91699 0.003909
9006.32129 0.003904
9007.72559 0.003899
9009.12988 0.003894
9010.53418 0.00389
9011.93945 0.003885
9013.34375 0.003881
9014.74902 0.003877
9016.15430 0.003872
9017.56055 0.003868
9018.96582 0.003863
9020.37207 0.003859
9021.77832 0.003854
9023.18555 0.003849
9024.59180 0.003844
9025.99902 0.003839
9027.40625 0.003834
9028.81348 0.003829
9030.22070 0.003825
9031.62891 0.00382
9033.03711 0.003815
9034.44531 0.003811
9035.85352 0.003806
9037.26270 0.003802
9038.67090 0.003797
9040.08008 0.003792
9041.49023 0.003788
9042.89941 0.003783
9044.30957 0.003779
9045.71973 0.003774
9047.12988 0.00377
9048.54004 0.003765
9049.95117 0.00376
9051.36133 0.003756
9052.77246 0.003751
9054.18457 0.003747
9055.59570 0.003742
9057.00781 0.003737
9058.41992 0.003733
9059.83203 0.003728
9061.24414 0.003724
9062.65723 0.003719
9064.06934 0.003714
9065.48242 0.00371
9066.89648 0.003705
9068.30957 0.003701
9069.72363 0.003696
9071.13770 0.003691
9072.55176 0.003687
9073.96582 0.003682
9075.38086 0.003677
9076.79590 0.003673
9078.21094 0.003668
9079.62598 0.003664
9081.04199 0.003659
9082.45703 0.003655
9083.87305 0.003651
9085.29004 0.003647
9086.70605 0.003643
9088.12305 0.003639
9089.53906 0.003635
9090.95703 0.00363
9092.37402 0.003626
9093.79102 0.003621
9095.20898 0.003616
9096.62695 0.003612
9098.04492 0.003607
9099.46387 0.003602
9100.88281 0.003598
9102.30078 0.003593
9103.72070 0.003588
9105.13965 0.003584
9106.55957 0.003579
9107.97852 0.003575
9109.39844 0.00357
9110.81934 0.003565
9112.23926 0.003561
9113.66016 0.003556
9115.08105 0.003551
9116.50195 0.003547
9117.92285 0.003542
9119.34473 0.003537
9120.76660 0.003533
9122.18848 0.003528
9123.61035 0.003523
9125.03320 0.003519
9126.45605 0.003514
9127.87891 0.003509
9129.30176 0.003505
9130.72461 0.0035
9132.14844 0.003495
9133.57227 0.003491
9134.99609 0.003486
9136.41992 0.003481
9137.84473 0.003477
9139.26953 0.003472
9140.69434 0.003467
9142.11914 0.003463
9143.54395 0.003458
9144.96973 0.003453
9146.39648 0.003449
9147.82129 0.003444
9149.24805 0.003439
9150.67383 0.003434
9152.10059 0.00343
9153.52734 0.003425
9154.95508 0.00342
9156.38184 0.003416
9157.80957 0.003411
9159.23730 0.003406
9160.66504 0.003402
9162.09277 0.003397
9163.52148 0.003392
9164.95020 0.003387
9166.37891 0.003383
9167.80859 0.003378
9169.23730 0.003373
9170.66699 0.003369
9172.09668 0.003364
9173.52637 0.003359
9174.95703 0.003354
9176.38770 0.00335
9177.81738 0.003345
9179.24902 0.00334
9180.67969 0.003336
9182.11133 0.003332
9183.54297 0.003327
9184.97461 0.003323
9186.40625 0.003319
9187.83887 0.003315
9189.27148 0.00331
9190.70312 0.003306
9192.13672 0.003301
9193.56934 0.003296
9195.00293 0.003292
9196.43652 0.003287
9197.87012 0.003282
9199.30371 0.003277
9200.73828 0.003272
9202.17285 0.003267
9203.60742 0.003262
9205.04199 0.003257
9206.47754 0.003252
9207.91211 0.003247
9209.34766 0.003242
9210.78418 0.003237
9212.21973 0.003232
9213.65625 0.003227
9215.09277 0.003222
9216.52930 0.003217
9217.96582 0.003212
9219.40332 0.003207
9220.84082 0.003202
9222.27832 0.003197
9223.71582 0.003191
9225.15332 0.003186
9226.59180 0.003181
9228.03027 0.003176
9229.46875 0.003171
9230.90820 0.003166
9232.34668 0.003161
9233.78613 0.003156
9235.22656 0.003152
9236.66602 0.003147
9238.10547 0.003142
9239.54590 0.003137
9240.98633 0.003132
9242.42773 0.003127
9243.86816 0.003122
9245.30957 0.003117
9246.75098 0.003113
9248.19238 0.003108
9249.63379 0.003103
9251.07617 0.003098
9252.51855 0.003093
9253.96094 0.003088
9255.40332 0.003083
9256.84668 0.003078
9258.29004 0.003073
9259.73340 0.003068
9261.17676 0.003064
9262.62109 0.003059
9264.06445 0.003054
9265.50879 0.003049
9266.95312 0.003044
9268.39844 0.003039
9269.84277 0.003034
9271.28809 0.003029
9272.73340 0.003024
9274.17969 0.003019
9275.62500 0.003014
9277.07129 0.003009
9278.51758 0.003005
9279.96387 0.003
9281.41113 0.002995
9282.85840 0.00299
9284.30566 0.002985
9285.75293 0.00298
9287.20020 0.002975
9288.64844 0.00297
9290.09668 0.002965
9291.54492 0.00296
9292.99316 0.002955
9294.44238 0.00295
9295.89160 0.002945
9297.34082 0.00294
9298.79004 0.002935
9300.23926 0.00293
9301.68945 0.002926
9303.13965 0.002921
9304.58984 0.002917
9306.04102 0.002912
9307.49121 0.002908
9308.94238 0.002903
9310.39355 0.002899
9311.84570 0.002894
9313.29688 0.002889
9314.74902 0.002884
9316.20117 0.002879
9317.65332 0.002874
9319.10645 0.002869
9320.55957 0.002864
9322.01270 0.002859
9323.46582 0.002854
9324.91895 0.002849
9326.37305 0.002844
9327.82715 0.002839
9329.28125 0.002834
9330.73535 0.002829
9332.19043 0.002824
9333.64648 0.002819
9335.10059 0.002814
9336.55566 0.002809
9338.01172 0.002804
9339.46777 0.002799
9340.92383 0.002794
9342.37988 0.002789
9343.83594 0.002784
9345.29297 0.002779
9346.75000 0.002774
9348.20703 0.002769
9349.66406 0.002764
9351.12207 0.002759
9352.58008 0.002754
9354.03809 0.002749
9355.49609 0.002744
9356.95508 0.002739
9358.41406 0.002734
9359.87305 0.002729
9361.33203 0.002724
9362.79102 0.002719
9364.25098 0.002714
9365.71094 0.002708
9367.17090 0.002703
9368.63184 0.002698
9370.09180 0.002693
9371.55273 0.002688
9373.01367 0.002683
9374.47559 0.002678
9375.93652 0.002673
9377.39844 0.002668
9378.86035 0.002663
9380.32227 0.002658
9381.78516 0.002653
9383.24805 0.002648
9384.71094 0.002643
9386.17383 0.002638
9387.63672 0.002633
9389.10059 0.002628
9390.56445 0.002623
9392.02832 0.002617
9393.49219 0.002612
9394.95703 0.002607
9396.42188 0.002602
9397.88672 0.002597
9399.35156 0.002592
9400.81738 0.002587
9402.28320 0.002581
9403.74902 0.002576
9405.21484 0.00257
9406.68066 0.002565
9408.14746 0.002559
9409.61426 0.002554
9411.08105 0.002548
9412.54883 0.002543
9414.01562 0.002537
9415.48340 0.002532
9416.95117 0.002527
9418.41992 0.002521
9419.88770 0.002516
9421.35645 0.00251
9422.82520 0.002505
9424.29492 0.002499
9425.76367 0.002494
9427.23340 0.002488
9428.70312 0.002483
9430.17285 0.002477
9431.64355 0.002472
9433.11328 0.002467
9434.58398 0.002461
9436.05469 0.002456
9437.52637 0.002451
9438.99707 0.002446
9440.46875 0.00244
9441.94043 0.002435
9443.41309 0.00243
9444.88477 0.002425
9446.35742 0.002419
9447.83008 0.002414
9449.30371 0.002409
9450.77637 0.002404
9452.25000 0.002398
9453.72363 0.002393
9455.19727 0.002388
9456.67188 0.002383
9458.14648 0.002377
9459.62012 0.002372
9461.09473 0.002367
9462.57031 0.002361
9464.04492 0.002356
9465.52148 0.002351
9466.99609 0.002346
9468.47266 0.00234
9469.94824 0.002335
9471.42480 0.00233
9472.90137 0.002325
9474.37891 0.002319
9475.85547 0.002314
9477.33301 0.002309
9478.81055 0.002303
9480.28809 0.002298
9481.76660 0.002293
9483.24414 0.002288
9484.72266 0.002282
9486.20117 0.002277
9487.68066 0.002272
9489.16016 0.002266
9490.63867 0.002261
9492.11914 0.002256
9493.59863 0.00225
9495.07910 0.002245
9496.55859 0.00224
9498.03906 0.002235
9499.52148 0.002229
10449.47363 0.0
