# %ECSV 0.9
# ---
# datatype:
# - {name: wavelength, unit: Angstrom, datatype: float32}
# - {name: response, datatype: float32}
# meta: !!omap
# - {band_name: F467M}
# - {group_name: WFC3_UVIS2}
wavelength response
4067.84351 0.0
4519.82617 0.000452
4520.59912 0.000515
4521.37305 0.000585
4522.14600 0.0007
4522.91895 0.000815
4523.69287 0.00093
4524.46680 0.001029
4525.24219 0.001127
4526.01611 0.001224
4526.79004 0.001288
4527.56494 0.001334
4528.33887 0.001381
4529.11377 0.001393
4529.88916 0.001362
4530.66406 0.001331
4531.43896 0.001299
4532.21387 0.001268
4532.99023 0.001236
4533.76611 0.001204
4534.54199 0.001184
4535.31689 0.001165
4536.09277 0.001145
4536.86914 0.001163
4537.64600 0.001193
4538.42188 0.001222
4539.19824 0.001278
4539.97510 0.001355
4540.75098 0.001433
4541.52881 0.001526
4542.30615 0.001654
4543.08301 0.001781
4543.85986 0.00192
4544.63818 0.002149
4545.41504 0.002377
4546.19287 0.002606
4546.97119 0.002963
4547.74902 0.003335
4548.52686 0.003707
4549.30518 0.004238
4550.08301 0.004844
4550.86182 0.00545
4551.64014 0.006242
4552.41895 0.007244
4553.19824 0.008248
4553.97705 0.009413
4554.75586 0.011047
4555.53613 0.012682
4556.31494 0.014356
4557.09521 0.016795
4557.87402 0.019232
4558.65381 0.021671
4559.43408 0.024612
4560.21387 0.027646
4560.99414 0.030683
4561.77490 0.033785
4562.55518 0.036921
4563.33594 0.040059
4564.11719 0.043082
4564.89697 0.045954
4565.67920 0.048827
4566.45898 0.051729
4567.24121 0.05473
4568.02197 0.057734
4568.80420 0.060782
4569.58496 0.065307
4570.36816 0.069834
4571.14893 0.074356
4571.93213 0.081823
4572.71387 0.089884
4573.49609 0.097947
4574.27881 0.109235
4575.06104 0.122366
4575.84424 0.135515
4576.62695 0.149859
4577.41016 0.165742
4578.19287 0.181625
4578.97705 0.196429
4579.75977 0.207945
4580.54297 0.21947
4581.32715 0.23044
4582.11084 0.231938
4582.89502 0.233436
4583.67920 0.234935
4584.46289 0.230533
4585.24805 0.225219
4586.03223 0.2199
4586.81689 0.215029
4587.60205 0.21037
4588.38721 0.205707
4589.17090 0.203405
4589.95703 0.203542
4590.74219 0.203679
4591.52686 0.205267
4592.31299 0.210129
4593.09912 0.214991
4593.88477 0.220138
4594.67090 0.227258
4595.45703 0.234378
4596.24316 0.241499
4597.02881 0.247261
4597.81592 0.252945
4598.60303 0.258629
4599.39014 0.261137
4600.17578 0.262663
4600.96289 0.26419
4601.75000 0.263545
4602.53809 0.261368
4603.32520 0.259192
4604.11279 0.25659
4604.90088 0.253383
4605.68799 0.250176
4606.47705 0.247354
4607.26514 0.245786
4608.05322 0.244218
4608.84082 0.242819
4609.62988 0.243906
4610.41895 0.245002
4611.20801 0.246106
4611.99707 0.248923
4612.78613 0.251944
4613.57520 0.254966
4614.36377 0.258282
4615.15381 0.26171
4615.94287 0.265138
4616.73291 0.267964
4617.52295 0.270313
4618.31299 0.272662
4619.10303 0.27433
4619.89404 0.274939
4620.68408 0.275532
4621.47510 0.275844
4622.26514 0.275211
4623.05615 0.274578
4623.84717 0.273933
4624.63818 0.273115
4625.42920 0.272298
4626.22119 0.271479
4627.01221 0.271187
4627.80420 0.270949
4628.59619 0.270711
4629.38818 0.270984
4630.18018 0.271428
4630.97217 0.271868
4631.76416 0.27254
4632.55713 0.273373
4633.34912 0.274207
4634.14209 0.274931
4634.93506 0.275515
4635.72803 0.276099
4636.52100 0.276502
4637.31396 0.276445
4638.10791 0.276388
4638.90088 0.276257
4639.69482 0.275629
4640.48877 0.275
4641.28320 0.274371
4642.07715 0.273448
4642.87109 0.272518
4643.66602 0.271587
4644.45996 0.270682
4645.25488 0.269781
4646.04883 0.268881
4646.84424 0.268197
4647.64014 0.267612
4648.43506 0.267028
4649.22998 0.266644
4650.02490 0.266431
4650.82080 0.266219
4651.61719 0.266131
4652.41309 0.266235
4653.20801 0.266339
4654.00488 0.266495
4654.80078 0.266804
4655.59717 0.267112
4656.39404 0.267437
4657.18994 0.267886
4657.98682 0.268335
4658.78418 0.268784
4659.58203 0.269245
4660.37891 0.269706
4661.17578 0.270168
4661.97412 0.270566
4662.77100 0.270952
4663.56885 0.271339
4664.36719 0.271603
4665.16504 0.271816
4665.96289 0.272029
4666.76123 0.272036
4667.56006 0.271889
4668.35791 0.271741
4669.15723 0.271429
4669.95605 0.270907
4670.75488 0.270402
4671.55420 0.269802
4672.35400 0.268988
4673.15283 0.268173
4673.95312 0.267295
4674.75195 0.26613
4675.55176 0.264964
4676.35205 0.263786
4677.15186 0.262389
4677.95215 0.26099
4678.75293 0.259591
4679.55322 0.25812
4680.35400 0.256634
4681.15479 0.255138
4681.95605 0.253572
4682.75684 0.251987
4683.55811 0.250403
4684.35889 0.248859
4685.16113 0.247335
4685.96191 0.24581
4686.76416 0.244425
4687.56592 0.243147
4688.36816 0.24187
4689.16992 0.240726
4689.97217 0.239748
4690.77490 0.238769
4691.57715 0.237936
4692.37988 0.237397
4693.18311 0.236859
4693.98584 0.23641
4694.78906 0.236291
4695.59180 0.236173
4696.39600 0.236083
4697.19922 0.236245
4698.00293 0.236408
4698.80713 0.23657
4699.60986 0.236711
4700.41504 0.236852
4701.21924 0.236993
4702.02295 0.236723
4702.82812 0.236397
4703.63184 0.23607
4704.43701 0.23516
4705.24219 0.234078
4706.04688 0.232995
4706.85205 0.231472
4707.65820 0.229726
4708.46289 0.227982
4709.26904 0.226045
4710.07422 0.223957
4710.87988 0.221869
4711.68604 0.219861
4712.49219 0.217949
4713.29785 0.216037
4714.10498 0.214381
4714.91211 0.213188
4715.71777 0.211996
4716.52490 0.21111
4717.33203 0.211118
4718.13916 0.211127
4718.94580 0.21135
4719.75391 0.212729
4720.56201 0.214108
4721.36914 0.215564
4722.17676 0.218211
4722.98486 0.220861
4723.79297 0.223511
4724.60107 0.227158
4725.40918 0.230842
4726.21777 0.234528
4727.02588 0.238562
4727.83496 0.242649
4728.64404 0.246735
4729.45312 0.250341
4730.26221 0.253812
4731.07178 0.257286
4731.88086 0.259692
4732.69092 0.261617
4733.50000 0.263542
4734.31104 0.264341
4735.12109 0.264392
4735.93115 0.264442
4736.74121 0.263561
4737.55078 0.261796
4738.36182 0.260031
4739.17188 0.257846
4739.98291 0.255097
4740.79395 0.252366
4741.60498 0.249722
4742.41699 0.247243
4743.22803 0.244765
4744.04004 0.242609
4744.85205 0.241362
4745.66309 0.240116
4746.47510 0.239208
4747.28711 0.23982
4748.10010 0.240433
4748.91211 0.241235
4749.72510 0.243681
4750.53711 0.246115
4751.35010 0.248572
4752.16309 0.252082
4752.97607 0.255593
4753.78906 0.259106
4754.60303 0.262327
4755.41602 0.265532
4756.22900 0.268738
4757.04297 0.270271
4757.85693 0.271568
4758.67090 0.272868
4759.48486 0.272124
4760.29980 0.270884
4761.11377 0.269644
4761.92920 0.267137
4762.74414 0.264168
4763.55908 0.261199
4764.37402 0.258228
4765.18799 0.255256
4766.00391 0.252281
4766.81885 0.250297
4767.63477 0.248983
4768.45117 0.247668
4769.26709 0.24746
4770.08301 0.248229
4770.89795 0.248998
4771.71484 0.250283
4772.53076 0.252157
4773.34814 0.254032
4774.16504 0.255381
4774.98096 0.255954
4775.79785 0.256528
4776.61523 0.2559
4777.43311 0.252971
4778.25000 0.250042
4779.06689 0.246104
4779.88477 0.239605
4780.70312 0.233106
4781.52100 0.226241
4782.33887 0.21812
4783.15723 0.210003
4783.97607 0.201977
4784.79395 0.194424
4785.61279 0.186875
4786.43213 0.179499
4787.25000 0.173499
4788.06982 0.167494
4788.88916 0.161508
4789.70801 0.155763
4790.52783 0.15002
4791.34717 0.144259
4792.16699 0.136826
4792.98682 0.129389
4793.80713 0.121955
4794.62695 0.112609
4795.44824 0.103183
4796.26807 0.093756
4797.08887 0.084148
4797.91016 0.074523
4798.72998 0.064897
4799.55078 0.057007
4800.37305 0.049384
4801.19385 0.041761
4802.01611 0.036257
4802.83691 0.031223
4803.65918 0.026185
4804.47998 0.022734
4805.30322 0.019737
4806.12500 0.01674
4806.94678 0.014699
4807.77002 0.013002
4808.59180 0.011305
4809.41504 0.010098
4810.23779 0.009108
4811.06104 0.008117
4811.88379 0.007387
4812.70703 0.006794
4813.53076 0.006201
4814.35400 0.00575
4815.17822 0.005387
4816.00098 0.005024
4816.82617 0.004747
4817.64990 0.004534
4818.47412 0.004321
4819.29785 0.004164
4820.12305 0.004053
4820.94824 0.003943
4821.77197 0.003856
4822.59814 0.003792
4823.42285 0.003727
4824.24805 0.003665
4825.07324 0.003605
4825.89893 0.003544
4826.72510 0.003456
4827.54980 0.003335
4828.37598 0.003214
4829.20312 0.003063
4830.02881 0.002871
4830.85498 0.00268
4831.68213 0.002476
4832.50781 0.002254
4833.33496 0.002032
4834.16211 0.001815
4834.98877 0.001606
4835.81592 0.001398
4836.64404 0.001215
4837.47119 0.001077
4838.29883 0.000939
4839.12695 0.000817
4839.95508 0.000731
4840.78320 0.000644
4841.61084 0.000567
4842.43896 0.000515
4843.26807 0.000463
4844.09717 0.000415
5328.50684 0.0
