# %ECSV 0.9
# ---
# datatype:
# - {name: wavelength, unit: Angstrom, datatype: float32}
# - {name: response, datatype: float32}
# meta: !!omap
# - {band_name: NeII_2}
# - {group_name: CanariCam}
wavelength response
115092.00000 0.0
127880.00000 0.004084
127890.00000 0.004172
127900.00000 0.004261
127910.00000 0.004352
127920.00000 0.004444
127930.00000 0.004539
127940.00000 0.004638
127950.00000 0.004739
127960.00000 0.004846
127970.00000 0.004955
127980.00000 0.005069
127990.00000 0.005185
128000.00000 0.005304
128010.00000 0.005427
128020.00000 0.005553
128030.00000 0.005683
128040.00000 0.005817
128050.00000 0.005953
128060.00000 0.006092
128070.00000 0.006233
128080.00000 0.006379
128090.00000 0.006528
128100.00000 0.006683
128110.00000 0.006843
128120.00000 0.007011
128130.00000 0.007184
128140.00000 0.007363
128150.00000 0.007547
128160.00000 0.007736
128170.00000 0.007931
128180.00000 0.008133
128190.00000 0.008341
128200.00000 0.008556
128210.00000 0.008777
128220.00000 0.009003
128230.00000 0.009235
128240.00000 0.009473
128250.00000 0.009717
128260.00000 0.009971
128270.00000 0.010233
128280.00000 0.010505
128290.00000 0.010788
128300.00000 0.01108
128310.00000 0.011379
128320.00000 0.011687
128330.00000 0.012005
128340.00000 0.012333
128350.00000 0.012672
128360.00000 0.013025
128370.00000 0.01339
128380.00000 0.013766
128390.00000 0.014151
128400.00000 0.014546
128410.00000 0.014954
128420.00000 0.015375
128430.00000 0.015812
128440.00000 0.016265
128450.00000 0.016738
128460.00000 0.017227
128470.00000 0.01773
128480.00000 0.018246
128490.00000 0.018779
128500.00000 0.01933
128510.00000 0.0199
128520.00000 0.020493
128530.00000 0.021109
128540.00000 0.02175
128550.00000 0.022407
128560.00000 0.023083
128570.00000 0.023779
128580.00000 0.024499
128590.00000 0.025244
128600.00000 0.026019
128610.00000 0.026824
128620.00000 0.027663
128630.00000 0.028526
128640.00000 0.029414
128650.00000 0.030328
128660.00000 0.031272
128670.00000 0.03225
128680.00000 0.033264
128690.00000 0.034318
128700.00000 0.035416
128710.00000 0.036549
128720.00000 0.037713
128730.00000 0.038911
128740.00000 0.040147
128750.00000 0.041426
128760.00000 0.042751
128770.00000 0.044127
128780.00000 0.045558
128790.00000 0.047041
128800.00000 0.048564
128810.00000 0.05013
128820.00000 0.051745
128830.00000 0.053413
128840.00000 0.055139
128850.00000 0.056928
128860.00000 0.058786
128870.00000 0.060715
128880.00000 0.062698
128890.00000 0.064735
128900.00000 0.066833
128910.00000 0.068997
128920.00000 0.071232
128930.00000 0.073544
128940.00000 0.07594
128950.00000 0.078423
128960.00000 0.080983
128970.00000 0.083612
128980.00000 0.086314
128990.00000 0.089097
129000.00000 0.091964
129010.00000 0.094921
129020.00000 0.097974
129030.00000 0.101127
129040.00000 0.104379
129050.00000 0.107716
129060.00000 0.111142
129070.00000 0.11466
129080.00000 0.118274
129090.00000 0.121988
129100.00000 0.125806
129110.00000 0.129731
129120.00000 0.133766
129130.00000 0.137905
129140.00000 0.142147
129150.00000 0.146491
129160.00000 0.150938
129170.00000 0.155487
129180.00000 0.160139
129190.00000 0.164893
129200.00000 0.16975
129210.00000 0.174717
129220.00000 0.179795
129230.00000 0.184979
129240.00000 0.190264
129250.00000 0.195644
129260.00000 0.201114
129270.00000 0.20667
129280.00000 0.212305
129290.00000 0.218027
129300.00000 0.223859
129310.00000 0.22979
129320.00000 0.235809
129330.00000 0.241905
129340.00000 0.248066
129350.00000 0.254282
129360.00000 0.26054
129370.00000 0.266836
129380.00000 0.273212
129390.00000 0.279667
129400.00000 0.286184
129410.00000 0.292748
129420.00000 0.299342
129430.00000 0.30595
129440.00000 0.312556
129450.00000 0.319144
129460.00000 0.325746
129470.00000 0.332391
129480.00000 0.339061
129490.00000 0.345738
129500.00000 0.352404
129510.00000 0.359041
129520.00000 0.365631
129530.00000 0.372156
129540.00000 0.378617
129550.00000 0.385068
129560.00000 0.391499
129570.00000 0.397894
129580.00000 0.404236
129590.00000 0.410509
129600.00000 0.416696
129610.00000 0.422782
129620.00000 0.428751
129630.00000 0.434643
129640.00000 0.440467
129650.00000 0.446213
129660.00000 0.451869
129670.00000 0.457425
129680.00000 0.46287
129690.00000 0.468193
129700.00000 0.473383
129710.00000 0.478444
129720.00000 0.483399
129730.00000 0.488243
129740.00000 0.492972
129750.00000 0.497582
129760.00000 0.502068
129770.00000 0.506427
129780.00000 0.510653
129790.00000 0.514743
129800.00000 0.518701
129810.00000 0.522529
129820.00000 0.52623
129830.00000 0.529806
129840.00000 0.533259
129850.00000 0.53659
129860.00000 0.539803
129870.00000 0.5429
129880.00000 0.545871
129890.00000 0.548709
129900.00000 0.551422
129910.00000 0.554016
129920.00000 0.556497
129930.00000 0.558874
129940.00000 0.561152
129950.00000 0.563339
129960.00000 0.565435
129970.00000 0.567416
129980.00000 0.569286
129990.00000 0.571053
130000.00000 0.572726
130010.00000 0.574313
130020.00000 0.575823
130030.00000 0.577263
130040.00000 0.578642
130050.00000 0.57994
130060.00000 0.581145
130070.00000 0.582267
130080.00000 0.583315
130090.00000 0.584298
130100.00000 0.585225
130110.00000 0.586106
130120.00000 0.586949
130130.00000 0.587754
130140.00000 0.588497
130150.00000 0.58918
130160.00000 0.589812
130170.00000 0.590399
130180.00000 0.590947
130190.00000 0.591465
130200.00000 0.591958
130210.00000 0.592434
130220.00000 0.592874
130230.00000 0.593271
130240.00000 0.593634
130250.00000 0.593967
130260.00000 0.594279
130270.00000 0.594575
130280.00000 0.594863
130290.00000 0.595149
130300.00000 0.595432
130310.00000 0.595695
130320.00000 0.595942
130330.00000 0.596176
130340.00000 0.596402
130350.00000 0.596623
130360.00000 0.596844
130370.00000 0.597068
130380.00000 0.597301
130390.00000 0.597529
130400.00000 0.597751
130410.00000 0.597971
130420.00000 0.598191
130430.00000 0.598416
130440.00000 0.59865
130450.00000 0.598897
130460.00000 0.599162
130470.00000 0.599443
130480.00000 0.599732
130490.00000 0.60003
130500.00000 0.600338
130510.00000 0.60066
130520.00000 0.600995
130530.00000 0.601347
130540.00000 0.601717
130550.00000 0.602107
130560.00000 0.602513
130570.00000 0.602934
130580.00000 0.60337
130590.00000 0.603823
130600.00000 0.604293
130610.00000 0.604783
130620.00000 0.605293
130630.00000 0.605824
130640.00000 0.606377
130650.00000 0.606953
130660.00000 0.60755
130670.00000 0.608166
130680.00000 0.608801
130690.00000 0.609453
130700.00000 0.610121
130710.00000 0.610804
130720.00000 0.6115
130730.00000 0.612216
130740.00000 0.612955
130750.00000 0.613713
130760.00000 0.614486
130770.00000 0.615269
130780.00000 0.616058
130790.00000 0.61685
130800.00000 0.61764
130810.00000 0.61843
130820.00000 0.619241
130830.00000 0.620066
130840.00000 0.620898
130850.00000 0.621728
130860.00000 0.622548
130870.00000 0.623347
130880.00000 0.624119
130890.00000 0.624854
130900.00000 0.625575
130910.00000 0.6263
130920.00000 0.627017
130930.00000 0.627711
130940.00000 0.628369
130950.00000 0.628977
130960.00000 0.62952
130970.00000 0.629985
130980.00000 0.630367
130990.00000 0.630718
131000.00000 0.631035
131010.00000 0.6313
131020.00000 0.631495
131030.00000 0.631601
131040.00000 0.6316
131050.00000 0.631473
131060.00000 0.631203
131070.00000 0.630808
131080.00000 0.630338
131090.00000 0.629776
131100.00000 0.629102
131110.00000 0.628297
131120.00000 0.627342
131130.00000 0.626217
131140.00000 0.624904
131150.00000 0.623387
131160.00000 0.621713
131170.00000 0.619894
131180.00000 0.617918
131190.00000 0.61577
131200.00000 0.613436
131210.00000 0.610902
131220.00000 0.608154
131230.00000 0.605179
131240.00000 0.601973
131250.00000 0.598562
131260.00000 0.594948
131270.00000 0.591129
131280.00000 0.587102
131290.00000 0.582865
131300.00000 0.578416
131310.00000 0.573754
131320.00000 0.568875
131330.00000 0.563765
131340.00000 0.558419
131350.00000 0.552851
131360.00000 0.547074
131370.00000 0.5411
131380.00000 0.534942
131390.00000 0.528612
131400.00000 0.522125
131410.00000 0.515484
131420.00000 0.508626
131430.00000 0.501555
131440.00000 0.494298
131450.00000 0.48688
131460.00000 0.479327
131470.00000 0.471665
131480.00000 0.463919
131490.00000 0.456115
131500.00000 0.448232
131510.00000 0.440188
131520.00000 0.432009
131530.00000 0.423725
131540.00000 0.41537
131550.00000 0.406974
131560.00000 0.398568
131570.00000 0.390184
131580.00000 0.381852
131590.00000 0.373501
131600.00000 0.365091
131610.00000 0.356649
131620.00000 0.348204
131630.00000 0.339785
131640.00000 0.331418
131650.00000 0.323133
131660.00000 0.314956
131670.00000 0.306903
131680.00000 0.298896
131690.00000 0.290934
131700.00000 0.283035
131710.00000 0.275217
131720.00000 0.267501
131730.00000 0.259904
131740.00000 0.252445
131750.00000 0.245144
131760.00000 0.237995
131770.00000 0.230959
131780.00000 0.224041
131790.00000 0.217247
131800.00000 0.210585
131810.00000 0.204062
131820.00000 0.197685
131830.00000 0.191461
131840.00000 0.185398
131850.00000 0.17949
131860.00000 0.173731
131870.00000 0.168119
131880.00000 0.162653
131890.00000 0.15733
131900.00000 0.152151
131910.00000 0.147112
131920.00000 0.142213
131930.00000 0.137455
131940.00000 0.132851
131950.00000 0.128399
131960.00000 0.124092
131970.00000 0.119924
131980.00000 0.115885
131990.00000 0.11197
132000.00000 0.108171
132010.00000 0.104481
132020.00000 0.100903
132030.00000 0.097462
132040.00000 0.094151
132050.00000 0.090962
132060.00000 0.087886
132070.00000 0.084916
132080.00000 0.082042
132090.00000 0.079256
132100.00000 0.076551
132110.00000 0.073939
132120.00000 0.071438
132130.00000 0.069041
132140.00000 0.066738
132150.00000 0.064523
132160.00000 0.062385
132170.00000 0.060317
132180.00000 0.05831
132190.00000 0.056358
132200.00000 0.054481
132210.00000 0.052686
132220.00000 0.050967
132230.00000 0.049316
132240.00000 0.047728
132250.00000 0.046194
132260.00000 0.04471
132270.00000 0.043267
132280.00000 0.041864
132290.00000 0.040521
132300.00000 0.039235
132310.00000 0.038004
132320.00000 0.03682
132330.00000 0.035681
132340.00000 0.034579
132350.00000 0.03351
132360.00000 0.03247
132370.00000 0.03146
132380.00000 0.030493
132390.00000 0.029567
132400.00000 0.028678
132410.00000 0.027822
132420.00000 0.026996
132430.00000 0.026197
132440.00000 0.02542
132450.00000 0.024662
132460.00000 0.023927
132470.00000 0.023223
132480.00000 0.022547
132490.00000 0.021897
132500.00000 0.021269
132510.00000 0.020663
132520.00000 0.020075
132530.00000 0.019504
132540.00000 0.018946
132550.00000 0.018408
132560.00000 0.017892
132570.00000 0.017396
132580.00000 0.016919
132590.00000 0.016457
132600.00000 0.016011
132610.00000 0.015577
132620.00000 0.015153
132630.00000 0.014739
132640.00000 0.01434
132650.00000 0.013955
132660.00000 0.013584
132670.00000 0.013226
132680.00000 0.012879
132690.00000 0.012544
132700.00000 0.012217
132710.00000 0.011899
132720.00000 0.01159
132730.00000 0.011293
132740.00000 0.011007
132750.00000 0.010731
132760.00000 0.010466
132770.00000 0.010208
132780.00000 0.009958
132790.00000 0.009714
132800.00000 0.009475
132810.00000 0.009241
132820.00000 0.009016
132830.00000 0.008798
132840.00000 0.008587
132850.00000 0.008382
132860.00000 0.008184
132870.00000 0.007991
132880.00000 0.007803
132890.00000 0.00762
132900.00000 0.007442
132910.00000 0.007271
132920.00000 0.007106
132930.00000 0.006946
132940.00000 0.006792
132950.00000 0.006641
132960.00000 0.006494
132970.00000 0.006349
132980.00000 0.006207
132990.00000 0.006067
133000.00000 0.005931
133010.00000 0.005799
133020.00000 0.00567
133030.00000 0.005545
133040.00000 0.005422
133050.00000 0.005302
133060.00000 0.005184
133070.00000 0.00507
133080.00000 0.004958
133090.00000 0.004849
133100.00000 0.004743
133110.00000 0.00464
133120.00000 0.00454
133130.00000 0.004442
133140.00000 0.004345
133150.00000 0.00425
133160.00000 0.004157
133170.00000 0.004065
146487.00000 0.0
