# %ECSV 0.9
# ---
# datatype:
# - {name: wavelength, unit: Angstrom, datatype: float32}
# - {name: response, datatype: float32}
# meta: !!omap
# - {band_name: sdss_i}
# - {group_name: OSIRIS}
wavelength response
6066.00000 0.0
6740.00000 0.005495
6750.00000 0.008171
6760.00000 0.012119
6770.00000 0.017145
6780.00000 0.023825
6790.00000 0.032261
6800.00000 0.042138
6810.00000 0.05554
6820.00000 0.071525
6830.00000 0.088941
6840.00000 0.109827
6850.00000 0.133155
6860.00000 0.158231
6870.00000 0.186392
6880.00000 0.218617
6890.00000 0.251153
6900.00000 0.284635
6910.00000 0.318711
6920.00000 0.352652
6930.00000 0.386153
6940.00000 0.418852
6950.00000 0.450074
6960.00000 0.480184
6970.00000 0.507939
6980.00000 0.533758
6990.00000 0.55888
7000.00000 0.583047
7010.00000 0.60475
7020.00000 0.626119
7030.00000 0.645914
7040.00000 0.663224
7050.00000 0.680408
7060.00000 0.696478
7070.00000 0.710582
7080.00000 0.722851
7090.00000 0.735396
7100.00000 0.745581
7110.00000 0.755295
7120.00000 0.764416
7130.00000 0.773467
7140.00000 0.781655
7150.00000 0.78885
7160.00000 0.79639
7170.00000 0.802627
7180.00000 0.80912
7190.00000 0.814288
7200.00000 0.819919
7210.00000 0.824629
7220.00000 0.828838
7230.00000 0.833606
7240.00000 0.837785
7250.00000 0.84146
7260.00000 0.8457
7270.00000 0.848435
7280.00000 0.852572
7290.00000 0.855817
7300.00000 0.858618
7310.00000 0.861286
7320.00000 0.864929
7330.00000 0.868205
7340.00000 0.870326
7350.00000 0.873028
7360.00000 0.874774
7370.00000 0.876958
7380.00000 0.877534
7390.00000 0.879685
7400.00000 0.880851
7410.00000 0.882468
7420.00000 0.884104
7430.00000 0.885309
7440.00000 0.885875
7450.00000 0.886447
7460.00000 0.886434
7470.00000 0.887083
7480.00000 0.88767
7490.00000 0.888264
7500.00000 0.888328
7510.00000 0.888863
7520.00000 0.888863
7530.00000 0.889409
7540.00000 0.889412
7550.00000 0.889415
7560.00000 0.889418
7570.00000 0.889351
7580.00000 0.889846
7590.00000 0.889145
7600.00000 0.890004
7610.00000 0.889869
7620.00000 0.889946
7630.00000 0.889298
7640.00000 0.889886
7650.00000 0.889819
7660.00000 0.889825
7670.00000 0.889904
7680.00000 0.889235
7690.00000 0.889087
7700.00000 0.889088
7710.00000 0.888937
7720.00000 0.88886
7730.00000 0.889558
7740.00000 0.888937
7750.00000 0.888859
7760.00000 0.88878
7770.00000 0.888062
7780.00000 0.888057
7790.00000 0.887325
7800.00000 0.887233
7810.00000 0.887139
7820.00000 0.886385
7830.00000 0.885621
7840.00000 0.884761
7850.00000 0.884733
7860.00000 0.884704
7870.00000 0.883907
7880.00000 0.882326
7890.00000 0.88228
7900.00000 0.881356
7910.00000 0.879026
7920.00000 0.876765
7930.00000 0.877379
7940.00000 0.87649
7950.00000 0.873355
7960.00000 0.871712
7970.00000 0.870869
7980.00000 0.868577
7990.00000 0.866872
8000.00000 0.865257
8010.00000 0.863622
8020.00000 0.861123
8030.00000 0.857863
8040.00000 0.857012
8050.00000 0.854555
8060.00000 0.851467
8070.00000 0.84852
8080.00000 0.847506
8090.00000 0.843852
8100.00000 0.840694
8110.00000 0.84029
8120.00000 0.838065
8130.00000 0.835641
8140.00000 0.834544
8150.00000 0.833707
8160.00000 0.831564
8170.00000 0.832436
8180.00000 0.833072
8190.00000 0.833834
8200.00000 0.835062
8210.00000 0.836692
8220.00000 0.837774
8230.00000 0.841062
8240.00000 0.844478
8250.00000 0.847212
8260.00000 0.85172
8270.00000 0.854801
8280.00000 0.85704
8290.00000 0.859894
8300.00000 0.862661
8310.00000 0.864156
8320.00000 0.863935
8330.00000 0.860568
8340.00000 0.853035
8350.00000 0.843689
8360.00000 0.829269
8370.00000 0.812182
8380.00000 0.78885
8390.00000 0.757958
8400.00000 0.722813
8410.00000 0.681044
8420.00000 0.638526
8430.00000 0.593211
8440.00000 0.547232
8450.00000 0.500503
8460.00000 0.455313
8470.00000 0.411286
8480.00000 0.37069
8490.00000 0.33383
8500.00000 0.298593
8510.00000 0.266288
8520.00000 0.235622
8530.00000 0.208995
8540.00000 0.184698
8550.00000 0.161676
8560.00000 0.142621
8570.00000 0.12645
8580.00000 0.111337
8590.00000 0.097778
8600.00000 0.086523
8610.00000 0.075989
8620.00000 0.066413
8630.00000 0.059588
8640.00000 0.052542
8650.00000 0.045765
8660.00000 0.041096
8670.00000 0.036069
8680.00000 0.031374
8690.00000 0.028538
8700.00000 0.026178
8710.00000 0.023019
8720.00000 0.020014
8730.00000 0.018491
8740.00000 0.016456
8750.00000 0.014691
8760.00000 0.01331
8770.00000 0.012234
8780.00000 0.010867
8790.00000 0.009476
8800.00000 0.008807
8810.00000 0.007836
8820.00000 0.007149
8830.00000 0.006675
8840.00000 0.00612
8850.00000 0.005378
8860.00000 0.004822
8870.00000 0.004593
8880.00000 0.004147
9768.00000 0.0
