# %ECSV 0.9
# ---
# datatype:
# - {name: wavelength, unit: Angstrom, datatype: float32}
# - {name: response, datatype: float32}
# meta: !!omap
# - {band_name: Strom_b}
# - {group_name: WiFSIP}
wavelength response
3868.19995 0.0
4298.00000 1.1e-05
4300.00000 1.1e-05
4302.00000 1.2e-05
4304.00000 1.3e-05
4306.00000 1.4e-05
4308.00000 1.5e-05
4310.00000 1.5e-05
4312.00000 1.6e-05
4314.00000 1.7e-05
4316.00000 1.8e-05
4318.00000 1.9e-05
4320.00000 2e-05
4322.00000 2.1e-05
4324.00000 2.2e-05
4326.00000 2.4e-05
4328.00000 2.5e-05
4330.00000 2.6e-05
4332.00000 2.8e-05
4334.00000 3e-05
4336.00000 3.2e-05
4338.00000 3.3e-05
4340.00000 3.5e-05
4342.00000 3.7e-05
4344.00000 3.9e-05
4346.00000 4.1e-05
4348.00000 4.3e-05
4350.00000 4.6e-05
4352.00000 4.8e-05
4354.00000 5e-05
4356.00000 5.3e-05
4358.00000 5.6e-05
4360.00000 6e-05
4362.00000 6.3e-05
4364.00000 6.5e-05
4366.00000 7e-05
4368.00000 7.3e-05
4370.00000 7.7e-05
4372.00000 8.1e-05
4374.00000 8.7e-05
4376.00000 9.1e-05
4378.00000 9.6e-05
4380.00000 0.000101
4382.00000 0.000108
4384.00000 0.000114
4386.00000 0.000121
4388.00000 0.000127
4390.00000 0.000134
4392.00000 0.000142
4394.00000 0.00015
4396.00000 0.000159
4398.00000 0.000168
4400.00000 0.000179
4402.00000 0.000189
4404.00000 0.000202
4406.00000 0.000213
4408.00000 0.000226
4410.00000 0.00024
4412.00000 0.000256
4414.00000 0.000273
4416.00000 0.000291
4418.00000 0.000309
4420.00000 0.000329
4422.00000 0.000349
4424.00000 0.000373
4426.00000 0.000398
4428.00000 0.000426
4430.00000 0.000456
4432.00000 0.000485
4434.00000 0.000518
4436.00000 0.000555
4438.00000 0.000594
4440.00000 0.000637
4442.00000 0.000685
4444.00000 0.000734
4446.00000 0.000789
4448.00000 0.000845
4450.00000 0.000908
4452.00000 0.00098
4454.00000 0.001056
4456.00000 0.00114
4458.00000 0.001228
4460.00000 0.001325
4462.00000 0.00143
4464.00000 0.001553
4466.00000 0.001676
4468.00000 0.001826
4470.00000 0.001982
4472.00000 0.002144
4474.00000 0.002323
4476.00000 0.002531
4478.00000 0.002758
4480.00000 0.003005
4482.00000 0.003297
4484.00000 0.003605
4486.00000 0.003935
4488.00000 0.004288
4490.00000 0.004704
4492.00000 0.005161
4494.00000 0.005686
4496.00000 0.006256
4498.00000 0.006886
4500.00000 0.007583
4502.00000 0.008352
4504.00000 0.009233
4506.00000 0.010257
4508.00000 0.011415
4510.00000 0.012656
4512.00000 0.014046
4514.00000 0.015572
4516.00000 0.017326
4518.00000 0.019347
4520.00000 0.021623
4522.00000 0.024282
4524.00000 0.027141
4526.00000 0.030325
4528.00000 0.033953
4530.00000 0.03812
4532.00000 0.043131
4534.00000 0.048524
4536.00000 0.054863
4538.00000 0.061567
4540.00000 0.069446
4542.00000 0.078167
4544.00000 0.088099
4546.00000 0.099818
4548.00000 0.112463
4550.00000 0.126766
4552.00000 0.14182
4554.00000 0.1587
4556.00000 0.177587
4558.00000 0.198592
4560.00000 0.221656
4562.00000 0.246363
4564.00000 0.271587
4566.00000 0.298016
4568.00000 0.327006
4570.00000 0.356265
4572.00000 0.38689
4574.00000 0.419161
4576.00000 0.451096
4578.00000 0.481398
4580.00000 0.511334
4582.00000 0.541703
4584.00000 0.569742
4586.00000 0.597979
4588.00000 0.623149
4590.00000 0.649299
4592.00000 0.670321
4594.00000 0.69139
4596.00000 0.710104
4598.00000 0.727138
4600.00000 0.742346
4602.00000 0.75329
4604.00000 0.765536
4606.00000 0.77604
4608.00000 0.787397
4610.00000 0.792779
4612.00000 0.796649
4614.00000 0.805097
4616.00000 0.810766
4618.00000 0.816298
4620.00000 0.821734
4622.00000 0.820337
4624.00000 0.824703
4626.00000 0.826633
4628.00000 0.830469
4630.00000 0.831491
4632.00000 0.831109
4634.00000 0.834026
4636.00000 0.835885
4638.00000 0.836974
4640.00000 0.836638
4642.00000 0.838434
4644.00000 0.837217
4646.00000 0.838495
4648.00000 0.839744
4650.00000 0.8385
4652.00000 0.839954
4654.00000 0.837966
4656.00000 0.838291
4658.00000 0.837397
4660.00000 0.840398
4662.00000 0.834767
4664.00000 0.837504
4666.00000 0.83402
4668.00000 0.835656
4670.00000 0.8352
4672.00000 0.833399
4674.00000 0.83277
4676.00000 0.833539
4678.00000 0.829038
4680.00000 0.833051
4682.00000 0.829073
4684.00000 0.827191
4686.00000 0.828089
4688.00000 0.827519
4690.00000 0.821347
4692.00000 0.824372
4694.00000 0.823483
4696.00000 0.821321
4698.00000 0.821607
4700.00000 0.821404
4702.00000 0.818859
4704.00000 0.818559
4706.00000 0.814745
4708.00000 0.812616
4710.00000 0.81141
4712.00000 0.811628
4714.00000 0.804336
4716.00000 0.800193
4718.00000 0.796076
4720.00000 0.790146
4722.00000 0.785165
4724.00000 0.776257
4726.00000 0.765202
4728.00000 0.752953
4730.00000 0.741403
4732.00000 0.727381
4734.00000 0.712269
4736.00000 0.69405
4738.00000 0.673903
4740.00000 0.65209
4742.00000 0.630364
4744.00000 0.606537
4746.00000 0.580554
4748.00000 0.552839
4750.00000 0.523766
4752.00000 0.494169
4754.00000 0.466113
4756.00000 0.437351
4758.00000 0.407294
4760.00000 0.37808
4762.00000 0.348592
4764.00000 0.321538
4766.00000 0.295174
4768.00000 0.271597
4770.00000 0.248386
4772.00000 0.225882
4774.00000 0.205228
4776.00000 0.186001
4778.00000 0.168123
4780.00000 0.152703
4782.00000 0.138407
4784.00000 0.124744
4786.00000 0.112444
4788.00000 0.101063
4790.00000 0.090695
4792.00000 0.081842
4794.00000 0.074199
4796.00000 0.067316
4798.00000 0.060884
4800.00000 0.05503
4802.00000 0.049676
4804.00000 0.044731
4806.00000 0.040655
4808.00000 0.037057
4810.00000 0.033688
4812.00000 0.030695
4814.00000 0.027813
4816.00000 0.025245
4818.00000 0.023001
4820.00000 0.021088
4822.00000 0.019316
4824.00000 0.017691
4826.00000 0.016186
4828.00000 0.014831
4830.00000 0.013607
4832.00000 0.012503
4834.00000 0.01152
4836.00000 0.010658
4838.00000 0.009843
4840.00000 0.009062
4842.00000 0.008366
4844.00000 0.007729
4846.00000 0.007153
4848.00000 0.00666
4850.00000 0.006191
4852.00000 0.005734
4854.00000 0.005327
4856.00000 0.004941
4858.00000 0.004604
4860.00000 0.004297
4862.00000 0.004022
4864.00000 0.003764
4866.00000 0.003501
4868.00000 0.003276
4870.00000 0.00306
4872.00000 0.002873
4874.00000 0.002698
4876.00000 0.002534
4878.00000 0.002384
4880.00000 0.002236
4882.00000 0.002102
4884.00000 0.001977
4886.00000 0.001864
4888.00000 0.001759
4890.00000 0.001659
4892.00000 0.001571
4894.00000 0.001478
4896.00000 0.001403
4898.00000 0.001321
4900.00000 0.001252
4902.00000 0.001191
4904.00000 0.00113
4906.00000 0.001069
4908.00000 0.001016
4910.00000 0.000963
4912.00000 0.000916
4914.00000 0.000873
4916.00000 0.000831
4918.00000 0.000794
4920.00000 0.000752
4922.00000 0.000719
4924.00000 0.000683
4926.00000 0.000654
4928.00000 0.000624
4930.00000 0.000598
4932.00000 0.000571
4934.00000 0.000546
4936.00000 0.000521
4938.00000 0.000498
4940.00000 0.000478
4942.00000 0.000458
4944.00000 0.000439
4946.00000 0.000421
4948.00000 0.000405
4950.00000 0.000387
4952.00000 0.000372
4954.00000 0.000357
4956.00000 0.000344
4958.00000 0.000331
4960.00000 0.000317
4962.00000 0.000306
4964.00000 0.000294
4966.00000 0.000285
4968.00000 0.000273
4970.00000 0.000263
4972.00000 0.000255
4974.00000 0.000245
4976.00000 0.000236
4978.00000 0.000228
4980.00000 0.000219
4982.00000 0.000213
4984.00000 0.000206
4986.00000 0.000199
4988.00000 0.000193
4990.00000 0.000186
4992.00000 0.00018
4994.00000 0.000175
4996.00000 0.000169
4998.00000 0.000164
5000.00000 0.00016
5002.00000 0.000155
5004.00000 0.00015
5006.00000 0.000144
5008.00000 0.000141
5010.00000 0.000137
5012.00000 0.000134
5014.00000 0.00013
5016.00000 0.000125
5018.00000 0.000123
5020.00000 0.000118
5022.00000 0.000116
5024.00000 0.000113
5026.00000 0.00011
5028.00000 0.000107
5030.00000 0.000104
5032.00000 0.000101
5034.00000 9.9e-05
5036.00000 9.6e-05
5038.00000 9.4e-05
5040.00000 9.1e-05
5042.00000 9e-05
5044.00000 8.7e-05
5046.00000 8.5e-05
5048.00000 8.3e-05
5050.00000 8.2e-05
5052.00000 8e-05
5054.00000 7.8e-05
5056.00000 7.6e-05
5058.00000 7.4e-05
5060.00000 7.3e-05
5062.00000 7.1e-05
5064.00000 7e-05
5066.00000 6.8e-05
5068.00000 6.6e-05
5070.00000 6.5e-05
5072.00000 6.4e-05
5074.00000 6.3e-05
5076.00000 6.1e-05
5078.00000 6.1e-05
5080.00000 5.9e-05
5082.00000 5.8e-05
5084.00000 5.7e-05
5086.00000 5.6e-05
5088.00000 5.5e-05
5090.00000 5.4e-05
5092.00000 5.3e-05
5094.00000 5.2e-05
5096.00000 5.1e-05
5098.00000 5e-05
5100.00000 4.9e-05
5102.00000 4.8e-05
5104.00000 4.8e-05
5106.00000 4.6e-05
5108.00000 4.6e-05
5110.00000 4.5e-05
5112.00000 4.4e-05
5114.00000 4.4e-05
5116.00000 4.3e-05
5118.00000 4.2e-05
5120.00000 4.1e-05
5122.00000 4.1e-05
5124.00000 4e-05
5126.00000 4e-05
5128.00000 3.9e-05
5130.00000 3.8e-05
5132.00000 3.8e-05
5134.00000 3.8e-05
5136.00000 3.7e-05
5138.00000 3.6e-05
5140.00000 3.6e-05
5142.00000 3.5e-05
5144.00000 3.5e-05
5146.00000 3.4e-05
5148.00000 3.4e-05
5150.00000 3.3e-05
5152.00000 3.2e-05
5154.00000 3.2e-05
5156.00000 3.1e-05
5158.00000 3.1e-05
5160.00000 3.1e-05
5162.00000 3e-05
5164.00000 2.9e-05
5166.00000 2.9e-05
5168.00000 2.8e-05
5170.00000 2.8e-05
5172.00000 2.7e-05
5174.00000 2.7e-05
5176.00000 2.6e-05
5178.00000 2.6e-05
5180.00000 2.5e-05
5182.00000 2.4e-05
5184.00000 2.3e-05
5186.00000 2.2e-05
5188.00000 2.1e-05
5190.00000 2e-05
5192.00000 2e-05
5194.00000 1.9e-05
5196.00000 1.8e-05
5198.00000 1.7e-05
5200.00000 1.7e-05
5202.00000 1.6e-05
5204.00000 1.5e-05
5206.00000 1.4e-05
5208.00000 1.3e-05
5210.00000 1.3e-05
5212.00000 1.2e-05
5214.00000 1.1e-05
5216.00000 1e-05
5737.60010 0.0
