# %ECSV 0.9
# ---
# datatype:
# - {name: wavelength, unit: Angstrom, datatype: float32}
# - {name: response, datatype: float32}
# meta: !!omap
# - {band_name: Bessel_B}
# - {group_name: WiFSIP}
wavelength response
3127.50000 0.0
3475.00000 3e-06
3480.00000 2.3e-05
3485.00000 4e-06
3490.00000 1.7e-05
3495.00000 1.6e-05
3500.00000 1.2e-05
3505.00000 7e-06
3510.00000 1.2e-05
3515.00000 1.9e-05
3520.00000 1.1e-05
3525.00000 1.4e-05
3530.00000 2e-05
3535.00000 1.7e-05
3540.00000 1.8e-05
3545.00000 9e-06
3550.00000 1.3e-05
3555.00000 1.1e-05
3560.00000 1.3e-05
3565.00000 1.1e-05
3570.00000 1.5e-05
3575.00000 1.3e-05
3580.00000 2.4e-05
3585.00000 1.5e-05
3590.00000 2.3e-05
3595.00000 1e-05
3600.00000 1.5e-05
3605.00000 1.5e-05
3610.00000 9e-06
3615.00000 1.3e-05
3620.00000 2.2e-05
3625.00000 2e-05
3630.00000 2.3e-05
3635.00000 9e-06
3640.00000 1.6e-05
3645.00000 9e-06
3650.00000 1.7e-05
3655.00000 2.3e-05
3660.00000 7e-06
3665.00000 2.5e-05
3670.00000 3e-06
3675.00000 1.8e-05
3680.00000 6e-06
3685.00000 2e-06
3690.00000 1.8e-05
3695.00000 1e-06
3700.00000 4e-06
3705.00000 2.2e-05
3710.00000 2.2e-05
3715.00000 2.2e-05
3720.00000 2.7e-05
3725.00000 4.1e-05
3730.00000 4.6e-05
3735.00000 8.2e-05
3740.00000 0.000131
3745.00000 0.000242
3750.00000 0.00045
3755.00000 0.000821
3760.00000 0.001459
3765.00000 0.00261
3770.00000 0.004529
3775.00000 0.007596
3780.00000 0.012487
3785.00000 0.019565
3790.00000 0.029732
3795.00000 0.04391
3800.00000 0.062351
3805.00000 0.085991
3810.00000 0.114423
3815.00000 0.147133
3820.00000 0.183433
3825.00000 0.222428
3830.00000 0.263175
3835.00000 0.305659
3840.00000 0.346376
3845.00000 0.386828
3850.00000 0.424503
3855.00000 0.459325
3860.00000 0.49203
3865.00000 0.521109
3870.00000 0.547177
3875.00000 0.571049
3880.00000 0.59174
3885.00000 0.609749
3890.00000 0.625938
3895.00000 0.640324
3900.00000 0.653285
3905.00000 0.664339
3910.00000 0.674404
3915.00000 0.683457
3920.00000 0.691293
3925.00000 0.698295
3930.00000 0.704634
3935.00000 0.710708
3940.00000 0.716275
3945.00000 0.720989
3950.00000 0.725068
3955.00000 0.729284
3960.00000 0.733255
3965.00000 0.736638
3970.00000 0.740262
3975.00000 0.743419
3980.00000 0.746453
3985.00000 0.74936
3990.00000 0.752189
3995.00000 0.754647
4000.00000 0.757147
4005.00000 0.759151
4010.00000 0.761702
4015.00000 0.763588
4020.00000 0.765475
4025.00000 0.767323
4030.00000 0.769206
4035.00000 0.770915
4040.00000 0.772651
4045.00000 0.774219
4050.00000 0.77595
4055.00000 0.777195
4060.00000 0.778689
4065.00000 0.779871
4070.00000 0.781191
4075.00000 0.782482
4080.00000 0.783411
4085.00000 0.784273
4090.00000 0.78534
4095.00000 0.786316
4100.00000 0.787215
4105.00000 0.787984
4110.00000 0.788705
4115.00000 0.789393
4120.00000 0.790002
4125.00000 0.790542
4130.00000 0.791034
4135.00000 0.791544
4140.00000 0.792008
4145.00000 0.792277
4150.00000 0.792827
4155.00000 0.793073
4160.00000 0.793574
4165.00000 0.794042
4170.00000 0.794534
4175.00000 0.795137
4180.00000 0.795444
4185.00000 0.795885
4190.00000 0.796476
4195.00000 0.796611
4200.00000 0.796684
4205.00000 0.796897
4210.00000 0.79698
4215.00000 0.796901
4220.00000 0.796849
4225.00000 0.796436
4230.00000 0.796771
4235.00000 0.796472
4240.00000 0.795713
4245.00000 0.795582
4250.00000 0.795092
4255.00000 0.794608
4260.00000 0.794375
4265.00000 0.793782
4270.00000 0.793356
4275.00000 0.792914
4280.00000 0.792426
4285.00000 0.79201
4290.00000 0.79139
4295.00000 0.790793
4300.00000 0.790399
4305.00000 0.789739
4310.00000 0.789123
4315.00000 0.788553
4320.00000 0.787752
4325.00000 0.78699
4330.00000 0.786177
4335.00000 0.785244
4340.00000 0.784636
4345.00000 0.78343
4350.00000 0.782628
4355.00000 0.78159
4360.00000 0.780591
4365.00000 0.779851
4370.00000 0.778755
4375.00000 0.777957
4380.00000 0.777039
4385.00000 0.776246
4390.00000 0.775318
4395.00000 0.774227
4400.00000 0.773564
4405.00000 0.772649
4410.00000 0.771475
4415.00000 0.770281
4420.00000 0.769257
4425.00000 0.767934
4430.00000 0.766542
4435.00000 0.765124
4440.00000 0.763751
4445.00000 0.762221
4450.00000 0.760534
4455.00000 0.758827
4460.00000 0.757303
4465.00000 0.755377
4470.00000 0.753545
4475.00000 0.751591
4480.00000 0.749602
4485.00000 0.747542
4490.00000 0.74525
4495.00000 0.743084
4500.00000 0.740764
4505.00000 0.738603
4510.00000 0.736526
4515.00000 0.734233
4520.00000 0.732103
4525.00000 0.730151
4530.00000 0.727846
4535.00000 0.725829
4540.00000 0.723583
4545.00000 0.721575
4550.00000 0.719151
4555.00000 0.717005
4560.00000 0.714413
4565.00000 0.711928
4570.00000 0.709116
4575.00000 0.706439
4580.00000 0.703321
4585.00000 0.70025
4590.00000 0.696996
4595.00000 0.693926
4600.00000 0.690389
4605.00000 0.686923
4610.00000 0.683233
4615.00000 0.679493
4620.00000 0.675565
4625.00000 0.671429
4630.00000 0.667467
4635.00000 0.663119
4640.00000 0.658541
4645.00000 0.65386
4650.00000 0.648844
4655.00000 0.643747
4660.00000 0.638148
4665.00000 0.632581
4670.00000 0.626693
4675.00000 0.620632
4680.00000 0.614431
4685.00000 0.608054
4690.00000 0.601478
4695.00000 0.594782
4700.00000 0.587838
4705.00000 0.580973
4710.00000 0.574169
4715.00000 0.567218
4720.00000 0.559987
4725.00000 0.553084
4730.00000 0.545773
4735.00000 0.538522
4740.00000 0.531352
4745.00000 0.52376
4750.00000 0.516457
4755.00000 0.509191
4760.00000 0.501615
4765.00000 0.493901
4770.00000 0.486308
4775.00000 0.478667
4780.00000 0.471033
4785.00000 0.463197
4790.00000 0.455696
4795.00000 0.44761
4800.00000 0.439742
4805.00000 0.431873
4810.00000 0.423865
4815.00000 0.415889
4820.00000 0.408028
4825.00000 0.399848
4830.00000 0.392068
4835.00000 0.384118
4840.00000 0.376147
4845.00000 0.368473
4850.00000 0.360572
4855.00000 0.35287
4860.00000 0.3452
4865.00000 0.337607
4870.00000 0.330199
4875.00000 0.322963
4880.00000 0.315694
4885.00000 0.308658
4890.00000 0.301739
4895.00000 0.295032
4900.00000 0.288306
4905.00000 0.281733
4910.00000 0.275495
4915.00000 0.269348
4920.00000 0.263212
4925.00000 0.257468
4930.00000 0.251663
4935.00000 0.246113
4940.00000 0.240843
4945.00000 0.235405
4950.00000 0.230478
4955.00000 0.225597
4960.00000 0.22083
4965.00000 0.216261
4970.00000 0.211842
4975.00000 0.207557
4980.00000 0.203215
4985.00000 0.19891
4990.00000 0.194688
4995.00000 0.190497
5000.00000 0.186149
5005.00000 0.181931
5010.00000 0.177496
5015.00000 0.17307
5020.00000 0.168532
5025.00000 0.16376
5030.00000 0.159076
5035.00000 0.154339
5040.00000 0.14947
5045.00000 0.144741
5050.00000 0.139843
5055.00000 0.135128
5060.00000 0.130531
5065.00000 0.125932
5070.00000 0.121586
5075.00000 0.117282
5080.00000 0.113066
5085.00000 0.109103
5090.00000 0.105268
5095.00000 0.101583
5100.00000 0.098149
5105.00000 0.094809
5110.00000 0.091502
5115.00000 0.088408
5120.00000 0.085298
5125.00000 0.082343
5130.00000 0.079526
5135.00000 0.076692
5140.00000 0.073989
5145.00000 0.071282
5150.00000 0.06864
5155.00000 0.066049
5160.00000 0.063474
5165.00000 0.061027
5170.00000 0.058576
5175.00000 0.056154
5180.00000 0.053889
5185.00000 0.051564
5190.00000 0.049325
5195.00000 0.047205
5200.00000 0.045072
5205.00000 0.043089
5210.00000 0.04108
5215.00000 0.039141
5220.00000 0.037305
5225.00000 0.035576
5230.00000 0.033881
5235.00000 0.03224
5240.00000 0.030676
5245.00000 0.029179
5250.00000 0.027762
5255.00000 0.026405
5260.00000 0.025123
5265.00000 0.023911
5270.00000 0.022771
5275.00000 0.021707
5280.00000 0.020686
5285.00000 0.019764
5290.00000 0.018884
5295.00000 0.018058
5300.00000 0.01731
5305.00000 0.016587
5310.00000 0.015921
5315.00000 0.015314
5320.00000 0.014755
5325.00000 0.014259
5330.00000 0.013774
5335.00000 0.013336
5340.00000 0.012938
5345.00000 0.012568
5350.00000 0.012252
5355.00000 0.01195
5360.00000 0.011679
5365.00000 0.011435
5370.00000 0.011217
5375.00000 0.011018
5380.00000 0.01085
5385.00000 0.01069
5390.00000 0.01056
5395.00000 0.01048
5400.00000 0.01037
5405.00000 0.010307
5410.00000 0.010272
5415.00000 0.010236
5420.00000 0.010239
5425.00000 0.01026
5430.00000 0.010311
5435.00000 0.010364
5440.00000 0.010442
5445.00000 0.010559
5450.00000 0.010675
5455.00000 0.010825
5460.00000 0.011056
5465.00000 0.011242
5470.00000 0.011494
5475.00000 0.011741
5480.00000 0.01202
5485.00000 0.012342
5490.00000 0.012667
5495.00000 0.01303
5500.00000 0.0134
5505.00000 0.013833
5510.00000 0.014238
5515.00000 0.014674
5520.00000 0.01512
5525.00000 0.015582
5530.00000 0.016034
5535.00000 0.016507
5540.00000 0.016959
5545.00000 0.017387
5550.00000 0.017821
5555.00000 0.018216
5560.00000 0.018611
5565.00000 0.018928
5570.00000 0.019232
5575.00000 0.019528
5580.00000 0.019725
5585.00000 0.019903
5590.00000 0.020026
5595.00000 0.020138
5600.00000 0.020168
5605.00000 0.020173
5610.00000 0.020097
5615.00000 0.020015
5620.00000 0.019869
5625.00000 0.019688
5630.00000 0.019466
5635.00000 0.019189
5640.00000 0.018903
5645.00000 0.018572
5650.00000 0.018219
5655.00000 0.017776
5660.00000 0.017366
5665.00000 0.016882
5670.00000 0.016388
5675.00000 0.015898
5680.00000 0.015345
5685.00000 0.014815
5690.00000 0.014202
5695.00000 0.013673
5700.00000 0.013074
5705.00000 0.012506
5710.00000 0.011903
5715.00000 0.011319
5720.00000 0.010718
5725.00000 0.010135
5730.00000 0.009536
5735.00000 0.008981
5740.00000 0.008428
5745.00000 0.007888
5750.00000 0.007363
5755.00000 0.006866
5760.00000 0.006371
5765.00000 0.005896
5770.00000 0.005469
5775.00000 0.005045
5780.00000 0.004663
5785.00000 0.004291
5790.00000 0.003939
5795.00000 0.00362
5800.00000 0.003301
5805.00000 0.003024
5810.00000 0.002742
5815.00000 0.002507
5820.00000 0.002281
5825.00000 0.002088
5830.00000 0.001876
5835.00000 0.001727
5840.00000 0.001576
5845.00000 0.001434
5850.00000 0.001296
5855.00000 0.001189
5860.00000 0.001081
5865.00000 0.00102
5870.00000 0.000926
5875.00000 0.000868
5880.00000 0.000789
5885.00000 0.000744
5890.00000 0.000703
5895.00000 0.000661
5900.00000 0.000617
5905.00000 0.000596
5910.00000 0.000575
5915.00000 0.000533
5920.00000 0.000525
5925.00000 0.00052
5930.00000 0.000492
5935.00000 0.000492
5940.00000 0.000461
5945.00000 0.000473
5950.00000 0.00045
5955.00000 0.000463
5960.00000 0.000464
5965.00000 0.000468
5970.00000 0.000472
5975.00000 0.000459
5980.00000 0.000458
5985.00000 0.000461
5990.00000 0.000467
5995.00000 0.000471
6000.00000 0.000484
6005.00000 0.000471
6010.00000 0.000473
6015.00000 0.000473
6020.00000 0.000483
6025.00000 0.000478
6030.00000 0.000478
6035.00000 0.000474
6040.00000 0.000475
6045.00000 0.000473
6050.00000 0.000478
6055.00000 0.000486
6060.00000 0.000467
6065.00000 0.000467
6070.00000 0.000472
6075.00000 0.000461
6080.00000 0.000462
6085.00000 0.00045
6090.00000 0.000455
6095.00000 0.000441
6100.00000 0.000443
6105.00000 0.000432
6110.00000 0.000422
6115.00000 0.000422
6120.00000 0.000415
6125.00000 0.00041
6130.00000 0.000415
6135.00000 0.000401
6140.00000 0.000388
6145.00000 0.000391
6150.00000 0.000381
6155.00000 0.000382
6160.00000 0.000371
6165.00000 0.000346
6170.00000 0.000366
6175.00000 0.000343
6180.00000 0.00035
6185.00000 0.000328
6190.00000 0.000324
6195.00000 0.000317
6200.00000 0.000308
6205.00000 0.000316
6210.00000 0.000302
6215.00000 0.000286
6220.00000 0.000283
6225.00000 0.000278
6230.00000 0.000267
6235.00000 0.000256
6240.00000 0.000256
6245.00000 0.000231
6250.00000 0.000221
6255.00000 0.00023
6260.00000 0.000212
6265.00000 0.00021
6270.00000 0.000198
6275.00000 0.000167
6280.00000 0.000178
6285.00000 0.00019
6290.00000 0.00016
6295.00000 0.000169
6300.00000 0.000157
6305.00000 0.000141
6310.00000 0.000134
6315.00000 0.00014
6320.00000 0.000121
6325.00000 0.000132
6330.00000 0.000117
6335.00000 0.000138
6340.00000 0.000112
6345.00000 0.000112
6350.00000 0.000108
6355.00000 9.7e-05
6360.00000 8.5e-05
6365.00000 7e-05
6370.00000 8.3e-05
6375.00000 8.8e-05
6380.00000 9.2e-05
6385.00000 8.4e-05
6390.00000 7.5e-05
6395.00000 6.3e-05
6400.00000 6.7e-05
6405.00000 7.1e-05
6410.00000 6.6e-05
6415.00000 5.6e-05
6420.00000 4.7e-05
6425.00000 5.2e-05
6430.00000 6.7e-05
6435.00000 5.2e-05
6440.00000 5.1e-05
6445.00000 6.2e-05
6450.00000 4.8e-05
6455.00000 4.2e-05
6460.00000 4.9e-05
6465.00000 4.2e-05
6470.00000 4e-05
6475.00000 3.7e-05
6480.00000 3.7e-05
6485.00000 5.1e-05
6490.00000 3.4e-05
6495.00000 3.3e-05
6500.00000 4.5e-05
6505.00000 3.9e-05
6510.00000 5.7e-05
6515.00000 4.4e-05
6520.00000 4.4e-05
6525.00000 5.2e-05
6530.00000 6.2e-05
6535.00000 3.9e-05
6540.00000 4.8e-05
6545.00000 3.5e-05
6550.00000 2.8e-05
7205.00000 0.0
