# %ECSV 0.9
# ---
# datatype:
# - {name: wavelength, unit: Angstrom, datatype: float32}
# - {name: response, datatype: float32}
# meta: !!omap
# - {band_name: G}
# - {group_name: GAIA0}
wavelength response
3210.00000 0.0
3230.00000 1e-05
3250.00000 0.00016
3270.00000 0.00106
3290.00000 0.00348
3310.00000 0.00737
3330.00000 0.01199
3350.00000 0.01718
3370.00000 0.02206
3390.00000 0.02681
3410.00000 0.03182
3430.00000 0.03631
3450.00000 0.04039
3470.00000 0.04361
3490.00000 0.04595
3510.00000 0.04788
3530.00000 0.04895
3550.00000 0.04969
3570.00000 0.04986
3590.00000 0.04984
3610.00000 0.04958
3630.00000 0.04912
3640.00000 0.04868
3650.00000 0.04854
3670.00000 0.04793
3690.00000 0.04729
3710.00000 0.0469
3730.00000 0.04638
3750.00000 0.04655
3770.00000 0.04734
3790.00000 0.04924
3810.00000 0.05379
3830.00000 0.06144
3850.00000 0.07278
3870.00000 0.08804
3890.00000 0.10736
3910.00000 0.12917
3930.00000 0.1524
3950.00000 0.1757
3970.00000 0.19767
3990.00000 0.2189
4010.00000 0.2381
4030.00000 0.25662
4050.00000 0.27384
4070.00000 0.29065
4090.00000 0.30532
4110.00000 0.32111
4130.00000 0.33432
4150.00000 0.34779
4170.00000 0.36108
4190.00000 0.37455
4210.00000 0.38635
4230.00000 0.39765
4250.00000 0.40768
4270.00000 0.41907
4290.00000 0.43042
4310.00000 0.44157
4330.00000 0.44947
4350.00000 0.46058
4370.00000 0.47041
4390.00000 0.47909
4410.00000 0.488
4430.00000 0.49845
4450.00000 0.50745
4470.00000 0.51483
4490.00000 0.52543
4510.00000 0.53272
4530.00000 0.5425
4550.00000 0.55115
4570.00000 0.55804
4590.00000 0.56588
4610.00000 0.57505
4630.00000 0.5819
4650.00000 0.59176
4670.00000 0.59844
4690.00000 0.60523
4710.00000 0.61173
4730.00000 0.62274
4750.00000 0.62696
4770.00000 0.63751
4790.00000 0.64291
4810.00000 0.6488
4830.00000 0.65551
4850.00000 0.66182
4870.00000 0.66921
4890.00000 0.67523
4910.00000 0.68186
4930.00000 0.68857
4950.00000 0.69576
4970.00000 0.70217
4990.00000 0.70784
5010.00000 0.71314
5030.00000 0.71934
5050.00000 0.72667
5070.00000 0.73256
5090.00000 0.73745
5110.00000 0.74607
5130.00000 0.74695
5150.00000 0.75572
5170.00000 0.76037
5190.00000 0.76718
5210.00000 0.77442
5230.00000 0.77715
5250.00000 0.78325
5270.00000 0.78655
5290.00000 0.79358
5310.00000 0.79968
5330.00000 0.80562
5350.00000 0.8107
5370.00000 0.81455
5390.00000 0.82073
5410.00000 0.82621
5430.00000 0.82879
5450.00000 0.83104
5470.00000 0.83923
5490.00000 0.84114
5510.00000 0.84636
5530.00000 0.85204
5550.00000 0.85764
5570.00000 0.86073
5590.00000 0.86183
5610.00000 0.86655
5630.00000 0.87149
5650.00000 0.87597
5670.00000 0.8801
5690.00000 0.88175
5710.00000 0.88476
5730.00000 0.88905
5750.00000 0.89292
5770.00000 0.89556
5790.00000 0.90072
5810.00000 0.90286
5830.00000 0.90826
5850.00000 0.90718
5870.00000 0.91279
5890.00000 0.91966
5910.00000 0.91909
5930.00000 0.92398
5950.00000 0.92788
5970.00000 0.93085
5990.00000 0.93153
6010.00000 0.94129
6030.00000 0.93788
6050.00000 0.94016
6070.00000 0.94126
6090.00000 0.94686
6110.00000 0.95059
6130.00000 0.95149
6150.00000 0.9546
6170.00000 0.95721
6190.00000 0.95683
6210.00000 0.96137
6230.00000 0.96542
6250.00000 0.96318
6270.00000 0.96615
6290.00000 0.96661
6310.00000 0.96954
6330.00000 0.97459
6350.00000 0.975
6370.00000 0.97479
6390.00000 0.97707
6410.00000 0.97685
6430.00000 0.9833
6450.00000 0.98139
6470.00000 0.98691
6490.00000 0.98327
6510.00000 0.98856
6530.00000 0.98837
6550.00000 0.98856
6570.00000 0.98868
6590.00000 0.99058
6610.00000 0.99138
6630.00000 0.98883
6650.00000 0.9934
6670.00000 0.99553
6690.00000 0.99536
6710.00000 0.99578
6730.00000 0.99978
6750.00000 0.99882
6770.00000 0.99748
6790.00000 0.99751
6810.00000 0.99966
6830.00000 0.99707
6850.00000 0.99894
6870.00000 0.99512
6890.00000 0.99749
6910.00000 0.99572
6930.00000 0.99552
6950.00000 0.99621
6970.00000 0.99901
6990.00000 0.9986
7010.00000 1.0
7030.00000 0.99443
7050.00000 0.99226
7070.00000 0.99401
7090.00000 0.99232
7110.00000 0.99445
7130.00000 0.99314
7150.00000 0.99311
7170.00000 0.98856
7190.00000 0.98535
7210.00000 0.9871
7230.00000 0.9836
7250.00000 0.98078
7270.00000 0.98183
7290.00000 0.97654
7310.00000 0.9759
7330.00000 0.97603
7350.00000 0.97166
7370.00000 0.97002
7390.00000 0.96615
7410.00000 0.96641
7430.00000 0.95884
7450.00000 0.95833
7470.00000 0.95603
7490.00000 0.95358
7510.00000 0.94775
7530.00000 0.948
7550.00000 0.94307
7570.00000 0.93955
7590.00000 0.93699
7610.00000 0.92994
7630.00000 0.9293
7650.00000 0.92481
7670.00000 0.91706
7690.00000 0.91422
7710.00000 0.91068
7730.00000 0.90632
7750.00000 0.89947
7770.00000 0.89072
7790.00000 0.89358
7810.00000 0.88571
7830.00000 0.88371
7850.00000 0.87297
7870.00000 0.86825
7890.00000 0.86316
7910.00000 0.85776
7930.00000 0.85327
7950.00000 0.84639
7970.00000 0.84127
7990.00000 0.83199
8010.00000 0.82554
8030.00000 0.82122
8050.00000 0.81203
8070.00000 0.80595
8090.00000 0.79904
8110.00000 0.79481
8130.00000 0.78988
8150.00000 0.78172
8170.00000 0.77186
8190.00000 0.76474
8210.00000 0.7572
8230.00000 0.75081
8250.00000 0.74356
8270.00000 0.73629
8290.00000 0.72586
8310.00000 0.71867
8330.00000 0.71198
8350.00000 0.70566
8370.00000 0.69479
8390.00000 0.68767
8410.00000 0.67881
8430.00000 0.67201
8450.00000 0.66276
8470.00000 0.65524
8490.00000 0.64682
8510.00000 0.63786
8530.00000 0.62721
8550.00000 0.62181
8570.00000 0.61464
8590.00000 0.6053
8610.00000 0.59267
8630.00000 0.58689
8650.00000 0.57709
8670.00000 0.56763
8690.00000 0.56206
8710.00000 0.54994
8730.00000 0.54553
8750.00000 0.53488
8770.00000 0.52676
8790.00000 0.51711
8810.00000 0.50909
8830.00000 0.50005
8850.00000 0.49256
8870.00000 0.48283
8890.00000 0.47664
8910.00000 0.46672
8930.00000 0.45483
8950.00000 0.44729
8970.00000 0.43872
8990.00000 0.42967
9010.00000 0.42179
9030.00000 0.41338
9050.00000 0.40332
9070.00000 0.39579
9090.00000 0.38879
9110.00000 0.37877
9130.00000 0.3686
9150.00000 0.36147
9170.00000 0.3546
9190.00000 0.3449
9210.00000 0.33671
9230.00000 0.32828
9250.00000 0.31967
9270.00000 0.31226
9290.00000 0.30343
9310.00000 0.2959
9330.00000 0.28847
9350.00000 0.28091
9370.00000 0.27313
9390.00000 0.26417
9410.00000 0.25695
9430.00000 0.24933
9450.00000 0.2421
9470.00000 0.23441
9490.00000 0.22805
9510.00000 0.22021
9530.00000 0.2137
9550.00000 0.20593
9570.00000 0.1992
9590.00000 0.19259
9610.00000 0.1859
9630.00000 0.17924
9650.00000 0.17277
9670.00000 0.16678
9690.00000 0.16032
9710.00000 0.1536
9730.00000 0.14796
9750.00000 0.14236
9770.00000 0.1366
9790.00000 0.13052
9810.00000 0.12472
9830.00000 0.11918
9850.00000 0.11403
9870.00000 0.1088
9890.00000 0.10376
9910.00000 0.09894
9930.00000 0.09392
9950.00000 0.08887
9970.00000 0.08437
9990.00000 0.08045
10025.00000 0.07268
10075.00000 0.06285
10125.00000 0.0534
10175.00000 0.04529
10225.00000 0.03755
10275.00000 0.03123
10325.00000 0.02538
10375.00000 0.0204
10425.00000 0.01613
10475.00000 0.01239
10525.00000 0.00938
10575.00000 0.00686
10625.00000 0.00497
10675.00000 0.00359
10725.00000 0.00263
10775.00000 0.0019
10825.00000 0.00131
10875.00000 0.00085
10925.00000 0.00051
10975.00000 0.00031
11025.00000 0.0
