# %ECSV 0.9
# ---
# datatype:
# - {name: wavelength, unit: Angstrom, datatype: float32}
# - {name: response, datatype: float32}
# meta: !!omap
# - {band_name: Grp}
# - {group_name: GAIA0}
wavelength response
5760.00000 0.0
5770.00000 0.0001
5790.00000 0.0001
5810.00000 0.0001
5830.00000 0.0001
5850.00000 0.00014
5870.00000 0.00013
5890.00000 0.00013
5910.00000 0.00014
5930.00000 0.0001
5950.00000 0.00011
5970.00000 0.0001
5990.00000 0.0001
6010.00000 0.00012
6030.00000 0.00011
6050.00000 0.00014
6070.00000 0.00017
6090.00000 0.00018
6110.00000 0.00023
6130.00000 0.0003
6150.00000 0.00039
6170.00000 0.00054
6190.00000 0.00076
6210.00000 0.00111
6230.00000 0.00172
6250.00000 0.00273
6270.00000 0.00456
6290.00000 0.00789
6310.00000 0.01445
6330.00000 0.02765
6350.00000 0.0555
6370.00000 0.11462
6390.00000 0.23336
6410.00000 0.42005
6430.00000 0.62855
6450.00000 0.76587
6470.00000 0.82421
6490.00000 0.83136
6510.00000 0.83713
6530.00000 0.83931
6550.00000 0.84255
6570.00000 0.84462
6590.00000 0.84677
6610.00000 0.84661
6630.00000 0.84424
6650.00000 0.84793
6670.00000 0.85039
6690.00000 0.8517
6710.00000 0.85362
6730.00000 0.85801
6750.00000 0.85768
6770.00000 0.85682
6790.00000 0.85713
6810.00000 0.8596
6830.00000 0.85805
6850.00000 0.86154
6870.00000 0.86086
6890.00000 0.86656
6910.00000 0.86958
6930.00000 0.87441
6950.00000 0.88087
6970.00000 0.88981
6990.00000 0.89609
7010.00000 0.90408
7030.00000 0.90594
7050.00000 0.91028
7070.00000 0.91805
7090.00000 0.9218
7110.00000 0.92918
7130.00000 0.9326
7150.00000 0.93701
7170.00000 0.93769
7190.00000 0.93899
7210.00000 0.94591
7230.00000 0.94783
7250.00000 0.95015
7270.00000 0.95678
7290.00000 0.95699
7310.00000 0.9619
7330.00000 0.96703
7350.00000 0.96742
7370.00000 0.9705
7390.00000 0.97095
7410.00000 0.97533
7430.00000 0.97169
7450.00000 0.97527
7470.00000 0.97728
7490.00000 0.97963
7510.00000 0.97824
7530.00000 0.98385
7550.00000 0.9849
7570.00000 0.987
7590.00000 0.99047
7610.00000 0.98921
7630.00000 0.99479
7650.00000 0.99637
7670.00000 0.99373
7690.00000 0.99645
7710.00000 0.99779
7730.00000 0.999
7750.00000 0.99626
7770.00000 0.99178
7790.00000 1.0
7810.00000 0.99596
7830.00000 0.99964
7850.00000 0.99263
7870.00000 0.99237
7890.00000 0.99133
7910.00000 0.99099
7930.00000 0.99128
7950.00000 0.98861
7970.00000 0.98908
7990.00000 0.98584
8010.00000 0.98468
8030.00000 0.98737
8050.00000 0.98359
8070.00000 0.98335
8090.00000 0.98389
8110.00000 0.98616
8130.00000 0.98753
8150.00000 0.98501
8170.00000 0.98057
8190.00000 0.97857
8210.00000 0.97547
8230.00000 0.9739
8250.00000 0.97069
8270.00000 0.96654
8290.00000 0.95856
8310.00000 0.9543
8330.00000 0.95005
8350.00000 0.94805
8370.00000 0.93982
8390.00000 0.93708
8410.00000 0.93102
8430.00000 0.92846
8450.00000 0.92458
8470.00000 0.92379
8490.00000 0.90132
8510.00000 0.89901
8530.00000 0.89251
8550.00000 0.89335
8570.00000 0.8913
8590.00000 0.88617
8610.00000 0.87537
8630.00000 0.87377
8650.00000 0.86601
8670.00000 0.85831
8690.00000 0.85516
8710.00000 0.84243
8730.00000 0.84072
8750.00000 0.82826
8770.00000 0.82022
8790.00000 0.81012
8810.00000 0.80095
8830.00000 0.79173
8850.00000 0.78497
8870.00000 0.77367
8890.00000 0.76889
8910.00000 0.75859
8930.00000 0.74435
8950.00000 0.73639
8970.00000 0.72767
8990.00000 0.71752
9010.00000 0.70806
9030.00000 0.69842
9050.00000 0.68636
9070.00000 0.67663
9090.00000 0.66825
9110.00000 0.65519
9130.00000 0.64082
9150.00000 0.63069
9170.00000 0.62216
9190.00000 0.60888
9210.00000 0.59657
9230.00000 0.58413
9250.00000 0.57265
9270.00000 0.56204
9290.00000 0.5478
9310.00000 0.53717
9330.00000 0.52717
9350.00000 0.51516
9370.00000 0.50275
9390.00000 0.48923
9410.00000 0.47813
9430.00000 0.46498
9450.00000 0.45368
9470.00000 0.44237
9490.00000 0.43223
9510.00000 0.41865
9530.00000 0.40885
9550.00000 0.39681
9570.00000 0.3852
9590.00000 0.37332
9610.00000 0.36225
9630.00000 0.35131
9650.00000 0.33958
9670.00000 0.32862
9690.00000 0.31754
9710.00000 0.30585
9730.00000 0.29516
9750.00000 0.28414
9770.00000 0.27384
9790.00000 0.26303
9810.00000 0.25179
9830.00000 0.24076
9850.00000 0.23132
9870.00000 0.22188
9890.00000 0.21195
9910.00000 0.20217
9930.00000 0.1926
9950.00000 0.18321
9970.00000 0.17425
9990.00000 0.16614
10025.00000 0.15109
10075.00000 0.13109
10125.00000 0.11225
10175.00000 0.09524
10225.00000 0.07945
10275.00000 0.06624
10325.00000 0.05409
10375.00000 0.04362
10425.00000 0.03445
10475.00000 0.02657
10525.00000 0.02007
10575.00000 0.01477
10625.00000 0.01068
10675.00000 0.00774
10725.00000 0.00566
10775.00000 0.0041
10825.00000 0.00284
10875.00000 0.00184
10925.00000 0.00111
10975.00000 0.00064
11025.00000 0.0
