# %ECSV 0.9
# ---
# datatype:
# - {name: wavelength, unit: Angstrom, datatype: float32}
# - {name: response, datatype: float32}
# meta: !!omap
# - {band_name: A}
# - {group_name: MSX}
wavelength response
58000.00000 0.0
58100.00000 0.000368
58200.00000 0.00019
58300.00000 0.000651
58400.00000 0.000471
58500.00000 0.000223
58600.00000 0.001711
58700.00000 0.002409
58800.00000 0.001856
58900.00000 0.002763
59000.00000 0.002629
59100.00000 0.003186
59200.00000 0.002621
59300.00000 0.004226
59400.00000 0.00401
59500.00000 0.005713
59600.00000 0.006218
59700.00000 0.009396
59800.00000 0.012155
59900.00000 0.017347
60000.00000 0.027535
60100.00000 0.04453
60200.00000 0.073925
60300.00000 0.120096
60400.00000 0.174823
60500.00000 0.209913
60600.00000 0.23135
60700.00000 0.230204
60800.00000 0.235028
60900.00000 0.244067
61000.00000 0.263588
61100.00000 0.288916
61200.00000 0.329386
61300.00000 0.369327
61400.00000 0.396128
61500.00000 0.403652
61600.00000 0.390063
61700.00000 0.371658
61800.00000 0.350065
61900.00000 0.336074
62000.00000 0.328446
62100.00000 0.32735
62200.00000 0.333742
62300.00000 0.346703
62400.00000 0.367139
62500.00000 0.391409
62600.00000 0.416367
62700.00000 0.435593
62800.00000 0.443288
62900.00000 0.442696
63000.00000 0.440689
63100.00000 0.441459
63200.00000 0.43575
63300.00000 0.428029
63400.00000 0.418284
63500.00000 0.423546
63600.00000 0.427868
63700.00000 0.432599
63800.00000 0.445541
63900.00000 0.448921
64000.00000 0.449929
64100.00000 0.435919
64200.00000 0.433301
64300.00000 0.427905
64400.00000 0.422693
64500.00000 0.410502
64600.00000 0.398529
64700.00000 0.385517
64800.00000 0.379606
64900.00000 0.37576
65000.00000 0.382499
65100.00000 0.390996
65200.00000 0.394983
65300.00000 0.403409
65400.00000 0.410362
65500.00000 0.414612
65600.00000 0.418207
65700.00000 0.410824
65800.00000 0.407698
65900.00000 0.395046
66000.00000 0.384463
66100.00000 0.368905
66200.00000 0.35557
66300.00000 0.340187
66400.00000 0.328004
66500.00000 0.323517
66600.00000 0.315891
66700.00000 0.313424
66800.00000 0.314371
66900.00000 0.326072
67000.00000 0.339979
67100.00000 0.355364
67200.00000 0.377231
67300.00000 0.401233
67400.00000 0.42682
67500.00000 0.451653
67600.00000 0.473748
67700.00000 0.491115
67800.00000 0.509462
67900.00000 0.522869
68000.00000 0.541286
68100.00000 0.549941
68200.00000 0.552796
68300.00000 0.553285
68400.00000 0.54982
68500.00000 0.537861
68600.00000 0.519079
68700.00000 0.520042
68800.00000 0.516787
68900.00000 0.509425
69000.00000 0.499657
69100.00000 0.493018
69200.00000 0.488662
69300.00000 0.485753
69400.00000 0.481985
69500.00000 0.477722
69600.00000 0.47164
69700.00000 0.478814
69800.00000 0.477031
69900.00000 0.473341
70000.00000 0.472542
70100.00000 0.473024
70200.00000 0.471294
70300.00000 0.473169
70400.00000 0.474714
70500.00000 0.492196
70600.00000 0.511286
70700.00000 0.532313
70800.00000 0.556427
70900.00000 0.576532
71000.00000 0.5897
71100.00000 0.602659
71200.00000 0.615275
71300.00000 0.623724
71400.00000 0.62375
71500.00000 0.622621
71600.00000 0.62345
71700.00000 0.610149
71800.00000 0.599436
71900.00000 0.588277
72000.00000 0.571725
72100.00000 0.549332
72200.00000 0.536179
72300.00000 0.528989
72400.00000 0.52042
72500.00000 0.511772
72600.00000 0.511088
72700.00000 0.506482
72800.00000 0.503534
72900.00000 0.510673
73000.00000 0.512367
73100.00000 0.51225
73200.00000 0.518392
73300.00000 0.523314
73400.00000 0.526
73500.00000 0.535264
73600.00000 0.550284
73700.00000 0.562693
73800.00000 0.581907
73900.00000 0.60219
74000.00000 0.61044
74100.00000 0.619443
74200.00000 0.628377
74300.00000 0.630253
74400.00000 0.635582
74500.00000 0.643338
74600.00000 0.641036
74700.00000 0.646108
74800.00000 0.653754
74900.00000 0.652951
75000.00000 0.656863
75100.00000 0.66054
75200.00000 0.654593
75300.00000 0.659593
75400.00000 0.657494
75500.00000 0.650288
75600.00000 0.651977
75700.00000 0.642447
75800.00000 0.634934
75900.00000 0.629804
76000.00000 0.611713
76100.00000 0.592465
76200.00000 0.574673
76300.00000 0.547002
76400.00000 0.521335
76500.00000 0.495537
76600.00000 0.476073
76700.00000 0.478585
76800.00000 0.491712
76900.00000 0.522558
77000.00000 0.545698
77100.00000 0.551033
77200.00000 0.558508
77300.00000 0.560765
77400.00000 0.562598
77500.00000 0.57149
77600.00000 0.571954
77700.00000 0.583114
77800.00000 0.591672
77900.00000 0.598145
78000.00000 0.616045
78100.00000 0.623564
78200.00000 0.64071
78300.00000 0.656912
78400.00000 0.667397
78500.00000 0.687624
78600.00000 0.69502
78700.00000 0.711267
78800.00000 0.721282
78900.00000 0.723283
79000.00000 0.734138
79100.00000 0.727328
79200.00000 0.73348
79300.00000 0.725512
79400.00000 0.720886
79500.00000 0.718063
79600.00000 0.703557
79700.00000 0.704601
79800.00000 0.692965
79900.00000 0.691422
80000.00000 0.687336
80100.00000 0.68262
80200.00000 0.686771
80300.00000 0.679673
80400.00000 0.690161
80500.00000 0.685682
80600.00000 0.696141
80700.00000 0.697351
80800.00000 0.700001
80900.00000 0.707844
81000.00000 0.706349
81100.00000 0.718779
81200.00000 0.715157
81300.00000 0.725554
81400.00000 0.722358
81500.00000 0.728354
81600.00000 0.727872
81700.00000 0.728263
81800.00000 0.732707
81900.00000 0.728306
82000.00000 0.735303
82100.00000 0.727248
82200.00000 0.735704
82300.00000 0.728425
82400.00000 0.737886
82500.00000 0.732891
82600.00000 0.738155
82700.00000 0.734946
82800.00000 0.732543
82900.00000 0.722298
83000.00000 0.730495
83100.00000 0.74578
83200.00000 0.748865
83300.00000 0.759329
83400.00000 0.755612
83500.00000 0.763914
83600.00000 0.755474
83700.00000 0.761074
83800.00000 0.751506
83900.00000 0.754418
84000.00000 0.74145
84100.00000 0.743307
84200.00000 0.731616
84300.00000 0.731825
84400.00000 0.719148
84500.00000 0.720453
84600.00000 0.709166
84700.00000 0.708559
84800.00000 0.699139
84900.00000 0.69776
85000.00000 0.689022
85100.00000 0.686833
85200.00000 0.678351
85300.00000 0.677511
85400.00000 0.670695
85500.00000 0.669559
85600.00000 0.664081
85700.00000 0.666043
85800.00000 0.663119
85900.00000 0.665729
86000.00000 0.664884
86100.00000 0.666864
86200.00000 0.668923
86300.00000 0.676696
86400.00000 0.680084
86500.00000 0.690003
86600.00000 0.694586
86700.00000 0.707556
86800.00000 0.713425
86900.00000 0.729787
87000.00000 0.735895
87100.00000 0.752735
87200.00000 0.756313
87300.00000 0.777608
87400.00000 0.777458
87500.00000 0.792853
87600.00000 0.787176
87700.00000 0.784099
87800.00000 0.729027
87900.00000 0.472745
88000.00000 0.290218
88100.00000 0.503975
88200.00000 0.630103
88300.00000 0.704594
88400.00000 0.77254
88500.00000 0.776315
88600.00000 0.759803
88700.00000 0.769375
88800.00000 0.791374
88900.00000 0.786147
89000.00000 0.799746
89100.00000 0.793387
89200.00000 0.804534
89300.00000 0.797504
89400.00000 0.809826
89500.00000 0.809961
89600.00000 0.818694
89700.00000 0.8251
89800.00000 0.828402
89900.00000 0.841468
90000.00000 0.842916
90100.00000 0.857745
90200.00000 0.855512
90300.00000 0.870108
90400.00000 0.867474
90500.00000 0.876884
90600.00000 0.875987
90700.00000 0.878352
90800.00000 0.88001
90900.00000 0.874489
91000.00000 0.878435
91100.00000 0.864792
91200.00000 0.868077
91300.00000 0.853531
91400.00000 0.852288
91500.00000 0.843895
91600.00000 0.836016
91700.00000 0.834195
91800.00000 0.821476
91900.00000 0.824064
92000.00000 0.811401
92100.00000 0.815731
92200.00000 0.809802
92300.00000 0.811261
92400.00000 0.815133
92500.00000 0.808357
92600.00000 0.8187
92700.00000 0.812349
92800.00000 0.821093
92900.00000 0.821801
93000.00000 0.826645
93100.00000 0.834738
93200.00000 0.832594
93300.00000 0.844496
93400.00000 0.839929
93500.00000 0.850271
93600.00000 0.852505
93700.00000 0.853988
93800.00000 0.863588
93900.00000 0.858526
94000.00000 0.870082
94100.00000 0.866701
94200.00000 0.872865
94300.00000 0.878692
94400.00000 0.874561
94500.00000 0.885759
94600.00000 0.877036
94700.00000 0.88282
94800.00000 0.883419
94900.00000 0.878432
95000.00000 0.890269
95100.00000 0.881337
95200.00000 0.887906
95300.00000 0.887974
95400.00000 0.882697
95500.00000 0.891172
95600.00000 0.882921
95700.00000 0.889912
95800.00000 0.8894
95900.00000 0.885145
96000.00000 0.893114
96100.00000 0.885701
96200.00000 0.892151
96300.00000 0.89155
96400.00000 0.887027
96500.00000 0.896135
96600.00000 0.890028
96700.00000 0.896272
96800.00000 0.897772
96900.00000 0.893403
97000.00000 0.904857
97100.00000 0.900498
97200.00000 0.907391
97300.00000 0.913072
97400.00000 0.906912
97500.00000 0.920949
97600.00000 0.919963
97700.00000 0.923319
97800.00000 0.937494
97900.00000 0.933772
98000.00000 0.948474
98100.00000 0.955167
98200.00000 0.955379
98300.00000 0.971224
98400.00000 0.968972
98500.00000 0.975598
98600.00000 0.986056
98700.00000 0.977891
98800.00000 0.989367
98900.00000 0.991182
99000.00000 0.987108
99100.00000 0.998688
99200.00000 0.991888
99300.00000 0.992047
99400.00000 0.996745
99500.00000 0.984782
99600.00000 0.989746
99700.00000 0.985776
99800.00000 0.974911
99900.00000 0.979445
100000.00000 0.968467
100100.00000 0.962926
100200.00000 0.966954
100300.00000 0.95395
100400.00000 0.955628
100500.00000 0.957908
100600.00000 0.94642
100700.00000 0.952069
100800.00000 0.949022
100900.00000 0.938937
101000.00000 0.945959
101100.00000 0.939243
101200.00000 0.933604
101300.00000 0.941431
101400.00000 0.93267
101500.00000 0.930666
101600.00000 0.935492
101700.00000 0.925777
101800.00000 0.928359
101900.00000 0.929852
102000.00000 0.918796
102100.00000 0.923639
102200.00000 0.923781
102300.00000 0.916081
102400.00000 0.924107
102500.00000 0.921999
102600.00000 0.916113
102700.00000 0.924354
102800.00000 0.920019
102900.00000 0.9184
103000.00000 0.927333
103100.00000 0.922236
103200.00000 0.922498
103300.00000 0.929504
103400.00000 0.922617
103500.00000 0.923794
103600.00000 0.931271
103700.00000 0.925033
103800.00000 0.927672
103900.00000 0.93586
104000.00000 0.928797
104100.00000 0.931357
104200.00000 0.938661
104300.00000 0.929666
104400.00000 0.931027
104500.00000 0.93408
104600.00000 0.922022
104700.00000 0.918957
104800.00000 0.918424
104900.00000 0.90345
105000.00000 0.896258
105100.00000 0.892849
105200.00000 0.874568
105300.00000 0.866463
105400.00000 0.861037
105500.00000 0.842872
105600.00000 0.831666
105700.00000 0.82535
105800.00000 0.808134
105900.00000 0.798081
106000.00000 0.79347
106100.00000 0.777713
106200.00000 0.768171
106300.00000 0.765359
106400.00000 0.753631
106500.00000 0.74628
106600.00000 0.747285
106700.00000 0.739491
106800.00000 0.73716
106900.00000 0.744417
107000.00000 0.743318
107100.00000 0.742179
107200.00000 0.751495
107300.00000 0.752902
107400.00000 0.751045
107500.00000 0.758192
107600.00000 0.75748
107700.00000 0.747625
107800.00000 0.74422
107900.00000 0.732253
108000.00000 0.702943
108100.00000 0.672837
108200.00000 0.63527
108300.00000 0.581131
108400.00000 0.52384
108500.00000 0.46652
108600.00000 0.400727
108700.00000 0.335088
108800.00000 0.275949
108900.00000 0.218556
109000.00000 0.165904
109100.00000 0.124094
109200.00000 0.092919
109300.00000 0.070463
109400.00000 0.057988
109500.00000 0.052119
109600.00000 0.048793
109700.00000 0.046665
109800.00000 0.04503
109900.00000 0.042951
110000.00000 0.039863
110100.00000 0.034928
110200.00000 0.029144
110300.00000 0.025034
110400.00000 0.022867
110500.00000 0.020201
110600.00000 0.016835
110700.00000 0.013841
110800.00000 0.0112
110900.00000 0.008871
111000.00000 0.00703
111100.00000 0.005513
111200.00000 0.004446
111300.00000 0.003837
111400.00000 0.003153
111500.00000 0.002699
111600.00000 0.002766
111700.00000 0.002519
111800.00000 0.00166
111900.00000 0.001119
112000.00000 0.001737
112100.00000 0.002399
112200.00000 0.002086
112300.00000 0.001401
112400.00000 0.001276
112500.00000 0.00175
112600.00000 0.002424
112700.00000 0.002722
112800.00000 0.002334
112900.00000 0.001794
113000.00000 0.001428
113100.00000 0.001314
113200.00000 0.001177
113300.00000 0.000686
113400.00000 0.000299
113500.00000 0.000187
113600.00000 0.0
