# %ECSV 0.9
# ---
# datatype:
# - {name: wavelength, unit: Angstrom, datatype: float32}
# - {name: response, datatype: float32}
# meta: !!omap
# - {band_name: Cousins_R}
# - {group_name: Circ}
wavelength response
4896.00000 0.0
5440.00000 4e-05
5442.00000 4e-05
5444.00000 5e-05
5446.00000 5e-05
5448.00000 7e-05
5450.00000 7e-05
5452.00000 9e-05
5454.00000 0.0001
5456.00000 0.00012
5458.00000 0.00014
5460.00000 0.00016
5462.00000 0.00019
5464.00000 0.00022
5466.00000 0.00026
5468.00000 0.0003
5470.00000 0.00035
5472.00000 0.00041
5474.00000 0.00048
5476.00000 0.00055
5478.00000 0.00064
5480.00000 0.00075
5482.00000 0.00087
5484.00000 0.00101
5486.00000 0.00116
5488.00000 0.00135
5490.00000 0.00155
5492.00000 0.0018
5494.00000 0.00209
5496.00000 0.00239
5498.00000 0.00276
5500.00000 0.00316
5502.00000 0.00363
5504.00000 0.00414
5506.00000 0.00477
5508.00000 0.00541
5510.00000 0.00615
5512.00000 0.00699
5514.00000 0.00792
5516.00000 0.00892
5518.00000 0.01014
5520.00000 0.0114
5522.00000 0.01283
5524.00000 0.01439
5526.00000 0.01607
5528.00000 0.01802
5530.00000 0.02006
5532.00000 0.02238
5534.00000 0.02482
5536.00000 0.02744
5538.00000 0.03023
5540.00000 0.03329
5542.00000 0.03658
5544.00000 0.04015
5546.00000 0.04401
5548.00000 0.04803
5550.00000 0.05233
5552.00000 0.05688
5554.00000 0.06183
5556.00000 0.06691
5558.00000 0.07244
5560.00000 0.07813
5562.00000 0.08399
5564.00000 0.09
5566.00000 0.09634
5568.00000 0.10293
5570.00000 0.11023
5572.00000 0.11773
5574.00000 0.12543
5576.00000 0.13332
5578.00000 0.14148
5580.00000 0.14985
5582.00000 0.15826
5584.00000 0.16737
5586.00000 0.17625
5588.00000 0.18561
5590.00000 0.19473
5592.00000 0.20445
5594.00000 0.21383
5596.00000 0.22395
5598.00000 0.23389
5600.00000 0.24425
5602.00000 0.25434
5604.00000 0.26444
5606.00000 0.27456
5608.00000 0.28497
5610.00000 0.29575
5612.00000 0.306
5614.00000 0.31645
5616.00000 0.32669
5618.00000 0.33707
5620.00000 0.34681
5622.00000 0.35779
5624.00000 0.3677
5626.00000 0.37827
5628.00000 0.38842
5630.00000 0.39837
5632.00000 0.40816
5634.00000 0.41765
5636.00000 0.42744
5638.00000 0.43673
5640.00000 0.44642
5642.00000 0.45548
5644.00000 0.46467
5646.00000 0.47311
5648.00000 0.48196
5650.00000 0.49063
5652.00000 0.49932
5654.00000 0.5075
5656.00000 0.51557
5658.00000 0.52386
5660.00000 0.53125
5662.00000 0.53933
5664.00000 0.54686
5666.00000 0.55468
5668.00000 0.5616
5670.00000 0.56873
5672.00000 0.57539
5674.00000 0.58245
5676.00000 0.58915
5678.00000 0.59577
5680.00000 0.60188
5682.00000 0.60829
5684.00000 0.61442
5686.00000 0.62008
5688.00000 0.62617
5690.00000 0.63176
5692.00000 0.63663
5694.00000 0.64223
5696.00000 0.64728
5698.00000 0.65245
5700.00000 0.65687
5702.00000 0.66185
5704.00000 0.66612
5706.00000 0.67084
5708.00000 0.67485
5710.00000 0.6794
5712.00000 0.68373
5714.00000 0.68762
5716.00000 0.69154
5718.00000 0.69525
5720.00000 0.69922
5722.00000 0.70264
5724.00000 0.70593
5726.00000 0.70948
5728.00000 0.71293
5730.00000 0.71651
5732.00000 0.71917
5734.00000 0.72201
5736.00000 0.72487
5738.00000 0.72781
5740.00000 0.73023
5742.00000 0.73296
5744.00000 0.73485
5746.00000 0.73755
5748.00000 0.74
5750.00000 0.74232
5752.00000 0.74435
5754.00000 0.74638
5756.00000 0.74841
5758.00000 0.75047
5760.00000 0.75254
5762.00000 0.75434
5764.00000 0.75594
5766.00000 0.75805
5768.00000 0.7594
5770.00000 0.76156
5772.00000 0.76267
5774.00000 0.76457
5776.00000 0.76629
5778.00000 0.76758
5780.00000 0.76943
5782.00000 0.7704
5784.00000 0.77172
5786.00000 0.77274
5788.00000 0.77438
5790.00000 0.77516
5792.00000 0.77641
5794.00000 0.77751
5796.00000 0.77822
5798.00000 0.77915
5800.00000 0.78019
5802.00000 0.78103
5804.00000 0.78206
5806.00000 0.78298
5808.00000 0.78382
5810.00000 0.78453
5812.00000 0.78534
5814.00000 0.78605
5816.00000 0.78703
5818.00000 0.7877
5820.00000 0.78852
5822.00000 0.78928
5824.00000 0.78971
5826.00000 0.79076
5828.00000 0.79119
5830.00000 0.79207
5832.00000 0.79233
5834.00000 0.79281
5836.00000 0.79328
5838.00000 0.79384
5840.00000 0.79412
5842.00000 0.7946
5844.00000 0.79488
5846.00000 0.79491
5848.00000 0.79531
5850.00000 0.79557
5852.00000 0.79619
5854.00000 0.7962
5856.00000 0.79639
5858.00000 0.79675
5860.00000 0.79676
5862.00000 0.79686
5864.00000 0.79732
5866.00000 0.79777
5868.00000 0.79806
5870.00000 0.79848
5872.00000 0.79853
5874.00000 0.79885
5876.00000 0.79884
5878.00000 0.79917
5880.00000 0.79916
5882.00000 0.79941
5884.00000 0.79937
5886.00000 0.79952
5888.00000 0.79937
5890.00000 0.79957
5892.00000 0.79969
5894.00000 0.79966
5896.00000 0.79956
5898.00000 0.79959
5900.00000 0.79961
5902.00000 0.79949
5904.00000 0.79938
5906.00000 0.7995
5908.00000 0.79919
5910.00000 0.79931
5912.00000 0.79906
5914.00000 0.79935
5916.00000 0.79949
5918.00000 0.79918
5920.00000 0.79902
5922.00000 0.7994
5924.00000 0.79913
5926.00000 0.79947
5928.00000 0.79925
5930.00000 0.79916
5932.00000 0.79893
5934.00000 0.79888
5936.00000 0.79886
5938.00000 0.79858
5940.00000 0.79869
5942.00000 0.79858
5944.00000 0.79818
5946.00000 0.79774
5948.00000 0.79778
5950.00000 0.79737
5952.00000 0.79705
5954.00000 0.79704
5956.00000 0.79666
5958.00000 0.79669
5960.00000 0.79649
5962.00000 0.79641
5964.00000 0.79612
5966.00000 0.79589
5968.00000 0.79569
5970.00000 0.79568
5972.00000 0.79562
5974.00000 0.79536
5976.00000 0.79516
5978.00000 0.79517
5980.00000 0.79496
5982.00000 0.79487
5984.00000 0.79439
5986.00000 0.79436
5988.00000 0.79399
5990.00000 0.79385
5992.00000 0.79347
5994.00000 0.79335
5996.00000 0.79292
5998.00000 0.79261
6000.00000 0.79222
6002.00000 0.79185
6004.00000 0.79158
6006.00000 0.79113
6008.00000 0.79075
6010.00000 0.79091
6012.00000 0.79056
6014.00000 0.7901
6016.00000 0.78946
6018.00000 0.78946
6020.00000 0.78913
6022.00000 0.78898
6024.00000 0.78867
6026.00000 0.78851
6028.00000 0.78823
6030.00000 0.78807
6032.00000 0.7881
6034.00000 0.7871
6036.00000 0.78705
6038.00000 0.78703
6040.00000 0.78648
6042.00000 0.78613
6044.00000 0.78591
6046.00000 0.78536
6048.00000 0.78528
6050.00000 0.78457
6052.00000 0.78436
6054.00000 0.7841
6056.00000 0.78345
6058.00000 0.78292
6060.00000 0.78269
6062.00000 0.7824
6064.00000 0.78193
6066.00000 0.78174
6068.00000 0.78135
6070.00000 0.78098
6072.00000 0.78088
6074.00000 0.78029
6076.00000 0.78013
6078.00000 0.7796
6080.00000 0.77965
6082.00000 0.77923
6084.00000 0.77869
6086.00000 0.77832
6088.00000 0.77801
6090.00000 0.77764
6092.00000 0.77737
6094.00000 0.77691
6096.00000 0.77656
6098.00000 0.77611
6100.00000 0.77549
6102.00000 0.77496
6104.00000 0.77476
6106.00000 0.77419
6108.00000 0.77375
6110.00000 0.77345
6112.00000 0.77296
6114.00000 0.77248
6116.00000 0.77197
6118.00000 0.77152
6120.00000 0.77127
6122.00000 0.77084
6124.00000 0.77017
6126.00000 0.76961
6128.00000 0.76937
6130.00000 0.76931
6132.00000 0.76873
6134.00000 0.76839
6136.00000 0.76786
6138.00000 0.76748
6140.00000 0.76709
6142.00000 0.76637
6144.00000 0.76661
6146.00000 0.76598
6148.00000 0.76558
6150.00000 0.76513
6152.00000 0.76468
6154.00000 0.76424
6156.00000 0.76373
6158.00000 0.76296
6160.00000 0.76262
6162.00000 0.76225
6164.00000 0.76149
6166.00000 0.76098
6168.00000 0.76032
6170.00000 0.75995
6172.00000 0.75922
6174.00000 0.75885
6176.00000 0.75798
6178.00000 0.75768
6180.00000 0.75703
6182.00000 0.75666
6184.00000 0.75645
6186.00000 0.75595
6188.00000 0.75562
6190.00000 0.75511
6192.00000 0.7549
6194.00000 0.75436
6196.00000 0.75384
6198.00000 0.75313
6200.00000 0.753
6202.00000 0.75211
6204.00000 0.75203
6206.00000 0.75128
6208.00000 0.75098
6210.00000 0.75029
6212.00000 0.74956
6214.00000 0.74941
6216.00000 0.74888
6218.00000 0.74805
6220.00000 0.74757
6222.00000 0.74702
6224.00000 0.74646
6226.00000 0.74565
6228.00000 0.74527
6230.00000 0.74447
6232.00000 0.74425
6234.00000 0.74312
6236.00000 0.74277
6238.00000 0.74231
6240.00000 0.7418
6242.00000 0.7414
6244.00000 0.74091
6246.00000 0.74032
6248.00000 0.74026
6250.00000 0.73939
6252.00000 0.73913
6254.00000 0.73878
6256.00000 0.73786
6258.00000 0.73743
6260.00000 0.7369
6262.00000 0.73649
6264.00000 0.73596
6266.00000 0.73516
6268.00000 0.73427
6270.00000 0.73403
6272.00000 0.73343
6274.00000 0.73302
6276.00000 0.73181
6278.00000 0.73131
6280.00000 0.73074
6282.00000 0.73017
6284.00000 0.72979
6286.00000 0.72873
6288.00000 0.72849
6290.00000 0.72785
6292.00000 0.72716
6294.00000 0.72651
6296.00000 0.72598
6298.00000 0.72542
6300.00000 0.72513
6302.00000 0.72433
6304.00000 0.7237
6306.00000 0.7233
6308.00000 0.72293
6310.00000 0.72254
6312.00000 0.72172
6314.00000 0.72159
6316.00000 0.72048
6318.00000 0.72007
6320.00000 0.71954
6322.00000 0.71883
6324.00000 0.71822
6326.00000 0.71769
6328.00000 0.71707
6330.00000 0.71643
6332.00000 0.71597
6334.00000 0.71513
6336.00000 0.71445
6338.00000 0.71385
6340.00000 0.71297
6342.00000 0.71245
6344.00000 0.71188
6346.00000 0.71122
6348.00000 0.71044
6350.00000 0.70992
6352.00000 0.70914
6354.00000 0.70841
6356.00000 0.70822
6358.00000 0.70737
6360.00000 0.7068
6362.00000 0.70641
6364.00000 0.70596
6366.00000 0.70533
6368.00000 0.7048
6370.00000 0.70394
6372.00000 0.70345
6374.00000 0.70308
6376.00000 0.70222
6378.00000 0.70174
6380.00000 0.70151
6382.00000 0.70033
6384.00000 0.69965
6386.00000 0.69904
6388.00000 0.69872
6390.00000 0.69764
6392.00000 0.69714
6394.00000 0.69647
6396.00000 0.69584
6398.00000 0.6951
6400.00000 0.69427
6402.00000 0.69377
6404.00000 0.69313
6406.00000 0.69223
6408.00000 0.69142
6410.00000 0.69109
6412.00000 0.69039
6414.00000 0.68991
6416.00000 0.6892
6418.00000 0.68854
6420.00000 0.68787
6422.00000 0.68739
6424.00000 0.68673
6426.00000 0.68619
6428.00000 0.68544
6430.00000 0.68512
6432.00000 0.68432
6434.00000 0.68379
6436.00000 0.68315
6438.00000 0.68248
6440.00000 0.68173
6442.00000 0.68122
6444.00000 0.68054
6446.00000 0.67982
6448.00000 0.67913
6450.00000 0.67848
6452.00000 0.67778
6454.00000 0.67738
6456.00000 0.67614
6458.00000 0.67581
6460.00000 0.67484
6462.00000 0.67435
6464.00000 0.67344
6466.00000 0.67278
6468.00000 0.67216
6470.00000 0.67124
6472.00000 0.67057
6474.00000 0.67017
6476.00000 0.66934
6478.00000 0.66873
6480.00000 0.66803
6482.00000 0.66745
6484.00000 0.66679
6486.00000 0.66599
6488.00000 0.66537
6490.00000 0.66491
6492.00000 0.66438
6494.00000 0.66365
6496.00000 0.66293
6498.00000 0.66231
6500.00000 0.66173
6502.00000 0.6612
6504.00000 0.6603
6506.00000 0.65971
6508.00000 0.659
6510.00000 0.6583
6512.00000 0.65738
6514.00000 0.65682
6516.00000 0.65616
6518.00000 0.65527
6520.00000 0.65479
6522.00000 0.65418
6524.00000 0.65306
6526.00000 0.65268
6528.00000 0.65188
6530.00000 0.65091
6532.00000 0.65025
6534.00000 0.6497
6536.00000 0.64874
6538.00000 0.64847
6540.00000 0.64767
6542.00000 0.64706
6544.00000 0.64638
6546.00000 0.64569
6548.00000 0.64489
6550.00000 0.64446
6552.00000 0.64372
6554.00000 0.64293
6556.00000 0.64244
6558.00000 0.64175
6560.00000 0.64108
6562.00000 0.6404
6564.00000 0.6398
6566.00000 0.63928
6568.00000 0.63849
6570.00000 0.63779
6572.00000 0.63692
6574.00000 0.6364
6576.00000 0.63555
6578.00000 0.6348
6580.00000 0.63421
6582.00000 0.63331
6584.00000 0.63261
6586.00000 0.63183
6588.00000 0.63123
6590.00000 0.63029
6592.00000 0.62955
6594.00000 0.62878
6596.00000 0.62827
6598.00000 0.6273
6600.00000 0.6267
6602.00000 0.62605
6604.00000 0.62501
6606.00000 0.62471
6608.00000 0.62373
6610.00000 0.62327
6612.00000 0.62276
6614.00000 0.62188
6616.00000 0.62129
6618.00000 0.62074
6620.00000 0.61989
6622.00000 0.61927
6624.00000 0.61868
6626.00000 0.61769
6628.00000 0.61729
6630.00000 0.61665
6632.00000 0.616
6634.00000 0.61515
6636.00000 0.61446
6638.00000 0.61377
6640.00000 0.61296
6642.00000 0.61216
6644.00000 0.61178
6646.00000 0.61068
6648.00000 0.60988
6650.00000 0.60895
6652.00000 0.60835
6654.00000 0.60769
6656.00000 0.6069
6658.00000 0.60602
6660.00000 0.60551
6662.00000 0.6045
6664.00000 0.60403
6666.00000 0.60323
6668.00000 0.60243
6670.00000 0.60163
6672.00000 0.60096
6674.00000 0.60055
6676.00000 0.5995
6678.00000 0.59883
6680.00000 0.59822
6682.00000 0.59757
6684.00000 0.59695
6686.00000 0.59622
6688.00000 0.59542
6690.00000 0.595
6692.00000 0.59397
6694.00000 0.59334
6696.00000 0.59252
6698.00000 0.59168
6700.00000 0.59128
6702.00000 0.59023
6704.00000 0.58945
6706.00000 0.589
6708.00000 0.58821
6710.00000 0.58708
6712.00000 0.58649
6714.00000 0.58559
6716.00000 0.58485
6718.00000 0.5839
6720.00000 0.58308
6722.00000 0.58208
6724.00000 0.58167
6726.00000 0.58091
6728.00000 0.58024
6730.00000 0.57917
6732.00000 0.57861
6734.00000 0.57795
6736.00000 0.57702
6738.00000 0.5762
6740.00000 0.57555
6742.00000 0.57511
6744.00000 0.57404
6746.00000 0.57349
6748.00000 0.57267
6750.00000 0.57174
6752.00000 0.57131
6754.00000 0.5703
6756.00000 0.56959
6758.00000 0.56887
6760.00000 0.56826
6762.00000 0.56734
6764.00000 0.56659
6766.00000 0.56559
6768.00000 0.56519
6770.00000 0.56413
6772.00000 0.56334
6774.00000 0.56243
6776.00000 0.56152
6778.00000 0.56049
6780.00000 0.55969
6782.00000 0.55899
6784.00000 0.55845
6786.00000 0.5573
6788.00000 0.55609
6790.00000 0.55544
6792.00000 0.55463
6794.00000 0.55371
6796.00000 0.55305
6798.00000 0.55231
6800.00000 0.55125
6802.00000 0.55057
6804.00000 0.54976
6806.00000 0.54839
6808.00000 0.5479
6810.00000 0.54718
6812.00000 0.5462
6814.00000 0.54543
6816.00000 0.54435
6818.00000 0.5438
6820.00000 0.54285
6822.00000 0.54206
6824.00000 0.54148
6826.00000 0.54063
6828.00000 0.53981
6830.00000 0.53904
6832.00000 0.53806
6834.00000 0.53724
6836.00000 0.53628
6838.00000 0.53553
6840.00000 0.53456
6842.00000 0.53386
6844.00000 0.53329
6846.00000 0.53211
6848.00000 0.53113
6850.00000 0.53032
6852.00000 0.52935
6854.00000 0.52843
6856.00000 0.52758
6858.00000 0.52654
6860.00000 0.52565
6862.00000 0.52474
6864.00000 0.52395
6866.00000 0.52305
6868.00000 0.52241
6870.00000 0.52166
6872.00000 0.5205
6874.00000 0.51949
6876.00000 0.51881
6878.00000 0.51811
6880.00000 0.51704
6882.00000 0.51656
6884.00000 0.51524
6886.00000 0.51454
6888.00000 0.51386
6890.00000 0.51274
6892.00000 0.51203
6894.00000 0.51128
6896.00000 0.51048
6898.00000 0.5097
6900.00000 0.50879
6902.00000 0.50789
6904.00000 0.50721
6906.00000 0.50609
6908.00000 0.50526
6910.00000 0.50442
6912.00000 0.50335
6914.00000 0.50254
6916.00000 0.50193
6918.00000 0.50048
6920.00000 0.49953
6922.00000 0.49895
6924.00000 0.49795
6926.00000 0.4972
6928.00000 0.49616
6930.00000 0.49502
6932.00000 0.49435
6934.00000 0.49343
6936.00000 0.49255
6938.00000 0.49152
6940.00000 0.49068
6942.00000 0.48981
6944.00000 0.48902
6946.00000 0.48833
6948.00000 0.48748
6950.00000 0.48649
6952.00000 0.48585
6954.00000 0.4849
6956.00000 0.48374
6958.00000 0.4832
6960.00000 0.48218
6962.00000 0.48154
6964.00000 0.48044
6966.00000 0.47995
6968.00000 0.47874
6970.00000 0.47782
6972.00000 0.47724
6974.00000 0.47644
6976.00000 0.47551
6978.00000 0.47459
6980.00000 0.47358
6982.00000 0.47279
6984.00000 0.47166
6986.00000 0.47093
6988.00000 0.4701
6990.00000 0.46902
6992.00000 0.46824
6994.00000 0.46743
6996.00000 0.46625
6998.00000 0.46527
7000.00000 0.46458
7002.00000 0.4638
7004.00000 0.46299
7006.00000 0.46183
7008.00000 0.46084
7010.00000 0.45986
7012.00000 0.45892
7014.00000 0.45817
7016.00000 0.45726
7018.00000 0.45683
7020.00000 0.45547
7022.00000 0.45469
7024.00000 0.45377
7026.00000 0.45322
7028.00000 0.45212
7030.00000 0.45133
7032.00000 0.45064
7034.00000 0.44989
7036.00000 0.44909
7038.00000 0.44788
7040.00000 0.44715
7042.00000 0.44598
7044.00000 0.44547
7046.00000 0.44475
7048.00000 0.44373
7050.00000 0.44282
7052.00000 0.44225
7054.00000 0.44108
7056.00000 0.44024
7058.00000 0.43914
7060.00000 0.43829
7062.00000 0.43748
7064.00000 0.43685
7066.00000 0.43563
7068.00000 0.43483
7070.00000 0.43403
7072.00000 0.43311
7074.00000 0.43205
7076.00000 0.43133
7078.00000 0.43058
7080.00000 0.42956
7082.00000 0.42858
7084.00000 0.42772
7086.00000 0.42724
7088.00000 0.42582
7090.00000 0.42502
7092.00000 0.42423
7094.00000 0.42358
7096.00000 0.42258
7098.00000 0.42176
7100.00000 0.4209
7102.00000 0.42011
7104.00000 0.41917
7106.00000 0.41858
7108.00000 0.41746
7110.00000 0.41669
7112.00000 0.4159
7114.00000 0.41511
7116.00000 0.41404
7118.00000 0.41375
7120.00000 0.41265
7122.00000 0.41185
7124.00000 0.411
7126.00000 0.41019
7128.00000 0.40936
7130.00000 0.40838
7132.00000 0.40754
7134.00000 0.4067
7136.00000 0.40576
7138.00000 0.40504
7140.00000 0.40371
7142.00000 0.40295
7144.00000 0.40223
7146.00000 0.40133
7148.00000 0.40061
7150.00000 0.39967
7152.00000 0.39906
7154.00000 0.3978
7156.00000 0.3972
7158.00000 0.39578
7160.00000 0.39517
7162.00000 0.39476
7164.00000 0.39372
7166.00000 0.3928
7168.00000 0.39197
7170.00000 0.39128
7172.00000 0.39004
7174.00000 0.38961
7176.00000 0.38865
7178.00000 0.38795
7180.00000 0.38738
7182.00000 0.38586
7184.00000 0.38529
7186.00000 0.3846
7188.00000 0.38397
7190.00000 0.38291
7192.00000 0.38204
7194.00000 0.38139
7196.00000 0.38056
7198.00000 0.37966
7200.00000 0.37891
7202.00000 0.37835
7204.00000 0.37734
7206.00000 0.37635
7208.00000 0.37586
7210.00000 0.37462
7212.00000 0.37418
7214.00000 0.37318
7216.00000 0.37211
7218.00000 0.3715
7220.00000 0.37068
7222.00000 0.36959
7224.00000 0.36862
7226.00000 0.36789
7228.00000 0.36708
7230.00000 0.36623
7232.00000 0.36509
7234.00000 0.36435
7236.00000 0.36354
7238.00000 0.36263
7240.00000 0.36187
7242.00000 0.36142
7244.00000 0.36041
7246.00000 0.35953
7248.00000 0.35871
7250.00000 0.35797
7252.00000 0.35712
7254.00000 0.35632
7256.00000 0.35532
7258.00000 0.35483
7260.00000 0.35396
7262.00000 0.35333
7264.00000 0.35258
7266.00000 0.35143
7268.00000 0.35085
7270.00000 0.3499
7272.00000 0.34961
7274.00000 0.34848
7276.00000 0.34757
7278.00000 0.34691
7280.00000 0.34623
7282.00000 0.34491
7284.00000 0.34459
7286.00000 0.3436
7288.00000 0.34313
7290.00000 0.34198
7292.00000 0.34131
7294.00000 0.3404
7296.00000 0.3395
7298.00000 0.33879
7300.00000 0.3378
7302.00000 0.33687
7304.00000 0.33644
7306.00000 0.33528
7308.00000 0.33474
7310.00000 0.33429
7312.00000 0.33288
7314.00000 0.33216
7316.00000 0.33147
7318.00000 0.33063
7320.00000 0.3298
7322.00000 0.32925
7324.00000 0.32823
7326.00000 0.32752
7328.00000 0.32694
7330.00000 0.32583
7332.00000 0.32501
7334.00000 0.32453
7336.00000 0.32368
7338.00000 0.32286
7340.00000 0.32207
7342.00000 0.32116
7344.00000 0.32064
7346.00000 0.31971
7348.00000 0.31883
7350.00000 0.31841
7352.00000 0.31739
7354.00000 0.31681
7356.00000 0.31577
7358.00000 0.31522
7360.00000 0.31427
7362.00000 0.31385
7364.00000 0.31275
7366.00000 0.31203
7368.00000 0.31132
7370.00000 0.31051
7372.00000 0.30959
7374.00000 0.30912
7376.00000 0.30817
7378.00000 0.30739
7380.00000 0.30658
7382.00000 0.30578
7384.00000 0.30476
7386.00000 0.30405
7388.00000 0.30309
7390.00000 0.30244
7392.00000 0.30155
7394.00000 0.30103
7396.00000 0.30016
7398.00000 0.29903
7400.00000 0.29866
7402.00000 0.29756
7404.00000 0.29696
7406.00000 0.29634
7408.00000 0.29552
7410.00000 0.29503
7412.00000 0.29425
7414.00000 0.29356
7416.00000 0.29263
7418.00000 0.29205
7420.00000 0.29102
7422.00000 0.29036
7424.00000 0.28936
7426.00000 0.28849
7428.00000 0.288
7430.00000 0.28725
7432.00000 0.28697
7434.00000 0.28585
7436.00000 0.28504
7438.00000 0.28443
7440.00000 0.28357
7442.00000 0.28282
7444.00000 0.28194
7446.00000 0.28137
7448.00000 0.28047
7450.00000 0.27947
7452.00000 0.27915
7454.00000 0.27837
7456.00000 0.27783
7458.00000 0.27665
7460.00000 0.27573
7462.00000 0.27484
7464.00000 0.27477
7466.00000 0.27401
7468.00000 0.27293
7470.00000 0.27241
7472.00000 0.27133
7474.00000 0.27067
7476.00000 0.26989
7478.00000 0.2694
7480.00000 0.2686
7482.00000 0.26776
7484.00000 0.26703
7486.00000 0.26616
7488.00000 0.26547
7490.00000 0.26475
7492.00000 0.26406
7494.00000 0.26328
7496.00000 0.26249
7498.00000 0.26222
7500.00000 0.26104
7502.00000 0.26056
7504.00000 0.25976
7506.00000 0.25916
7508.00000 0.25864
7510.00000 0.25772
7512.00000 0.25707
7514.00000 0.25632
7516.00000 0.25579
7518.00000 0.25489
7520.00000 0.25425
7522.00000 0.25375
7524.00000 0.25275
7526.00000 0.25201
7528.00000 0.25143
7530.00000 0.2505
7532.00000 0.24969
7534.00000 0.24907
7536.00000 0.24866
7538.00000 0.24764
7540.00000 0.24709
7542.00000 0.24612
7544.00000 0.2454
7546.00000 0.24485
7548.00000 0.24399
7550.00000 0.2434
7552.00000 0.24258
7554.00000 0.24207
7556.00000 0.24095
7558.00000 0.2405
7560.00000 0.23988
7562.00000 0.2388
7564.00000 0.23831
7566.00000 0.23769
7568.00000 0.23692
7570.00000 0.23646
7572.00000 0.23548
7574.00000 0.23485
7576.00000 0.23435
7578.00000 0.23334
7580.00000 0.23267
7582.00000 0.23234
7584.00000 0.23175
7586.00000 0.23088
7588.00000 0.23045
7590.00000 0.22945
7592.00000 0.22889
7594.00000 0.22807
7596.00000 0.22723
7598.00000 0.22657
7600.00000 0.22566
7602.00000 0.22554
7604.00000 0.22486
7606.00000 0.2242
7608.00000 0.22338
7610.00000 0.22251
7612.00000 0.22215
7614.00000 0.22134
7616.00000 0.22092
7618.00000 0.21983
7620.00000 0.21923
7622.00000 0.21867
7624.00000 0.21808
7626.00000 0.21764
7628.00000 0.21697
7630.00000 0.21598
7632.00000 0.21573
7634.00000 0.21475
7636.00000 0.21423
7638.00000 0.21308
7640.00000 0.21269
7642.00000 0.21224
7644.00000 0.21181
7646.00000 0.21049
7648.00000 0.21014
7650.00000 0.20926
7652.00000 0.20869
7654.00000 0.20824
7656.00000 0.20724
7658.00000 0.20678
7660.00000 0.2061
7662.00000 0.2051
7664.00000 0.20473
7666.00000 0.20398
7668.00000 0.20319
7670.00000 0.20278
7672.00000 0.2024
7674.00000 0.20129
7676.00000 0.20081
7678.00000 0.20011
7680.00000 0.19979
7682.00000 0.19908
7684.00000 0.1986
7686.00000 0.19778
7688.00000 0.19693
7690.00000 0.19636
7692.00000 0.19607
7694.00000 0.19508
7696.00000 0.19469
7698.00000 0.19391
7700.00000 0.19347
7702.00000 0.19244
7704.00000 0.19209
7706.00000 0.19174
7708.00000 0.19103
7710.00000 0.1906
7712.00000 0.18968
7714.00000 0.1892
7716.00000 0.18845
7718.00000 0.1882
7720.00000 0.18767
7722.00000 0.18659
7724.00000 0.18591
7726.00000 0.18542
7728.00000 0.18468
7730.00000 0.18404
7732.00000 0.18364
7734.00000 0.18312
7736.00000 0.18244
7738.00000 0.18163
7740.00000 0.18083
7742.00000 0.18091
7744.00000 0.17981
7746.00000 0.17962
7748.00000 0.17883
7750.00000 0.17827
7752.00000 0.17741
7754.00000 0.17717
7756.00000 0.17634
7758.00000 0.17571
7760.00000 0.1755
7762.00000 0.17455
7764.00000 0.17402
7766.00000 0.17367
7768.00000 0.17299
7770.00000 0.17247
7772.00000 0.17182
7774.00000 0.17106
7776.00000 0.1707
7778.00000 0.16984
7780.00000 0.16976
7782.00000 0.16921
7784.00000 0.16807
7786.00000 0.16788
7788.00000 0.16738
7790.00000 0.16647
7792.00000 0.1664
7794.00000 0.16571
7796.00000 0.16491
7798.00000 0.1642
7800.00000 0.16403
7802.00000 0.16359
7804.00000 0.16281
7806.00000 0.16184
7808.00000 0.16173
7810.00000 0.16107
7812.00000 0.16057
7814.00000 0.16007
7816.00000 0.15938
7818.00000 0.1589
7820.00000 0.15824
7822.00000 0.15761
7824.00000 0.15717
7826.00000 0.15676
7828.00000 0.15618
7830.00000 0.15566
7832.00000 0.15518
7834.00000 0.15451
7836.00000 0.15398
7838.00000 0.15367
7840.00000 0.15293
7842.00000 0.15262
7844.00000 0.15195
7846.00000 0.15124
7848.00000 0.15105
7850.00000 0.15037
7852.00000 0.14969
7854.00000 0.14936
7856.00000 0.14883
7858.00000 0.14859
7860.00000 0.14757
7862.00000 0.14744
7864.00000 0.14687
7866.00000 0.14612
7868.00000 0.1454
7870.00000 0.14533
7872.00000 0.14456
7874.00000 0.14396
7876.00000 0.14383
7878.00000 0.14333
7880.00000 0.14272
7882.00000 0.14205
7884.00000 0.14136
7886.00000 0.14113
7888.00000 0.14071
7890.00000 0.14029
7892.00000 0.13973
7894.00000 0.13923
7896.00000 0.13878
7898.00000 0.13797
7900.00000 0.13759
7902.00000 0.13707
7904.00000 0.13659
7906.00000 0.13632
7908.00000 0.13587
7910.00000 0.13492
7912.00000 0.13508
7914.00000 0.13425
7916.00000 0.13384
7918.00000 0.13284
7920.00000 0.13274
7922.00000 0.13237
7924.00000 0.1318
7926.00000 0.13145
7928.00000 0.13098
7930.00000 0.13035
7932.00000 0.13007
7934.00000 0.12926
7936.00000 0.12898
7938.00000 0.12843
7940.00000 0.12799
7942.00000 0.1276
7944.00000 0.12711
7946.00000 0.12675
7948.00000 0.12617
7950.00000 0.12576
7952.00000 0.12552
7954.00000 0.12492
7956.00000 0.12477
7958.00000 0.12396
7960.00000 0.1236
7962.00000 0.12318
7964.00000 0.12269
7966.00000 0.12213
7968.00000 0.12164
7970.00000 0.12096
7972.00000 0.12086
7974.00000 0.12025
7976.00000 0.11986
7978.00000 0.1198
7980.00000 0.11901
7982.00000 0.11839
7984.00000 0.11808
7986.00000 0.11752
7988.00000 0.11724
7990.00000 0.1168
7992.00000 0.11656
7994.00000 0.11623
7996.00000 0.1154
7998.00000 0.11524
8000.00000 0.11504
8002.00000 0.11463
8004.00000 0.11425
8006.00000 0.11375
8008.00000 0.11339
8010.00000 0.11295
8012.00000 0.11259
8014.00000 0.11209
8016.00000 0.11177
8018.00000 0.11127
8020.00000 0.11088
8022.00000 0.11043
8024.00000 0.11001
8026.00000 0.10965
8028.00000 0.10928
8030.00000 0.10884
8032.00000 0.10834
8034.00000 0.10801
8036.00000 0.10758
8038.00000 0.10727
8040.00000 0.10684
8042.00000 0.10649
8044.00000 0.106
8046.00000 0.10573
8048.00000 0.1052
8050.00000 0.10487
8052.00000 0.10449
8054.00000 0.10408
8056.00000 0.10364
8058.00000 0.10326
8060.00000 0.10286
8062.00000 0.10245
8064.00000 0.10215
8066.00000 0.10166
8068.00000 0.10132
8070.00000 0.10095
8072.00000 0.10052
8074.00000 0.1002
8076.00000 0.09985
8078.00000 0.09932
8080.00000 0.09905
8082.00000 0.09865
8084.00000 0.09822
8086.00000 0.09787
8088.00000 0.09748
8090.00000 0.0972
8092.00000 0.09666
8094.00000 0.09636
8096.00000 0.09597
8098.00000 0.09561
8100.00000 0.09524
8102.00000 0.09487
8104.00000 0.09448
8106.00000 0.09411
8108.00000 0.09372
8110.00000 0.09339
8112.00000 0.09307
8114.00000 0.09268
8116.00000 0.0923
8118.00000 0.09192
8120.00000 0.09156
8122.00000 0.0912
8124.00000 0.09087
8126.00000 0.09042
8128.00000 0.09014
8130.00000 0.08983
8132.00000 0.08944
8134.00000 0.08905
8136.00000 0.08867
8138.00000 0.08836
8140.00000 0.08794
8142.00000 0.0876
8144.00000 0.08728
8146.00000 0.08695
8148.00000 0.08662
8150.00000 0.08627
8152.00000 0.08592
8154.00000 0.08563
8156.00000 0.08521
8158.00000 0.08488
8160.00000 0.08445
8162.00000 0.08419
8164.00000 0.08387
8166.00000 0.08352
8168.00000 0.08318
8170.00000 0.08285
8172.00000 0.08256
8174.00000 0.08219
8176.00000 0.08188
8178.00000 0.0815
8180.00000 0.08122
8182.00000 0.08087
8184.00000 0.08059
8186.00000 0.0802
8188.00000 0.0799
8190.00000 0.07957
8192.00000 0.07925
8194.00000 0.07891
8196.00000 0.0786
8198.00000 0.07834
8200.00000 0.07795
8202.00000 0.07775
8204.00000 0.07735
8206.00000 0.07706
8208.00000 0.07667
8210.00000 0.07641
8212.00000 0.07602
8214.00000 0.07571
8216.00000 0.07541
8218.00000 0.07512
8220.00000 0.07486
8222.00000 0.07448
8224.00000 0.07415
8226.00000 0.07388
8228.00000 0.07363
8230.00000 0.07324
8232.00000 0.07302
8234.00000 0.07271
8236.00000 0.07244
8238.00000 0.07211
8240.00000 0.07172
8242.00000 0.07155
8244.00000 0.07118
8246.00000 0.07095
8248.00000 0.07061
8250.00000 0.07031
8252.00000 0.07004
8254.00000 0.06978
8256.00000 0.0695
8258.00000 0.06923
8260.00000 0.06894
8262.00000 0.06863
8264.00000 0.06837
8266.00000 0.06801
8268.00000 0.06783
8270.00000 0.06753
8272.00000 0.06729
8274.00000 0.06695
8276.00000 0.06675
8278.00000 0.0664
8280.00000 0.06621
8282.00000 0.06582
8284.00000 0.06556
8286.00000 0.06528
8288.00000 0.06507
8290.00000 0.06477
8292.00000 0.06449
8294.00000 0.06423
8296.00000 0.06399
8298.00000 0.06371
8300.00000 0.06344
8302.00000 0.06317
8304.00000 0.06291
8306.00000 0.06261
8308.00000 0.06239
8310.00000 0.06212
8312.00000 0.06183
8314.00000 0.06158
8316.00000 0.06134
8318.00000 0.06102
8320.00000 0.06079
8322.00000 0.06053
8324.00000 0.06036
8326.00000 0.06004
8328.00000 0.05975
8330.00000 0.05953
8332.00000 0.05931
8334.00000 0.05902
8336.00000 0.0588
8338.00000 0.05854
8340.00000 0.05831
8342.00000 0.05806
8344.00000 0.05782
8346.00000 0.05756
8348.00000 0.05737
8350.00000 0.05712
8352.00000 0.05686
8354.00000 0.0566
8356.00000 0.05639
8358.00000 0.05611
8360.00000 0.05591
8362.00000 0.05565
8364.00000 0.05539
8366.00000 0.05522
8368.00000 0.05494
8370.00000 0.0547
8372.00000 0.05449
8374.00000 0.05424
8376.00000 0.05404
8378.00000 0.05382
8380.00000 0.05352
8382.00000 0.05337
8384.00000 0.05311
8386.00000 0.05288
8388.00000 0.05266
8390.00000 0.05242
8392.00000 0.05216
8394.00000 0.05194
8396.00000 0.05174
8398.00000 0.05158
8400.00000 0.05127
8402.00000 0.05105
8404.00000 0.05083
8406.00000 0.05064
8408.00000 0.05039
8410.00000 0.05019
8412.00000 0.04995
8414.00000 0.04973
8416.00000 0.0495
8418.00000 0.04934
8420.00000 0.04907
8422.00000 0.04888
8424.00000 0.04868
8426.00000 0.04845
8428.00000 0.04824
8430.00000 0.04805
8432.00000 0.04783
8434.00000 0.04761
8436.00000 0.04744
8438.00000 0.04718
8440.00000 0.04701
8442.00000 0.04678
8444.00000 0.0466
8446.00000 0.0464
8448.00000 0.04619
8450.00000 0.046
8452.00000 0.04581
8454.00000 0.04553
8456.00000 0.04537
8458.00000 0.04517
8460.00000 0.04503
8462.00000 0.04477
8464.00000 0.04457
8466.00000 0.04441
8468.00000 0.04418
8470.00000 0.04401
8472.00000 0.04383
8474.00000 0.04366
8476.00000 0.04345
8478.00000 0.04328
8480.00000 0.04304
8482.00000 0.04287
8484.00000 0.04271
8486.00000 0.04251
8488.00000 0.04233
8490.00000 0.0421
8492.00000 0.04195
8494.00000 0.04176
8496.00000 0.04157
8498.00000 0.04139
8500.00000 0.04123
8502.00000 0.04105
8504.00000 0.04084
8506.00000 0.0406
8508.00000 0.04045
8510.00000 0.04027
8512.00000 0.04014
8514.00000 0.03993
8516.00000 0.03977
8518.00000 0.03957
8520.00000 0.03941
8522.00000 0.03926
8524.00000 0.03905
8526.00000 0.03889
8528.00000 0.03865
8530.00000 0.03854
8532.00000 0.03834
8534.00000 0.03815
8536.00000 0.03799
8538.00000 0.03783
8540.00000 0.03765
8542.00000 0.03748
8544.00000 0.03732
8546.00000 0.03716
8548.00000 0.03699
8550.00000 0.03682
8552.00000 0.03667
8554.00000 0.03649
8556.00000 0.03634
8558.00000 0.03615
8560.00000 0.03601
8562.00000 0.03583
8564.00000 0.03572
8566.00000 0.03549
8568.00000 0.0354
8570.00000 0.03525
8572.00000 0.03506
8574.00000 0.03494
8576.00000 0.03468
8578.00000 0.03461
8580.00000 0.03439
8582.00000 0.03437
8584.00000 0.03416
8586.00000 0.03402
8588.00000 0.03384
8590.00000 0.0337
8592.00000 0.03352
8594.00000 0.03342
8596.00000 0.03323
8598.00000 0.03307
8600.00000 0.03293
8602.00000 0.03277
8604.00000 0.03264
8606.00000 0.0325
8608.00000 0.03232
8610.00000 0.03218
8612.00000 0.03199
8614.00000 0.03193
8616.00000 0.03177
8618.00000 0.03169
8620.00000 0.03147
8622.00000 0.03138
8624.00000 0.03123
8626.00000 0.03104
8628.00000 0.03093
8630.00000 0.03084
8632.00000 0.03066
8634.00000 0.03053
8636.00000 0.03036
8638.00000 0.03024
8640.00000 0.03006
8642.00000 0.03004
8644.00000 0.02977
8646.00000 0.02974
8648.00000 0.02956
8650.00000 0.02947
8652.00000 0.02932
8654.00000 0.02917
8656.00000 0.02902
8658.00000 0.02892
8660.00000 0.0288
8662.00000 0.02866
8664.00000 0.02856
8666.00000 0.02839
8668.00000 0.02826
8670.00000 0.02817
8672.00000 0.02803
8674.00000 0.02792
8676.00000 0.02778
8678.00000 0.02767
8680.00000 0.02751
8682.00000 0.02741
8684.00000 0.02726
8686.00000 0.02721
8688.00000 0.02707
8690.00000 0.02698
8692.00000 0.02681
8694.00000 0.02668
8696.00000 0.02657
8698.00000 0.02643
8700.00000 0.02633
8702.00000 0.02621
8704.00000 0.02605
8706.00000 0.02601
8708.00000 0.02584
8710.00000 0.02573
8712.00000 0.02559
8714.00000 0.02548
8716.00000 0.02539
8718.00000 0.0253
8720.00000 0.02519
8722.00000 0.025
8724.00000 0.02497
8726.00000 0.02481
8728.00000 0.02473
8730.00000 0.02461
8732.00000 0.02446
8734.00000 0.02438
8736.00000 0.02427
8738.00000 0.02422
8740.00000 0.02401
8742.00000 0.02396
8744.00000 0.02387
8746.00000 0.02377
8748.00000 0.0236
8750.00000 0.02352
8752.00000 0.02339
8754.00000 0.02325
8756.00000 0.02318
8758.00000 0.02307
8760.00000 0.02296
8762.00000 0.02283
8764.00000 0.02286
8766.00000 0.02265
8768.00000 0.02257
8770.00000 0.02245
8772.00000 0.02237
8774.00000 0.02224
8776.00000 0.02218
8778.00000 0.02207
8780.00000 0.02196
8782.00000 0.02186
8784.00000 0.02177
8786.00000 0.02165
8788.00000 0.02153
8790.00000 0.02148
8792.00000 0.02133
8794.00000 0.02129
8796.00000 0.02117
8798.00000 0.0211
8800.00000 0.02096
8802.00000 0.02091
8804.00000 0.02079
8806.00000 0.02072
8808.00000 0.02062
8810.00000 0.02051
8812.00000 0.02043
8814.00000 0.02035
8816.00000 0.02024
8818.00000 0.02013
8820.00000 0.02006
8822.00000 0.01994
8824.00000 0.01992
8826.00000 0.01979
8828.00000 0.01967
8830.00000 0.01961
8832.00000 0.01953
8834.00000 0.01942
8836.00000 0.01933
8838.00000 0.01921
8840.00000 0.0192
8842.00000 0.01904
8844.00000 0.01902
8846.00000 0.01897
8848.00000 0.01886
8850.00000 0.01875
8852.00000 0.01866
8854.00000 0.01857
8856.00000 0.0185
8858.00000 0.01842
8860.00000 0.01827
8862.00000 0.01822
8864.00000 0.01816
8866.00000 0.01807
8868.00000 0.018
8870.00000 0.0179
8872.00000 0.01781
8874.00000 0.01774
8876.00000 0.01764
8878.00000 0.01757
8880.00000 0.01748
8882.00000 0.01745
8884.00000 0.01732
8886.00000 0.01731
8888.00000 0.01717
8890.00000 0.01713
8892.00000 0.01702
8894.00000 0.01697
8896.00000 0.0169
8898.00000 0.01677
8900.00000 0.01671
8902.00000 0.01664
8904.00000 0.01656
8906.00000 0.01652
8908.00000 0.01641
8910.00000 0.01638
8912.00000 0.01624
8914.00000 0.01627
8916.00000 0.01612
8918.00000 0.01603
8920.00000 0.01599
8922.00000 0.01592
8924.00000 0.01585
8926.00000 0.01584
8928.00000 0.01569
8930.00000 0.01565
8932.00000 0.01553
8934.00000 0.0155
8936.00000 0.01542
8938.00000 0.01535
8940.00000 0.01528
8942.00000 0.01523
8944.00000 0.01511
8946.00000 0.01504
8948.00000 0.015
8950.00000 0.01492
8952.00000 0.01487
8954.00000 0.01481
8956.00000 0.0147
8958.00000 0.01464
8960.00000 0.0146
8962.00000 0.01452
8964.00000 0.01446
8966.00000 0.01438
8968.00000 0.01433
8970.00000 0.01427
8972.00000 0.01422
8974.00000 0.01414
8976.00000 0.01406
8978.00000 0.014
8980.00000 0.01391
8982.00000 0.01384
8984.00000 0.01377
8986.00000 0.01371
8988.00000 0.0137
8990.00000 0.0136
8992.00000 0.01353
8994.00000 0.01345
8996.00000 0.01343
8998.00000 0.01334
9000.00000 0.0133
9002.00000 0.01323
9004.00000 0.01316
9006.00000 0.01313
9008.00000 0.01304
9010.00000 0.01298
9012.00000 0.01295
9014.00000 0.01288
9016.00000 0.01288
9018.00000 0.0128
9020.00000 0.01271
9022.00000 0.01269
9024.00000 0.01259
9026.00000 0.01255
9028.00000 0.0125
9030.00000 0.01245
9032.00000 0.01239
9034.00000 0.01233
9036.00000 0.01221
9038.00000 0.01221
9040.00000 0.01217
9042.00000 0.01211
9044.00000 0.01204
9046.00000 0.01198
9048.00000 0.01189
9050.00000 0.0119
9052.00000 0.01183
9054.00000 0.01179
9056.00000 0.01168
9058.00000 0.01165
9060.00000 0.01161
9062.00000 0.01156
9064.00000 0.01151
9066.00000 0.01142
9068.00000 0.01136
9070.00000 0.01137
9072.00000 0.01126
9074.00000 0.01127
9076.00000 0.01122
9078.00000 0.01117
9080.00000 0.01102
9082.00000 0.01107
9084.00000 0.01098
9086.00000 0.0109
9088.00000 0.01091
9090.00000 0.01082
9092.00000 0.01081
9094.00000 0.01077
9096.00000 0.01071
9098.00000 0.01063
9100.00000 0.01061
9102.00000 0.01054
9104.00000 0.01045
9106.00000 0.01047
9108.00000 0.01043
9110.00000 0.01036
9112.00000 0.0103
9114.00000 0.01025
9116.00000 0.01022
9118.00000 0.01014
9120.00000 0.01008
9122.00000 0.01011
9124.00000 0.01008
9126.00000 0.00995
9128.00000 0.00994
9130.00000 0.00989
9132.00000 0.00981
9134.00000 0.00981
9136.00000 0.00976
9138.00000 0.00974
9140.00000 0.00968
9142.00000 0.00966
9144.00000 0.00959
9146.00000 0.00956
9148.00000 0.00948
9150.00000 0.00952
9152.00000 0.00944
9154.00000 0.00936
9156.00000 0.00935
9158.00000 0.0093
9160.00000 0.00922
9162.00000 0.0092
9164.00000 0.00918
9166.00000 0.00912
9168.00000 0.0091
9170.00000 0.00905
9172.00000 0.00905
9174.00000 0.009
9176.00000 0.0089
9178.00000 0.00895
9180.00000 0.00887
9182.00000 0.00881
9184.00000 0.00876
9186.00000 0.00874
9188.00000 0.0087
9190.00000 0.00868
9192.00000 0.00862
9194.00000 0.00855
9196.00000 0.00846
9198.00000 0.00853
9200.00000 0.00846
9202.00000 0.00844
9204.00000 0.00834
9206.00000 0.00835
9208.00000 0.00828
9210.00000 0.00827
9212.00000 0.00822
9214.00000 0.00818
9216.00000 0.00812
9218.00000 0.00819
9220.00000 0.0081
9222.00000 0.00808
9224.00000 0.00804
9226.00000 0.00802
9228.00000 0.00794
9230.00000 0.00789
9232.00000 0.00793
9234.00000 0.00783
9236.00000 0.00783
9238.00000 0.00772
9240.00000 0.00776
9242.00000 0.00769
9244.00000 0.00766
9246.00000 0.00769
9248.00000 0.00759
9250.00000 0.00757
9252.00000 0.0075
9254.00000 0.0075
9256.00000 0.00748
9258.00000 0.00747
9260.00000 0.00741
9262.00000 0.0074
9264.00000 0.00735
9266.00000 0.00732
9268.00000 0.00728
9270.00000 0.00724
9272.00000 0.00723
9274.00000 0.00716
9276.00000 0.00714
9278.00000 0.00713
9280.00000 0.00704
9282.00000 0.00702
9284.00000 0.00697
9286.00000 0.00695
9288.00000 0.00694
9290.00000 0.00696
9292.00000 0.00691
9294.00000 0.0068
9296.00000 0.00689
9298.00000 0.00682
9300.00000 0.00679
9302.00000 0.00675
9304.00000 0.00672
9306.00000 0.00667
9308.00000 0.00666
9310.00000 0.00664
9312.00000 0.0066
9314.00000 0.00656
9316.00000 0.00657
9318.00000 0.00652
9320.00000 0.00648
9322.00000 0.00643
9324.00000 0.0064
9326.00000 0.00641
9328.00000 0.00638
9330.00000 0.00635
9332.00000 0.00629
9334.00000 0.00629
9336.00000 0.00623
9338.00000 0.00623
9340.00000 0.00617
9342.00000 0.0062
9344.00000 0.00612
9346.00000 0.00609
9348.00000 0.00612
9350.00000 0.00611
9352.00000 0.00606
9354.00000 0.00599
9356.00000 0.00595
9358.00000 0.00597
9360.00000 0.00599
9362.00000 0.00586
9364.00000 0.00593
9366.00000 0.00587
9368.00000 0.00581
9370.00000 0.00576
9372.00000 0.00582
9374.00000 0.00572
9376.00000 0.00577
9378.00000 0.00567
9380.00000 0.00567
9382.00000 0.00563
9384.00000 0.00561
9386.00000 0.0056
9388.00000 0.0056
9390.00000 0.00555
9392.00000 0.00552
9394.00000 0.00554
9396.00000 0.00549
9398.00000 0.00543
9400.00000 0.00541
9402.00000 0.00544
9404.00000 0.0054
9406.00000 0.0054
9408.00000 0.00537
9410.00000 0.00533
9412.00000 0.00532
9414.00000 0.00524
9416.00000 0.00523
9418.00000 0.00521
9420.00000 0.00521
9422.00000 0.0052
9424.00000 0.00519
9426.00000 0.00516
9428.00000 0.00515
9430.00000 0.0051
9432.00000 0.00506
9434.00000 0.00504
9436.00000 0.005
9438.00000 0.00506
9440.00000 0.00498
9442.00000 0.00502
9444.00000 0.00495
9446.00000 0.00491
9448.00000 0.00486
9450.00000 0.00486
9452.00000 0.00486
9454.00000 0.00489
9456.00000 0.00479
9458.00000 0.00487
9460.00000 0.00478
9462.00000 0.00477
9464.00000 0.00474
9466.00000 0.00472
9468.00000 0.00468
9470.00000 0.00468
9472.00000 0.00469
9474.00000 0.00463
9476.00000 0.00465
9478.00000 0.00457
9480.00000 0.00452
9482.00000 0.00456
9484.00000 0.0046
9486.00000 0.0045
9488.00000 0.00452
9490.00000 0.00447
9492.00000 0.00448
9494.00000 0.00445
9496.00000 0.00442
9498.00000 0.00443
9500.00000 0.0044
9502.00000 0.00439
9504.00000 0.00438
9506.00000 0.00433
9508.00000 0.00429
9510.00000 0.00427
9512.00000 0.0043
9514.00000 0.00428
9516.00000 0.00419
9518.00000 0.00417
9520.00000 0.00424
9522.00000 0.0042
9524.00000 0.00416
9526.00000 0.00418
9528.00000 0.00411
9530.00000 0.00412
9532.00000 0.00408
9534.00000 0.0041
9536.00000 0.00408
9538.00000 0.00405
9540.00000 0.00405
9542.00000 0.00403
9544.00000 0.00401
9546.00000 0.004
9548.00000 0.00396
9550.00000 0.00391
9552.00000 0.00396
9554.00000 0.00393
9556.00000 0.00387
9558.00000 0.00391
9560.00000 0.00389
9562.00000 0.00385
9564.00000 0.00384
9566.00000 0.00383
9568.00000 0.00382
9570.00000 0.0038
9572.00000 0.00376
9574.00000 0.00379
9576.00000 0.00379
9578.00000 0.00372
9580.00000 0.00375
9582.00000 0.00367
9584.00000 0.00367
9586.00000 0.00364
9588.00000 0.00365
9590.00000 0.00364
9592.00000 0.00369
9594.00000 0.00361
9596.00000 0.0036
9598.00000 0.00358
9600.00000 0.00352
9602.00000 0.00354
9604.00000 0.00354
9606.00000 0.00349
9608.00000 0.00351
9610.00000 0.00345
9612.00000 0.00354
9614.00000 0.00346
9616.00000 0.00345
9618.00000 0.00347
9620.00000 0.0034
9622.00000 0.0034
9624.00000 0.0034
9626.00000 0.0034
9628.00000 0.00337
9630.00000 0.00337
9632.00000 0.00335
9634.00000 0.0033
9636.00000 0.00329
9638.00000 0.00331
9640.00000 0.00323
9642.00000 0.00329
9644.00000 0.00325
9646.00000 0.00321
9648.00000 0.00324
9650.00000 0.00325
9652.00000 0.00321
9654.00000 0.00321
9656.00000 0.00317
9658.00000 0.00322
9660.00000 0.00316
9662.00000 0.00315
9664.00000 0.00312
9666.00000 0.00313
9668.00000 0.00313
9670.00000 0.0031
9672.00000 0.00308
9674.00000 0.00305
9676.00000 0.00304
9678.00000 0.00301
9680.00000 0.003
9682.00000 0.003
9684.00000 0.00302
9686.00000 0.00302
9688.00000 0.00298
9690.00000 0.003
9692.00000 0.00297
9694.00000 0.00295
9696.00000 0.00293
9698.00000 0.00294
9700.00000 0.00293
9702.00000 0.00292
9704.00000 0.00287
9706.00000 0.00293
9708.00000 0.00288
9710.00000 0.00286
9712.00000 0.00285
9714.00000 0.00285
9716.00000 0.00283
9718.00000 0.00282
9720.00000 0.0028
9722.00000 0.00278
9724.00000 0.00273
9726.00000 0.00273
9728.00000 0.0028
9730.00000 0.00271
9732.00000 0.00272
9734.00000 0.00271
9736.00000 0.0027
9738.00000 0.00269
9740.00000 0.00265
9742.00000 0.00269
9744.00000 0.00266
9746.00000 0.00263
9748.00000 0.00264
9750.00000 0.0026
9752.00000 0.00262
9754.00000 0.00261
9756.00000 0.00263
9758.00000 0.00258
9760.00000 0.00257
9762.00000 0.0026
9764.00000 0.00256
9766.00000 0.00258
9768.00000 0.00254
9770.00000 0.00259
9772.00000 0.00253
9774.00000 0.00253
9776.00000 0.00249
9778.00000 0.00251
9780.00000 0.0025
9782.00000 0.00251
9784.00000 0.00244
9786.00000 0.00247
9788.00000 0.00242
9790.00000 0.00248
9792.00000 0.00244
9794.00000 0.00243
9796.00000 0.00239
9798.00000 0.00245
9800.00000 0.00236
9802.00000 0.00238
9804.00000 0.00234
9806.00000 0.00238
9808.00000 0.00235
9810.00000 0.00237
9812.00000 0.00235
9814.00000 0.00237
9816.00000 0.00233
9818.00000 0.00228
9820.00000 0.0023
9822.00000 0.00227
9824.00000 0.00229
9826.00000 0.0023
9828.00000 0.0023
9830.00000 0.00226
9832.00000 0.0023
9834.00000 0.00225
9836.00000 0.00222
9838.00000 0.00225
9840.00000 0.00218
9842.00000 0.0022
9844.00000 0.00221
9846.00000 0.00221
9848.00000 0.00218
9850.00000 0.00219
9852.00000 0.00216
9854.00000 0.00212
9856.00000 0.00214
9858.00000 0.00214
9860.00000 0.00217
9862.00000 0.00209
9864.00000 0.00216
9866.00000 0.00214
9868.00000 0.00209
9870.00000 0.0021
9872.00000 0.00206
9874.00000 0.00207
9876.00000 0.00209
9878.00000 0.00207
9880.00000 0.00205
9882.00000 0.00205
9884.00000 0.00209
9886.00000 0.00201
9888.00000 0.00205
9890.00000 0.002
9892.00000 0.00202
9894.00000 0.00197
9896.00000 0.00202
9898.00000 0.00198
9900.00000 0.00197
9902.00000 0.00198
9904.00000 0.00197
9906.00000 0.00199
9908.00000 0.00194
9910.00000 0.00192
9912.00000 0.00191
9914.00000 0.00193
9916.00000 0.00195
9918.00000 0.00195
9920.00000 0.00187
9922.00000 0.00189
9924.00000 0.00191
9926.00000 0.00187
9928.00000 0.00191
9930.00000 0.00184
9932.00000 0.00184
9934.00000 0.00186
9936.00000 0.00188
9938.00000 0.00187
9940.00000 0.0019
9942.00000 0.00183
9944.00000 0.00182
9946.00000 0.00186
9948.00000 0.00182
9950.00000 0.00179
9952.00000 0.0018
9954.00000 0.00184
9956.00000 0.00179
9958.00000 0.00179
9960.00000 0.00176
9962.00000 0.00179
9964.00000 0.00177
9966.00000 0.00177
9968.00000 0.00172
9970.00000 0.00177
9972.00000 0.00177
9974.00000 0.00175
9976.00000 0.00174
9978.00000 0.00174
9980.00000 0.00172
9982.00000 0.0017
9984.00000 0.00171
9986.00000 0.00171
9988.00000 0.0017
9990.00000 0.00175
9992.00000 0.00169
9994.00000 0.00165
9996.00000 0.00165
9998.00000 0.00166
10000.00000 0.00165
10002.00000 0.00165
10004.00000 0.00165
10006.00000 0.00167
10008.00000 0.00163
10010.00000 0.00164
10012.00000 0.00157
10014.00000 0.00157
10016.00000 0.00164
10018.00000 0.0016
10020.00000 0.0016
10022.00000 0.00159
10024.00000 0.00163
10026.00000 0.00157
10028.00000 0.0016
10030.00000 0.00159
10032.00000 0.00154
10034.00000 0.0016
10036.00000 0.00152
10038.00000 0.00156
10040.00000 0.00156
10042.00000 0.00153
10044.00000 0.00156
10046.00000 0.00157
10048.00000 0.0015
10050.00000 0.00148
10052.00000 0.00151
10054.00000 0.00147
10056.00000 0.00147
10058.00000 0.00151
10060.00000 0.0015
10062.00000 0.00146
10064.00000 0.0015
10066.00000 0.00147
10068.00000 0.00151
10070.00000 0.00146
10072.00000 0.00144
10074.00000 0.00146
10076.00000 0.00148
10078.00000 0.00144
10080.00000 0.00147
10082.00000 0.00144
10084.00000 0.00148
10086.00000 0.00146
10088.00000 0.00138
10090.00000 0.00144
10092.00000 0.00142
10094.00000 0.00138
10096.00000 0.00142
10098.00000 0.00138
10100.00000 0.00139
10102.00000 0.00142
10104.00000 0.00139
10106.00000 0.00137
10108.00000 0.00136
10110.00000 0.00136
10112.00000 0.00141
10114.00000 0.00135
10116.00000 0.00137
10118.00000 0.00137
10120.00000 0.00133
10122.00000 0.00138
10124.00000 0.00133
10126.00000 0.00135
10128.00000 0.00132
10130.00000 0.00134
10132.00000 0.00131
10134.00000 0.0013
10136.00000 0.00132
10138.00000 0.00128
10140.00000 0.0013
10142.00000 0.00134
10144.00000 0.00127
10146.00000 0.00125
10148.00000 0.00127
10150.00000 0.00132
10152.00000 0.00129
10154.00000 0.00131
10156.00000 0.00131
10158.00000 0.00124
10160.00000 0.00127
10162.00000 0.00126
10164.00000 0.00127
10166.00000 0.00125
10168.00000 0.00123
10170.00000 0.00128
10172.00000 0.00122
10174.00000 0.00125
10176.00000 0.00123
10178.00000 0.00119
10180.00000 0.00121
10182.00000 0.00119
10184.00000 0.00124
10186.00000 0.00123
10188.00000 0.0012
10190.00000 0.00123
10192.00000 0.00121
10194.00000 0.00119
10196.00000 0.00118
10198.00000 0.00114
10200.00000 0.00119
10202.00000 0.0012
10204.00000 0.00118
10206.00000 0.00114
10208.00000 0.00119
10210.00000 0.00118
10212.00000 0.00118
10214.00000 0.00115
10216.00000 0.00113
10218.00000 0.00114
10220.00000 0.00113
10222.00000 0.00114
10224.00000 0.00113
10226.00000 0.00113
10228.00000 0.0011
10230.00000 0.00116
10232.00000 0.00116
10234.00000 0.00113
10236.00000 0.00112
10238.00000 0.00111
10240.00000 0.00115
10242.00000 0.00113
10244.00000 0.0011
10246.00000 0.0011
10248.00000 0.0011
10250.00000 0.00109
10252.00000 0.0011
10254.00000 0.00108
10256.00000 0.00108
10258.00000 0.0011
10260.00000 0.00109
10262.00000 0.00102
10264.00000 0.00105
10266.00000 0.00108
10268.00000 0.00102
10270.00000 0.00105
10272.00000 0.00104
10274.00000 0.00104
10276.00000 0.00106
10278.00000 0.00105
10280.00000 0.00107
10282.00000 0.00106
10284.00000 0.00102
10286.00000 0.00104
10288.00000 0.00107
10290.00000 0.00109
10292.00000 0.001
10294.00000 0.00106
10296.00000 0.00098
10298.00000 0.00103
10300.00000 0.00103
10302.00000 0.001
10304.00000 0.00106
10306.00000 0.00108
10308.00000 0.00097
10310.00000 0.001
10312.00000 0.00101
10314.00000 0.00105
10316.00000 0.001
10318.00000 0.00096
10320.00000 0.00097
10322.00000 0.00101
10324.00000 0.00094
10326.00000 0.00101
10328.00000 0.00094
10330.00000 0.00098
10332.00000 0.00097
10334.00000 0.00096
10336.00000 0.00095
10338.00000 0.00095
10340.00000 0.00091
10342.00000 0.00097
10344.00000 0.00093
10346.00000 0.00099
10348.00000 0.00095
10350.00000 0.00095
10352.00000 0.00094
10354.00000 0.00093
10356.00000 0.00094
10358.00000 0.00091
10360.00000 0.00095
10362.00000 0.0009
10364.00000 0.00091
10366.00000 0.00093
10368.00000 0.00091
10370.00000 0.00089
10372.00000 0.00095
10374.00000 0.00094
10376.00000 0.00088
10378.00000 0.00091
10380.00000 0.00095
10382.00000 0.0009
10384.00000 0.0009
10386.00000 0.00089
10388.00000 0.00087
10390.00000 0.00091
10392.00000 0.00088
10394.00000 0.00092
10396.00000 0.00088
10398.00000 0.00093
10400.00000 0.00086
10402.00000 0.00091
10404.00000 0.00086
10406.00000 0.00089
10408.00000 0.00084
10410.00000 0.00086
10412.00000 0.00086
10414.00000 0.00085
10416.00000 0.00085
10418.00000 0.00086
10420.00000 0.00084
10422.00000 0.00085
10424.00000 0.00086
10426.00000 0.00089
10428.00000 0.00084
10430.00000 0.00083
10432.00000 0.00086
10434.00000 0.00083
10436.00000 0.00083
10438.00000 0.00085
10440.00000 0.00086
10442.00000 0.00086
10444.00000 0.00082
10446.00000 0.00079
10448.00000 0.00082
10450.00000 0.00082
10452.00000 0.0008
10454.00000 0.00079
10456.00000 0.00083
10458.00000 0.00078
10460.00000 0.00081
10462.00000 0.00078
10464.00000 0.00079
10466.00000 0.0008
10468.00000 0.00084
10470.00000 0.00079
10472.00000 0.00078
10474.00000 0.0008
10476.00000 0.00075
10478.00000 0.00083
10480.00000 0.00081
10482.00000 0.0008
10484.00000 0.00079
10486.00000 0.00076
10488.00000 0.00069
10490.00000 0.00077
10492.00000 0.0008
10494.00000 0.00077
10496.00000 0.00078
10498.00000 0.00079
10500.00000 0.00082
10502.00000 0.00077
10504.00000 0.00079
10506.00000 0.00078
10508.00000 0.00073
10510.00000 0.00073
10512.00000 0.0007
10514.00000 0.00076
10516.00000 0.00074
10518.00000 0.00075
10520.00000 0.00075
10522.00000 0.00074
10524.00000 0.00078
10526.00000 0.00073
10528.00000 0.00073
10530.00000 0.00076
10532.00000 0.00076
10534.00000 0.00072
10536.00000 0.00072
10538.00000 0.00073
10540.00000 0.0007
10542.00000 0.0007
10544.00000 0.00078
10546.00000 0.00072
10548.00000 0.00076
10550.00000 0.00073
10552.00000 0.00069
10554.00000 0.00071
10556.00000 0.00068
10558.00000 0.0007
10560.00000 0.00071
10562.00000 0.00073
10564.00000 0.00072
10566.00000 0.00075
10568.00000 0.00068
10570.00000 0.00069
10572.00000 0.00071
10574.00000 0.00071
10576.00000 0.00069
10578.00000 0.00071
10580.00000 0.00074
10582.00000 0.00072
10584.00000 0.00071
10586.00000 0.0007
10588.00000 0.00072
10590.00000 0.00068
10592.00000 0.00067
10594.00000 0.00064
10596.00000 0.00067
10598.00000 0.00067
10600.00000 0.00068
10602.00000 0.00061
10604.00000 0.0007
10606.00000 0.0007
10608.00000 0.0007
10610.00000 0.00072
10612.00000 0.00074
10614.00000 0.00072
10616.00000 0.00067
10618.00000 0.00068
10620.00000 0.00064
10622.00000 0.00067
10624.00000 0.00066
10626.00000 0.00064
10628.00000 0.00065
10630.00000 0.00064
10632.00000 0.00067
10634.00000 0.00063
10636.00000 0.0007
10638.00000 0.00069
10640.00000 0.00065
10642.00000 0.0006
10644.00000 0.00064
10646.00000 0.00061
10648.00000 0.00063
10650.00000 0.00063
10652.00000 0.00064
10654.00000 0.00062
10656.00000 0.00064
10658.00000 0.00062
10660.00000 0.00061
10662.00000 0.00067
10664.00000 0.0006
10666.00000 0.00065
10668.00000 0.0006
10670.00000 0.00061
10672.00000 0.00063
10674.00000 0.00056
10676.00000 0.0006
10678.00000 0.00062
10680.00000 0.00061
10682.00000 0.00062
10684.00000 0.0006
10686.00000 0.00062
10688.00000 0.00059
10690.00000 0.00064
10692.00000 0.0006
10694.00000 0.00059
10696.00000 0.00063
10698.00000 0.00059
10700.00000 0.00062
10702.00000 0.00057
10704.00000 0.00061
10706.00000 0.00063
10708.00000 0.0006
10710.00000 0.0006
10712.00000 0.00061
10714.00000 0.00059
10716.00000 0.00061
10718.00000 0.00059
10720.00000 0.0006
10722.00000 0.0006
10724.00000 0.00056
10726.00000 0.00055
10728.00000 0.00058
10730.00000 0.00059
10732.00000 0.00059
10734.00000 0.0006
10736.00000 0.00054
10738.00000 0.00057
10740.00000 0.00059
10742.00000 0.00057
10744.00000 0.00057
10746.00000 0.00055
10748.00000 0.00061
10750.00000 0.00057
10752.00000 0.00058
10754.00000 0.00051
10756.00000 0.00051
10758.00000 0.00055
10760.00000 0.00058
10762.00000 0.00056
10764.00000 0.00057
10766.00000 0.00054
10768.00000 0.00049
10770.00000 0.00055
10772.00000 0.0005
10774.00000 0.00055
10776.00000 0.00056
10778.00000 0.00056
10780.00000 0.00052
10782.00000 0.00052
10784.00000 0.00055
10786.00000 0.00057
10788.00000 0.00055
10790.00000 0.00054
10792.00000 0.00056
10794.00000 0.00056
10796.00000 0.00052
10798.00000 0.00047
10800.00000 0.00055
10802.00000 0.00056
10804.00000 0.00052
10806.00000 0.00052
10808.00000 0.00054
10810.00000 0.00056
10812.00000 0.00056
10814.00000 0.00054
10816.00000 0.00058
10818.00000 0.00053
10820.00000 0.00052
10822.00000 0.00051
10824.00000 0.00055
10826.00000 0.0005
10828.00000 0.00053
10830.00000 0.00058
10832.00000 0.00055
10834.00000 0.0005
10836.00000 0.00052
10838.00000 0.00052
10840.00000 0.00051
10842.00000 0.00057
10844.00000 0.00048
10846.00000 0.0005
10848.00000 0.00049
10850.00000 0.0005
10852.00000 0.00046
10854.00000 0.00052
10856.00000 0.00052
10858.00000 0.0005
10860.00000 0.00052
10862.00000 0.00049
10864.00000 0.00051
10866.00000 0.00052
10868.00000 0.00045
10870.00000 0.00048
10872.00000 0.00048
10874.00000 0.00051
10876.00000 0.00049
10878.00000 0.00052
10880.00000 0.0005
10882.00000 0.0005
10884.00000 0.0005
10886.00000 0.00046
10888.00000 0.00049
10890.00000 0.00049
10892.00000 0.00047
10894.00000 0.00047
10896.00000 0.00049
10898.00000 0.00049
10900.00000 0.00049
10902.00000 0.00051
10904.00000 0.00045
10906.00000 0.00049
10908.00000 0.00049
10910.00000 0.00049
10912.00000 0.00047
10914.00000 0.00051
10916.00000 0.00049
10918.00000 0.00048
10920.00000 0.00047
10922.00000 0.00045
10924.00000 0.00046
10926.00000 0.00044
10928.00000 0.00049
10930.00000 0.00041
10932.00000 0.00051
10934.00000 0.00045
10936.00000 0.00047
10938.00000 0.00044
10940.00000 0.00046
10942.00000 0.00048
10944.00000 0.00047
10946.00000 0.00051
10948.00000 0.00047
10950.00000 0.00042
10952.00000 0.00039
10954.00000 0.00045
10956.00000 0.00043
10958.00000 0.00046
10960.00000 0.0005
10962.00000 0.0005
10964.00000 0.00051
10966.00000 0.00047
10968.00000 0.00043
10970.00000 0.00046
10972.00000 0.0004
10974.00000 0.00047
10976.00000 0.00047
10978.00000 0.00044
10980.00000 0.00045
10982.00000 0.00045
10984.00000 0.00049
10986.00000 0.00047
10988.00000 0.00047
10990.00000 0.00043
10992.00000 0.0005
10994.00000 0.00044
10996.00000 0.00042
10998.00000 0.00048
11000.00000 0.00045
12100.00000 0.0
