# %ECSV 0.9
# ---
# datatype:
# - {name: wavelength, unit: Angstrom, datatype: float32}
# - {name: response, datatype: float32}
# meta: !!omap
# - {band_name: r}
# - {group_name: Gunn}
wavelength response
5016.60010 0.0
5574.00000 4e-05
5576.00000 4e-05
5578.00000 4e-05
5580.00000 4e-05
5582.00000 4e-05
5584.00000 5e-05
5586.00000 5e-05
5588.00000 5e-05
5590.00000 5e-05
5592.00000 5e-05
5594.00000 6e-05
5596.00000 6e-05
5598.00000 6e-05
5600.00000 6e-05
5602.00000 7e-05
5604.00000 7e-05
5606.00000 7e-05
5608.00000 8e-05
5610.00000 8e-05
5612.00000 8e-05
5614.00000 8e-05
5616.00000 9e-05
5618.00000 9e-05
5620.00000 9e-05
5622.00000 0.0001
5624.00000 0.0001
5626.00000 0.00011
5628.00000 0.00011
5630.00000 0.00012
5632.00000 0.00012
5634.00000 0.00012
5636.00000 0.00013
5638.00000 0.00013
5640.00000 0.00014
5642.00000 0.00014
5644.00000 0.00015
5646.00000 0.00015
5648.00000 0.00016
5650.00000 0.00017
5652.00000 0.00017
5654.00000 0.00018
5656.00000 0.00018
5658.00000 0.00019
5660.00000 0.0002
5662.00000 0.0002
5664.00000 0.00021
5666.00000 0.00022
5668.00000 0.00023
5670.00000 0.00023
5672.00000 0.00024
5674.00000 0.00025
5676.00000 0.00026
5678.00000 0.00026
5680.00000 0.00027
5682.00000 0.00029
5684.00000 0.00029
5686.00000 0.0003
5688.00000 0.00031
5690.00000 0.00032
5692.00000 0.00033
5694.00000 0.00035
5696.00000 0.00035
5698.00000 0.00036
5700.00000 0.00038
5702.00000 0.00039
5704.00000 0.0004
5706.00000 0.0004
5708.00000 0.00042
5710.00000 0.00043
5712.00000 0.00044
5714.00000 0.00046
5716.00000 0.00047
5718.00000 0.00048
5720.00000 0.0005
5722.00000 0.00051
5724.00000 0.00053
5726.00000 0.00054
5728.00000 0.00055
5730.00000 0.00057
5732.00000 0.00058
5734.00000 0.0006
5736.00000 0.00062
5738.00000 0.00063
5740.00000 0.00065
5742.00000 0.00067
5744.00000 0.00068
5746.00000 0.0007
5748.00000 0.00072
5750.00000 0.00075
5752.00000 0.00076
5754.00000 0.00079
5756.00000 0.00081
5758.00000 0.00083
5760.00000 0.00086
5762.00000 0.00088
5764.00000 0.0009
5766.00000 0.00093
5768.00000 0.00096
5770.00000 0.00099
5772.00000 0.00101
5774.00000 0.00104
5776.00000 0.00108
5778.00000 0.00112
5780.00000 0.00115
5782.00000 0.00118
5784.00000 0.00123
5786.00000 0.00126
5788.00000 0.00131
5790.00000 0.00134
5792.00000 0.00139
5794.00000 0.00144
5796.00000 0.00149
5798.00000 0.00154
5800.00000 0.00161
5802.00000 0.00165
5804.00000 0.00172
5806.00000 0.00177
5808.00000 0.00184
5810.00000 0.0019
5812.00000 0.00198
5814.00000 0.00204
5816.00000 0.00212
5818.00000 0.00221
5820.00000 0.00229
5822.00000 0.00238
5824.00000 0.00247
5826.00000 0.00256
5828.00000 0.00267
5830.00000 0.00278
5832.00000 0.00289
5834.00000 0.003
5836.00000 0.00314
5838.00000 0.00325
5840.00000 0.00339
5842.00000 0.00354
5844.00000 0.00368
5846.00000 0.00384
5848.00000 0.00401
5850.00000 0.00416
5852.00000 0.00434
5854.00000 0.00453
5856.00000 0.00472
5858.00000 0.00494
5860.00000 0.00515
5862.00000 0.00538
5864.00000 0.00563
5866.00000 0.00589
5868.00000 0.00616
5870.00000 0.00645
5872.00000 0.00673
5874.00000 0.00703
5876.00000 0.00736
5878.00000 0.00773
5880.00000 0.00806
5882.00000 0.00847
5884.00000 0.0089
5886.00000 0.00932
5888.00000 0.0098
5890.00000 0.01027
5892.00000 0.01076
5894.00000 0.0113
5896.00000 0.01189
5898.00000 0.01247
5900.00000 0.0131
5902.00000 0.01379
5904.00000 0.01452
5906.00000 0.01526
5908.00000 0.01604
5910.00000 0.01693
5912.00000 0.01779
5914.00000 0.01875
5916.00000 0.01976
5918.00000 0.02078
5920.00000 0.02192
5922.00000 0.02314
5924.00000 0.02436
5926.00000 0.0257
5928.00000 0.02709
5930.00000 0.02859
5932.00000 0.0301
5934.00000 0.03184
5936.00000 0.03362
5938.00000 0.03548
5940.00000 0.03743
5942.00000 0.0395
5944.00000 0.04172
5946.00000 0.04394
5948.00000 0.04646
5950.00000 0.04894
5952.00000 0.05163
5954.00000 0.05439
5956.00000 0.05734
5958.00000 0.06039
5960.00000 0.06376
5962.00000 0.06725
5964.00000 0.07078
5966.00000 0.07462
5968.00000 0.07843
5970.00000 0.08246
5972.00000 0.08663
5974.00000 0.09114
5976.00000 0.09572
5978.00000 0.10046
5980.00000 0.10537
5982.00000 0.11056
5984.00000 0.11581
5986.00000 0.12134
5988.00000 0.12709
5990.00000 0.13287
5992.00000 0.1389
5994.00000 0.14522
5996.00000 0.15159
5998.00000 0.15829
6000.00000 0.16536
6002.00000 0.17232
6004.00000 0.17941
6006.00000 0.18659
6008.00000 0.19399
6010.00000 0.20149
6012.00000 0.20954
6014.00000 0.2175
6016.00000 0.22559
6018.00000 0.23373
6020.00000 0.24187
6022.00000 0.25025
6024.00000 0.25879
6026.00000 0.26742
6028.00000 0.27587
6030.00000 0.28463
6032.00000 0.2931
6034.00000 0.3015
6036.00000 0.3102
6038.00000 0.31924
6040.00000 0.32827
6042.00000 0.33715
6044.00000 0.34608
6046.00000 0.35496
6048.00000 0.36388
6050.00000 0.37275
6052.00000 0.38197
6054.00000 0.39087
6056.00000 0.39964
6058.00000 0.40821
6060.00000 0.41704
6062.00000 0.42574
6064.00000 0.43475
6066.00000 0.44353
6068.00000 0.45213
6070.00000 0.46068
6072.00000 0.46907
6074.00000 0.47757
6076.00000 0.48602
6078.00000 0.49445
6080.00000 0.50252
6082.00000 0.51051
6084.00000 0.51851
6086.00000 0.52628
6088.00000 0.53418
6090.00000 0.54179
6092.00000 0.5497
6094.00000 0.55753
6096.00000 0.56511
6098.00000 0.57264
6100.00000 0.58062
6102.00000 0.58752
6104.00000 0.5957
6106.00000 0.60293
6108.00000 0.6102
6110.00000 0.61761
6112.00000 0.62497
6114.00000 0.63177
6116.00000 0.63884
6118.00000 0.64623
6120.00000 0.65278
6122.00000 0.65988
6124.00000 0.66666
6126.00000 0.67324
6128.00000 0.67976
6130.00000 0.68625
6132.00000 0.69244
6134.00000 0.69902
6136.00000 0.70478
6138.00000 0.7107
6140.00000 0.7166
6142.00000 0.72226
6144.00000 0.72809
6146.00000 0.73364
6148.00000 0.73923
6150.00000 0.74464
6152.00000 0.75013
6154.00000 0.75519
6156.00000 0.76031
6158.00000 0.76522
6160.00000 0.76998
6162.00000 0.77466
6164.00000 0.77935
6166.00000 0.78394
6168.00000 0.788
6170.00000 0.79208
6172.00000 0.79613
6174.00000 0.79946
6176.00000 0.80317
6178.00000 0.80688
6180.00000 0.8102
6182.00000 0.81324
6184.00000 0.81609
6186.00000 0.81883
6188.00000 0.82202
6190.00000 0.82406
6192.00000 0.82604
6194.00000 0.82857
6196.00000 0.83081
6198.00000 0.83271
6200.00000 0.83477
6202.00000 0.83635
6204.00000 0.83772
6206.00000 0.83955
6208.00000 0.84136
6210.00000 0.84212
6212.00000 0.84394
6214.00000 0.84484
6216.00000 0.84634
6218.00000 0.8476
6220.00000 0.84855
6222.00000 0.84932
6224.00000 0.84977
6226.00000 0.85097
6228.00000 0.85109
6230.00000 0.85207
6232.00000 0.85222
6234.00000 0.85259
6236.00000 0.85345
6238.00000 0.85359
6240.00000 0.85417
6242.00000 0.85399
6244.00000 0.85491
6246.00000 0.85494
6248.00000 0.85539
6250.00000 0.8558
6252.00000 0.85607
6254.00000 0.8567
6256.00000 0.8569
6258.00000 0.85731
6260.00000 0.85794
6262.00000 0.85878
6264.00000 0.85914
6266.00000 0.86042
6268.00000 0.86072
6270.00000 0.86164
6272.00000 0.86204
6274.00000 0.86304
6276.00000 0.86384
6278.00000 0.86455
6280.00000 0.86571
6282.00000 0.86668
6284.00000 0.86737
6286.00000 0.86849
6288.00000 0.86936
6290.00000 0.87034
6292.00000 0.87148
6294.00000 0.8729
6296.00000 0.87393
6298.00000 0.87479
6300.00000 0.87707
6302.00000 0.87833
6304.00000 0.87965
6306.00000 0.88164
6308.00000 0.88271
6310.00000 0.88423
6312.00000 0.88593
6314.00000 0.88789
6316.00000 0.88925
6318.00000 0.89126
6320.00000 0.89318
6322.00000 0.89505
6324.00000 0.89648
6326.00000 0.89829
6328.00000 0.90049
6330.00000 0.90246
6332.00000 0.9039
6334.00000 0.90568
6336.00000 0.90796
6338.00000 0.90926
6340.00000 0.91096
6342.00000 0.91259
6344.00000 0.91344
6346.00000 0.91577
6348.00000 0.91716
6350.00000 0.91924
6352.00000 0.92024
6354.00000 0.92172
6356.00000 0.92356
6358.00000 0.92482
6360.00000 0.92601
6362.00000 0.92728
6364.00000 0.9286
6366.00000 0.9295
6368.00000 0.93021
6370.00000 0.93143
6372.00000 0.93268
6374.00000 0.93307
6376.00000 0.93417
6378.00000 0.9349
6380.00000 0.93505
6382.00000 0.93563
6384.00000 0.93579
6386.00000 0.93621
6388.00000 0.93606
6390.00000 0.93617
6392.00000 0.93641
6394.00000 0.93664
6396.00000 0.93613
6398.00000 0.93571
6400.00000 0.93505
6402.00000 0.9345
6404.00000 0.93383
6406.00000 0.9332
6408.00000 0.93282
6410.00000 0.93142
6412.00000 0.93039
6414.00000 0.92949
6416.00000 0.92815
6418.00000 0.92709
6420.00000 0.92546
6422.00000 0.92416
6424.00000 0.92264
6426.00000 0.92174
6428.00000 0.92027
6430.00000 0.91833
6432.00000 0.91703
6434.00000 0.91524
6436.00000 0.91348
6438.00000 0.91178
6440.00000 0.9104
6442.00000 0.90876
6444.00000 0.90635
6446.00000 0.90482
6448.00000 0.9031
6450.00000 0.90114
6452.00000 0.89929
6454.00000 0.89681
6456.00000 0.8945
6458.00000 0.8931
6460.00000 0.89058
6462.00000 0.88905
6464.00000 0.88662
6466.00000 0.88415
6468.00000 0.88256
6470.00000 0.88059
6472.00000 0.87843
6474.00000 0.87606
6476.00000 0.87446
6478.00000 0.87281
6480.00000 0.87104
6482.00000 0.86953
6484.00000 0.86729
6486.00000 0.86543
6488.00000 0.86404
6490.00000 0.8623
6492.00000 0.86106
6494.00000 0.85932
6496.00000 0.8581
6498.00000 0.85683
6500.00000 0.85485
6502.00000 0.85409
6504.00000 0.85257
6506.00000 0.85124
6508.00000 0.85033
6510.00000 0.8488
6512.00000 0.8478
6514.00000 0.84658
6516.00000 0.84593
6518.00000 0.84491
6520.00000 0.844
6522.00000 0.8434
6524.00000 0.84245
6526.00000 0.84191
6528.00000 0.84152
6530.00000 0.84108
6532.00000 0.84043
6534.00000 0.84037
6536.00000 0.84015
6538.00000 0.84026
6540.00000 0.83995
6542.00000 0.84005
6544.00000 0.84005
6546.00000 0.84067
6548.00000 0.84118
6550.00000 0.84165
6552.00000 0.84184
6554.00000 0.84236
6556.00000 0.84306
6558.00000 0.84372
6560.00000 0.84441
6562.00000 0.84518
6564.00000 0.84632
6566.00000 0.84727
6568.00000 0.84753
6570.00000 0.84878
6572.00000 0.84986
6574.00000 0.85119
6576.00000 0.85217
6578.00000 0.85388
6580.00000 0.85486
6582.00000 0.85636
6584.00000 0.85786
6586.00000 0.85948
6588.00000 0.86112
6590.00000 0.86252
6592.00000 0.86423
6594.00000 0.86581
6596.00000 0.86796
6598.00000 0.86936
6600.00000 0.87098
6602.00000 0.87317
6604.00000 0.87482
6606.00000 0.87691
6608.00000 0.87908
6610.00000 0.88035
6612.00000 0.8822
6614.00000 0.88394
6616.00000 0.88581
6618.00000 0.88752
6620.00000 0.8891
6622.00000 0.89073
6624.00000 0.89284
6626.00000 0.89423
6628.00000 0.89567
6630.00000 0.8977
6632.00000 0.89892
6634.00000 0.90004
6636.00000 0.90152
6638.00000 0.90279
6640.00000 0.90387
6642.00000 0.90518
6644.00000 0.90642
6646.00000 0.90698
6648.00000 0.90778
6650.00000 0.90888
6652.00000 0.9097
6654.00000 0.91023
6656.00000 0.91103
6658.00000 0.91151
6660.00000 0.91204
6662.00000 0.91156
6664.00000 0.91179
6666.00000 0.91266
6668.00000 0.9126
6670.00000 0.91199
6672.00000 0.91197
6674.00000 0.9116
6676.00000 0.91077
6678.00000 0.9107
6680.00000 0.91027
6682.00000 0.90918
6684.00000 0.90854
6686.00000 0.90777
6688.00000 0.90633
6690.00000 0.90528
6692.00000 0.90403
6694.00000 0.90249
6696.00000 0.90121
6698.00000 0.89985
6700.00000 0.89787
6702.00000 0.89649
6704.00000 0.89438
6706.00000 0.89305
6708.00000 0.89138
6710.00000 0.88908
6712.00000 0.88771
6714.00000 0.88572
6716.00000 0.88416
6718.00000 0.88249
6720.00000 0.88069
6722.00000 0.87913
6724.00000 0.87736
6726.00000 0.87542
6728.00000 0.87353
6730.00000 0.87245
6732.00000 0.87066
6734.00000 0.86916
6736.00000 0.86787
6738.00000 0.866
6740.00000 0.86475
6742.00000 0.86349
6744.00000 0.86225
6746.00000 0.86101
6748.00000 0.85963
6750.00000 0.85862
6752.00000 0.85691
6754.00000 0.85621
6756.00000 0.85597
6758.00000 0.85504
6760.00000 0.85407
6762.00000 0.85352
6764.00000 0.85336
6766.00000 0.85285
6768.00000 0.85294
6770.00000 0.85311
6772.00000 0.85382
6774.00000 0.85396
6776.00000 0.85471
6778.00000 0.85551
6780.00000 0.85639
6782.00000 0.85707
6784.00000 0.85851
6786.00000 0.86033
6788.00000 0.86237
6790.00000 0.86399
6792.00000 0.86614
6794.00000 0.86837
6796.00000 0.87044
6798.00000 0.87265
6800.00000 0.87521
6802.00000 0.87771
6804.00000 0.88057
6806.00000 0.88343
6808.00000 0.88658
6810.00000 0.88968
6812.00000 0.8931
6814.00000 0.89592
6816.00000 0.89959
6818.00000 0.90285
6820.00000 0.90644
6822.00000 0.9098
6824.00000 0.91339
6826.00000 0.9166
6828.00000 0.92016
6830.00000 0.92397
6832.00000 0.92705
6834.00000 0.9303
6836.00000 0.93329
6838.00000 0.93628
6840.00000 0.93932
6842.00000 0.94179
6844.00000 0.9438
6846.00000 0.94529
6848.00000 0.94699
6850.00000 0.94864
6852.00000 0.95008
6854.00000 0.94996
6856.00000 0.95058
6858.00000 0.95044
6860.00000 0.95009
6862.00000 0.94931
6864.00000 0.94747
6866.00000 0.94661
6868.00000 0.94465
6870.00000 0.94198
6872.00000 0.93975
6874.00000 0.93681
6876.00000 0.93388
6878.00000 0.93055
6880.00000 0.92694
6882.00000 0.92363
6884.00000 0.92002
6886.00000 0.91593
6888.00000 0.91257
6890.00000 0.90946
6892.00000 0.90635
6894.00000 0.90354
6896.00000 0.9001
6898.00000 0.8985
6900.00000 0.89632
6902.00000 0.89517
6904.00000 0.89507
6906.00000 0.89478
6908.00000 0.89544
6910.00000 0.89668
6912.00000 0.8983
6914.00000 0.90031
6916.00000 0.90351
6918.00000 0.90639
6920.00000 0.90994
6922.00000 0.91285
6924.00000 0.91566
6926.00000 0.91764
6928.00000 0.91826
6930.00000 0.91651
6932.00000 0.91355
6934.00000 0.9061
6936.00000 0.89488
6938.00000 0.87985
6940.00000 0.85951
6942.00000 0.83381
6944.00000 0.80205
6946.00000 0.76451
6948.00000 0.72115
6950.00000 0.67415
6952.00000 0.62469
6954.00000 0.57147
6956.00000 0.52027
6958.00000 0.46863
6960.00000 0.41785
6962.00000 0.36882
6964.00000 0.32586
6966.00000 0.28604
6968.00000 0.25006
6970.00000 0.21761
6972.00000 0.18874
6974.00000 0.16338
6976.00000 0.1417
6978.00000 0.12314
6980.00000 0.10667
6982.00000 0.09278
6984.00000 0.0806
6986.00000 0.07012
6988.00000 0.061
6990.00000 0.05346
6992.00000 0.04672
6994.00000 0.04109
6996.00000 0.03614
6998.00000 0.03168
7000.00000 0.0278
7002.00000 0.02453
7004.00000 0.02175
7006.00000 0.01918
7008.00000 0.01704
7010.00000 0.01506
7012.00000 0.01338
7014.00000 0.01187
7016.00000 0.01058
7018.00000 0.00945
7020.00000 0.00845
7022.00000 0.00759
7024.00000 0.00681
7026.00000 0.00608
7028.00000 0.00547
7030.00000 0.00492
7032.00000 0.00445
7034.00000 0.00402
7036.00000 0.00362
7038.00000 0.00326
7040.00000 0.00295
7042.00000 0.0027
7044.00000 0.00244
7046.00000 0.00222
7048.00000 0.00202
7050.00000 0.00183
7052.00000 0.00167
7054.00000 0.00152
7056.00000 0.0014
7058.00000 0.00128
7060.00000 0.00116
7062.00000 0.00107
7064.00000 0.00099
7066.00000 0.0009
7068.00000 0.00082
7070.00000 0.00077
7072.00000 0.0007
7074.00000 0.00064
7076.00000 0.0006
7078.00000 0.00054
7080.00000 0.0005
7082.00000 0.00046
7084.00000 0.00043
7086.00000 0.00039
7088.00000 0.00037
7090.00000 0.00033
7092.00000 0.00031
7094.00000 0.00029
7096.00000 0.00027
7098.00000 0.00025
7100.00000 0.00023
7102.00000 0.00022
7104.00000 0.0002
7106.00000 0.00018
7108.00000 0.00017
7110.00000 0.00016
7112.00000 0.00015
7114.00000 0.00014
7116.00000 0.00013
7118.00000 0.00012
7120.00000 0.00012
7122.00000 0.00011
7124.00000 0.0001
7126.00000 9e-05
7128.00000 9e-05
7130.00000 8e-05
7132.00000 7e-05
7134.00000 7e-05
7136.00000 7e-05
7138.00000 6e-05
7140.00000 6e-05
7142.00000 5e-05
7144.00000 5e-05
7146.00000 5e-05
7148.00000 5e-05
7150.00000 4e-05
7152.00000 4e-05
7867.20020 0.0
