# %ECSV 0.9
# ---
# datatype:
# - {name: wavelength, unit: Angstrom, datatype: float32}
# - {name: response, datatype: float32}
# meta: !!omap
# - {band_name: v}
# - {group_name: Gunn}
wavelength response
3213.00000 0.0
3570.00000 4e-05
3572.00000 4e-05
3574.00000 4e-05
3576.00000 4e-05
3578.00000 5e-05
3580.00000 5e-05
3582.00000 5e-05
3584.00000 6e-05
3586.00000 6e-05
3588.00000 6e-05
3590.00000 6e-05
3592.00000 7e-05
3594.00000 8e-05
3596.00000 8e-05
3598.00000 8e-05
3600.00000 9e-05
3602.00000 9e-05
3604.00000 0.0001
3606.00000 0.00011
3608.00000 0.00011
3610.00000 0.00012
3612.00000 0.00013
3614.00000 0.00014
3616.00000 0.00015
3618.00000 0.00016
3620.00000 0.00017
3622.00000 0.00019
3624.00000 0.0002
3626.00000 0.00021
3628.00000 0.00023
3630.00000 0.00025
3632.00000 0.00026
3634.00000 0.00028
3636.00000 0.0003
3638.00000 0.00033
3640.00000 0.00035
3642.00000 0.00037
3644.00000 0.00041
3646.00000 0.00044
3648.00000 0.00048
3650.00000 0.00051
3652.00000 0.00055
3654.00000 0.00061
3656.00000 0.00065
3658.00000 0.00071
3660.00000 0.00076
3662.00000 0.00084
3664.00000 0.00089
3666.00000 0.00097
3668.00000 0.00105
3670.00000 0.00115
3672.00000 0.00126
3674.00000 0.00136
3676.00000 0.00148
3678.00000 0.00163
3680.00000 0.00175
3682.00000 0.00194
3684.00000 0.00211
3686.00000 0.0023
3688.00000 0.00252
3690.00000 0.0028
3692.00000 0.00303
3694.00000 0.00332
3696.00000 0.00368
3698.00000 0.00403
3700.00000 0.00442
3702.00000 0.00484
3704.00000 0.00536
3706.00000 0.00595
3708.00000 0.00651
3710.00000 0.00723
3712.00000 0.00797
3714.00000 0.00882
3716.00000 0.00978
3718.00000 0.01087
3720.00000 0.01206
3722.00000 0.0134
3724.00000 0.01477
3726.00000 0.01646
3728.00000 0.0182
3730.00000 0.02031
3732.00000 0.02258
3734.00000 0.025
3736.00000 0.02783
3738.00000 0.03087
3740.00000 0.03428
3742.00000 0.03805
3744.00000 0.04219
3746.00000 0.04669
3748.00000 0.05151
3750.00000 0.05686
3752.00000 0.06264
3754.00000 0.06865
3756.00000 0.07548
3758.00000 0.08268
3760.00000 0.09024
3762.00000 0.09818
3764.00000 0.10663
3766.00000 0.11537
3768.00000 0.12431
3770.00000 0.13364
3772.00000 0.14274
3774.00000 0.15207
3776.00000 0.16132
3778.00000 0.1707
3780.00000 0.1797
3782.00000 0.18865
3784.00000 0.19713
3786.00000 0.20562
3788.00000 0.21392
3790.00000 0.22176
3792.00000 0.22947
3794.00000 0.23683
3796.00000 0.24408
3798.00000 0.25092
3800.00000 0.25752
3802.00000 0.26376
3804.00000 0.27023
3806.00000 0.27589
3808.00000 0.28214
3810.00000 0.28839
3812.00000 0.29389
3814.00000 0.29979
3816.00000 0.30548
3818.00000 0.31126
3820.00000 0.3169
3822.00000 0.32236
3824.00000 0.32845
3826.00000 0.33401
3828.00000 0.33988
3830.00000 0.34558
3832.00000 0.35117
3834.00000 0.35685
3836.00000 0.3631
3838.00000 0.36892
3840.00000 0.37499
3842.00000 0.38029
3844.00000 0.38659
3846.00000 0.39234
3848.00000 0.3981
3850.00000 0.40404
3852.00000 0.40977
3854.00000 0.41546
3856.00000 0.42153
3858.00000 0.42681
3860.00000 0.43263
3862.00000 0.43839
3864.00000 0.44411
3866.00000 0.44968
3868.00000 0.45487
3870.00000 0.46018
3872.00000 0.46538
3874.00000 0.47024
3876.00000 0.4754
3878.00000 0.4805
3880.00000 0.4843
3882.00000 0.4895
3884.00000 0.49379
3886.00000 0.49869
3888.00000 0.50343
3890.00000 0.50717
3892.00000 0.51159
3894.00000 0.51571
3896.00000 0.51971
3898.00000 0.52342
3900.00000 0.5277
3902.00000 0.53118
3904.00000 0.53483
3906.00000 0.53823
3908.00000 0.54172
3910.00000 0.54537
3912.00000 0.54855
3914.00000 0.55184
3916.00000 0.55535
3918.00000 0.55857
3920.00000 0.56155
3922.00000 0.56442
3924.00000 0.56728
3926.00000 0.56985
3928.00000 0.57255
3930.00000 0.57548
3932.00000 0.57828
3934.00000 0.58107
3936.00000 0.58327
3938.00000 0.58608
3940.00000 0.58842
3942.00000 0.59054
3944.00000 0.59329
3946.00000 0.59498
3948.00000 0.59759
3950.00000 0.59912
3952.00000 0.60089
3954.00000 0.60307
3956.00000 0.60477
3958.00000 0.60689
3960.00000 0.6089
3962.00000 0.61017
3964.00000 0.61177
3966.00000 0.61347
3968.00000 0.61468
3970.00000 0.6161
3972.00000 0.61742
3974.00000 0.61888
3976.00000 0.62016
3978.00000 0.62124
3980.00000 0.62212
3982.00000 0.62351
3984.00000 0.62466
3986.00000 0.6255
3988.00000 0.62649
3990.00000 0.62699
3992.00000 0.62812
3994.00000 0.62929
3996.00000 0.62988
3998.00000 0.63017
4000.00000 0.63114
4002.00000 0.63127
4004.00000 0.63198
4006.00000 0.63257
4008.00000 0.63259
4010.00000 0.63354
4012.00000 0.63374
4014.00000 0.63404
4016.00000 0.63446
4018.00000 0.63452
4020.00000 0.63514
4022.00000 0.63525
4024.00000 0.63511
4026.00000 0.63557
4028.00000 0.63534
4030.00000 0.63559
4032.00000 0.63562
4034.00000 0.63563
4036.00000 0.63505
4038.00000 0.63522
4040.00000 0.63513
4042.00000 0.63504
4044.00000 0.63486
4046.00000 0.63435
4048.00000 0.63432
4050.00000 0.63399
4052.00000 0.63412
4054.00000 0.63357
4056.00000 0.63303
4058.00000 0.63316
4060.00000 0.63287
4062.00000 0.63198
4064.00000 0.63148
4066.00000 0.63138
4068.00000 0.63032
4070.00000 0.63046
4072.00000 0.62927
4074.00000 0.62897
4076.00000 0.62853
4078.00000 0.62801
4080.00000 0.62702
4082.00000 0.62644
4084.00000 0.62568
4086.00000 0.62505
4088.00000 0.62431
4090.00000 0.62364
4092.00000 0.62342
4094.00000 0.62283
4096.00000 0.62201
4098.00000 0.62125
4100.00000 0.62071
4102.00000 0.61983
4104.00000 0.61955
4106.00000 0.61903
4108.00000 0.61826
4110.00000 0.61736
4112.00000 0.61742
4114.00000 0.61706
4116.00000 0.61655
4118.00000 0.61623
4120.00000 0.61613
4122.00000 0.6161
4124.00000 0.61569
4126.00000 0.61545
4128.00000 0.61525
4130.00000 0.61529
4132.00000 0.61488
4134.00000 0.61467
4136.00000 0.61441
4138.00000 0.61446
4140.00000 0.61418
4142.00000 0.61365
4144.00000 0.61335
4146.00000 0.61303
4148.00000 0.61219
4150.00000 0.6106
4152.00000 0.60884
4154.00000 0.60768
4156.00000 0.60571
4158.00000 0.60288
4160.00000 0.59971
4162.00000 0.59635
4164.00000 0.5924
4166.00000 0.58715
4168.00000 0.58198
4170.00000 0.57582
4172.00000 0.56874
4174.00000 0.56106
4176.00000 0.55277
4178.00000 0.54292
4180.00000 0.53248
4182.00000 0.52099
4184.00000 0.50899
4186.00000 0.49634
4188.00000 0.48293
4190.00000 0.46862
4192.00000 0.45376
4194.00000 0.43781
4196.00000 0.42203
4198.00000 0.40551
4200.00000 0.38935
4202.00000 0.3724
4204.00000 0.35592
4206.00000 0.33843
4208.00000 0.32189
4210.00000 0.30567
4212.00000 0.28919
4214.00000 0.27421
4216.00000 0.25883
4218.00000 0.24417
4220.00000 0.22991
4222.00000 0.21671
4224.00000 0.20367
4226.00000 0.19162
4228.00000 0.17984
4230.00000 0.16865
4232.00000 0.15782
4234.00000 0.14772
4236.00000 0.13859
4238.00000 0.12967
4240.00000 0.1218
4242.00000 0.11413
4244.00000 0.10687
4246.00000 0.10007
4248.00000 0.09389
4250.00000 0.088
4252.00000 0.08249
4254.00000 0.07734
4256.00000 0.07262
4258.00000 0.06811
4260.00000 0.06395
4262.00000 0.06006
4264.00000 0.05634
4266.00000 0.05298
4268.00000 0.04983
4270.00000 0.04678
4272.00000 0.04393
4274.00000 0.04143
4276.00000 0.0391
4278.00000 0.03681
4280.00000 0.03476
4282.00000 0.03276
4284.00000 0.03089
4286.00000 0.02918
4288.00000 0.02759
4290.00000 0.02602
4292.00000 0.02463
4294.00000 0.02329
4296.00000 0.0221
4298.00000 0.02094
4300.00000 0.01984
4302.00000 0.01881
4304.00000 0.01785
4306.00000 0.01694
4308.00000 0.0161
4310.00000 0.01525
4312.00000 0.01445
4314.00000 0.01378
4316.00000 0.0131
4318.00000 0.01244
4320.00000 0.01183
4322.00000 0.01124
4324.00000 0.01069
4326.00000 0.0102
4328.00000 0.00971
4330.00000 0.00928
4332.00000 0.00883
4334.00000 0.00844
4336.00000 0.00807
4338.00000 0.00769
4340.00000 0.00735
4342.00000 0.00701
4344.00000 0.00672
4346.00000 0.00645
4348.00000 0.00618
4350.00000 0.00589
4352.00000 0.00564
4354.00000 0.00542
4356.00000 0.00519
4358.00000 0.00499
4360.00000 0.00478
4362.00000 0.00457
4364.00000 0.00441
4366.00000 0.00422
4368.00000 0.00406
4370.00000 0.0039
4372.00000 0.00376
4374.00000 0.00361
4376.00000 0.00346
4378.00000 0.00334
4380.00000 0.00321
4382.00000 0.0031
4384.00000 0.00298
4386.00000 0.00287
4388.00000 0.00278
4390.00000 0.00267
4392.00000 0.00257
4394.00000 0.00249
4396.00000 0.0024
4398.00000 0.00232
4400.00000 0.00225
4402.00000 0.00215
4404.00000 0.00209
4406.00000 0.00202
4408.00000 0.00195
4410.00000 0.00189
4412.00000 0.00183
4414.00000 0.00177
4416.00000 0.0017
4418.00000 0.00166
4420.00000 0.0016
4422.00000 0.00154
4424.00000 0.0015
4426.00000 0.00144
4428.00000 0.0014
4430.00000 0.00137
4432.00000 0.00131
4434.00000 0.00127
4436.00000 0.00124
4438.00000 0.0012
4440.00000 0.00116
4442.00000 0.00113
4444.00000 0.00109
4446.00000 0.00106
4448.00000 0.00103
4450.00000 0.001
4452.00000 0.00097
4454.00000 0.00094
4456.00000 0.00092
4458.00000 0.00089
4460.00000 0.00086
4462.00000 0.00084
4464.00000 0.00081
4466.00000 0.00079
4468.00000 0.00077
4470.00000 0.00074
4472.00000 0.00073
4474.00000 0.00071
4476.00000 0.00068
4478.00000 0.00066
4480.00000 0.00065
4482.00000 0.00063
4484.00000 0.00062
4486.00000 0.0006
4488.00000 0.00058
4490.00000 0.00056
4492.00000 0.00055
4494.00000 0.00053
4496.00000 0.00052
4498.00000 0.0005
4500.00000 0.00049
4950.00000 0.0
