# %ECSV 0.9
# ---
# datatype:
# - {name: wavelength, unit: Angstrom, datatype: float32}
# - {name: response, datatype: float32}
# meta: !!omap
# - {band_name: V}
# - {group_name: Johnson}
wavelength response
4312.79980 0.0
4792.00000 4e-05
4794.00000 5e-05
4796.00000 6e-05
4798.00000 8e-05
4800.00000 0.0001
4802.00000 0.00013
4804.00000 0.00017
4806.00000 0.00021
4808.00000 0.00026
4810.00000 0.00033
4812.00000 0.00041
4814.00000 0.00051
4816.00000 0.00063
4818.00000 0.00078
4820.00000 0.00095
4822.00000 0.00116
4824.00000 0.00142
4826.00000 0.00171
4828.00000 0.00207
4830.00000 0.00249
4832.00000 0.00296
4834.00000 0.00349
4836.00000 0.00414
4838.00000 0.00487
4840.00000 0.00569
4842.00000 0.00668
4844.00000 0.00777
4846.00000 0.00896
4848.00000 0.01036
4850.00000 0.01186
4852.00000 0.01357
4854.00000 0.01547
4856.00000 0.01766
4858.00000 0.01988
4860.00000 0.02241
4862.00000 0.02511
4864.00000 0.02806
4866.00000 0.03123
4868.00000 0.03476
4870.00000 0.03854
4872.00000 0.0424
4874.00000 0.04669
4876.00000 0.05111
4878.00000 0.05583
4880.00000 0.06098
4882.00000 0.06643
4884.00000 0.07183
4886.00000 0.07768
4888.00000 0.08365
4890.00000 0.08981
4892.00000 0.09641
4894.00000 0.10332
4896.00000 0.11019
4898.00000 0.11738
4900.00000 0.1248
4902.00000 0.1322
4904.00000 0.13983
4906.00000 0.14795
4908.00000 0.15615
4910.00000 0.16423
4912.00000 0.17235
4914.00000 0.18065
4916.00000 0.1891
4918.00000 0.19762
4920.00000 0.20643
4922.00000 0.21499
4924.00000 0.22371
4926.00000 0.23264
4928.00000 0.24123
4930.00000 0.25006
4932.00000 0.2588
4934.00000 0.2679
4936.00000 0.27641
4938.00000 0.28518
4940.00000 0.29372
4942.00000 0.30206
4944.00000 0.31064
4946.00000 0.31899
4948.00000 0.32762
4950.00000 0.33569
4952.00000 0.34387
4954.00000 0.35159
4956.00000 0.35974
4958.00000 0.36752
4960.00000 0.37524
4962.00000 0.38255
4964.00000 0.39005
4966.00000 0.39714
4968.00000 0.40441
4970.00000 0.41101
4972.00000 0.41809
4974.00000 0.42495
4976.00000 0.43145
4978.00000 0.43788
4980.00000 0.44394
4982.00000 0.45006
4984.00000 0.45586
4986.00000 0.46203
4988.00000 0.46759
4990.00000 0.47322
4992.00000 0.47838
4994.00000 0.48379
4996.00000 0.48892
4998.00000 0.49398
5000.00000 0.49887
5002.00000 0.50373
5004.00000 0.50874
5006.00000 0.51268
5008.00000 0.51736
5010.00000 0.52163
5012.00000 0.52615
5014.00000 0.53012
5016.00000 0.53422
5018.00000 0.53813
5020.00000 0.54164
5022.00000 0.54523
5024.00000 0.54894
5026.00000 0.55259
5028.00000 0.55567
5030.00000 0.55904
5032.00000 0.56236
5034.00000 0.56538
5036.00000 0.56847
5038.00000 0.57176
5040.00000 0.57484
5042.00000 0.57704
5044.00000 0.57997
5046.00000 0.58255
5048.00000 0.5848
5050.00000 0.58748
5052.00000 0.58988
5054.00000 0.59204
5056.00000 0.5943
5058.00000 0.59672
5060.00000 0.59881
5062.00000 0.60055
5064.00000 0.60279
5066.00000 0.60508
5068.00000 0.60671
5070.00000 0.60837
5072.00000 0.61035
5074.00000 0.61183
5076.00000 0.6138
5078.00000 0.61524
5080.00000 0.61677
5082.00000 0.61823
5084.00000 0.61965
5086.00000 0.62105
5088.00000 0.62238
5090.00000 0.6238
5092.00000 0.62532
5094.00000 0.62661
5096.00000 0.62752
5098.00000 0.62867
5100.00000 0.6299
5102.00000 0.63085
5104.00000 0.63192
5106.00000 0.63316
5108.00000 0.63387
5110.00000 0.63497
5112.00000 0.63603
5114.00000 0.63669
5116.00000 0.63785
5118.00000 0.63826
5120.00000 0.63928
5122.00000 0.64006
5124.00000 0.64047
5126.00000 0.64151
5128.00000 0.64229
5130.00000 0.64276
5132.00000 0.64369
5134.00000 0.64413
5136.00000 0.64466
5138.00000 0.6456
5140.00000 0.64618
5142.00000 0.64671
5144.00000 0.64729
5146.00000 0.64768
5148.00000 0.64831
5150.00000 0.64853
5152.00000 0.64946
5154.00000 0.64965
5156.00000 0.64992
5158.00000 0.65063
5160.00000 0.65109
5162.00000 0.65147
5164.00000 0.65205
5166.00000 0.65241
5168.00000 0.65279
5170.00000 0.65313
5172.00000 0.65337
5174.00000 0.65405
5176.00000 0.65381
5178.00000 0.65413
5180.00000 0.65496
5182.00000 0.65515
5184.00000 0.65512
5186.00000 0.65551
5188.00000 0.65599
5190.00000 0.6562
5192.00000 0.65658
5194.00000 0.65627
5196.00000 0.6566
5198.00000 0.65692
5200.00000 0.657
5202.00000 0.65722
5204.00000 0.65742
5206.00000 0.65757
5208.00000 0.65769
5210.00000 0.6579
5212.00000 0.65779
5214.00000 0.65799
5216.00000 0.65816
5218.00000 0.65799
5220.00000 0.65827
5222.00000 0.65836
5224.00000 0.65841
5226.00000 0.65859
5228.00000 0.65856
5230.00000 0.65853
5232.00000 0.65855
5234.00000 0.65827
5236.00000 0.65846
5238.00000 0.65882
5240.00000 0.65872
5242.00000 0.65856
5244.00000 0.65852
5246.00000 0.65843
5248.00000 0.65868
5250.00000 0.65868
5252.00000 0.65842
5254.00000 0.65852
5256.00000 0.65838
5258.00000 0.65816
5260.00000 0.65826
5262.00000 0.65839
5264.00000 0.65802
5266.00000 0.65808
5268.00000 0.6581
5270.00000 0.6579
5272.00000 0.65829
5274.00000 0.65776
5276.00000 0.65774
5278.00000 0.65764
5280.00000 0.65752
5282.00000 0.65733
5284.00000 0.65727
5286.00000 0.65696
5288.00000 0.65687
5290.00000 0.65669
5292.00000 0.65678
5294.00000 0.65618
5296.00000 0.65614
5298.00000 0.6561
5300.00000 0.6559
5302.00000 0.65571
5304.00000 0.65539
5306.00000 0.65521
5308.00000 0.65522
5310.00000 0.65475
5312.00000 0.65454
5314.00000 0.65411
5316.00000 0.65415
5318.00000 0.65375
5320.00000 0.65356
5322.00000 0.65327
5324.00000 0.65312
5326.00000 0.65302
5328.00000 0.65236
5330.00000 0.65236
5332.00000 0.65185
5334.00000 0.65113
5336.00000 0.65119
5338.00000 0.65072
5340.00000 0.65032
5342.00000 0.65055
5344.00000 0.64991
5346.00000 0.64979
5348.00000 0.64951
5350.00000 0.64889
5352.00000 0.64839
5354.00000 0.64825
5356.00000 0.64803
5358.00000 0.64746
5360.00000 0.64703
5362.00000 0.64693
5364.00000 0.6464
5366.00000 0.64595
5368.00000 0.64554
5370.00000 0.64514
5372.00000 0.64486
5374.00000 0.64456
5376.00000 0.64437
5378.00000 0.6438
5380.00000 0.64304
5382.00000 0.64315
5384.00000 0.64255
5386.00000 0.64199
5388.00000 0.64188
5390.00000 0.6412
5392.00000 0.64086
5394.00000 0.64043
5396.00000 0.64016
5398.00000 0.63911
5400.00000 0.63912
5402.00000 0.63858
5404.00000 0.6383
5406.00000 0.6378
5408.00000 0.63686
5410.00000 0.63667
5412.00000 0.63616
5414.00000 0.63597
5416.00000 0.63536
5418.00000 0.63476
5420.00000 0.63396
5422.00000 0.6339
5424.00000 0.63327
5426.00000 0.63307
5428.00000 0.63226
5430.00000 0.63151
5432.00000 0.63125
5434.00000 0.63062
5436.00000 0.62993
5438.00000 0.62931
5440.00000 0.62876
5442.00000 0.62859
5444.00000 0.62767
5446.00000 0.62702
5448.00000 0.62667
5450.00000 0.62544
5452.00000 0.62522
5454.00000 0.62481
5456.00000 0.62378
5458.00000 0.62326
5460.00000 0.62244
5462.00000 0.62174
5464.00000 0.62138
5466.00000 0.62079
5468.00000 0.61956
5470.00000 0.61903
5472.00000 0.61841
5474.00000 0.61739
5476.00000 0.61673
5478.00000 0.61593
5480.00000 0.6152
5482.00000 0.61476
5484.00000 0.61357
5486.00000 0.6131
5488.00000 0.61218
5490.00000 0.6111
5492.00000 0.61039
5494.00000 0.60937
5496.00000 0.60854
5498.00000 0.60745
5500.00000 0.60687
5502.00000 0.60612
5504.00000 0.60503
5506.00000 0.60369
5508.00000 0.60303
5510.00000 0.60197
5512.00000 0.60135
5514.00000 0.60036
5516.00000 0.59933
5518.00000 0.59838
5520.00000 0.59742
5522.00000 0.59659
5524.00000 0.5954
5526.00000 0.59442
5528.00000 0.59323
5530.00000 0.59194
5532.00000 0.59108
5534.00000 0.59018
5536.00000 0.58905
5538.00000 0.58781
5540.00000 0.58671
5542.00000 0.58569
5544.00000 0.58462
5546.00000 0.58359
5548.00000 0.58236
5550.00000 0.58131
5552.00000 0.58012
5554.00000 0.57905
5556.00000 0.57772
5558.00000 0.57683
5560.00000 0.57547
5562.00000 0.57461
5564.00000 0.57315
5566.00000 0.57195
5568.00000 0.57081
5570.00000 0.56944
5572.00000 0.56861
5574.00000 0.56705
5576.00000 0.56571
5578.00000 0.56442
5580.00000 0.56316
5582.00000 0.56197
5584.00000 0.56072
5586.00000 0.55959
5588.00000 0.55801
5590.00000 0.55677
5592.00000 0.55541
5594.00000 0.55392
5596.00000 0.55293
5598.00000 0.5513
5600.00000 0.55011
5602.00000 0.54857
5604.00000 0.54736
5606.00000 0.54577
5608.00000 0.5446
5610.00000 0.5431
5612.00000 0.54163
5614.00000 0.54043
5616.00000 0.53872
5618.00000 0.53729
5620.00000 0.53599
5622.00000 0.53444
5624.00000 0.53303
5626.00000 0.53155
5628.00000 0.53015
5630.00000 0.52865
5632.00000 0.52712
5634.00000 0.52583
5636.00000 0.5243
5638.00000 0.52289
5640.00000 0.52101
5642.00000 0.51968
5644.00000 0.51803
5646.00000 0.51643
5648.00000 0.51507
5650.00000 0.5136
5652.00000 0.51212
5654.00000 0.51055
5656.00000 0.50908
5658.00000 0.50747
5660.00000 0.50579
5662.00000 0.50419
5664.00000 0.50257
5666.00000 0.50102
5668.00000 0.49956
5670.00000 0.49803
5672.00000 0.49652
5674.00000 0.49452
5676.00000 0.49297
5678.00000 0.49164
5680.00000 0.48978
5682.00000 0.48841
5684.00000 0.4863
5686.00000 0.48476
5688.00000 0.4833
5690.00000 0.48167
5692.00000 0.48005
5694.00000 0.47824
5696.00000 0.4764
5698.00000 0.47485
5700.00000 0.47329
5702.00000 0.47157
5704.00000 0.46998
5706.00000 0.46797
5708.00000 0.46663
5710.00000 0.46452
5712.00000 0.46318
5714.00000 0.46135
5716.00000 0.45952
5718.00000 0.45762
5720.00000 0.45622
5722.00000 0.45421
5724.00000 0.45281
5726.00000 0.4507
5728.00000 0.44922
5730.00000 0.44719
5732.00000 0.44547
5734.00000 0.44375
5736.00000 0.44178
5738.00000 0.44029
5740.00000 0.43843
5742.00000 0.43657
5744.00000 0.43496
5746.00000 0.43284
5748.00000 0.43141
5750.00000 0.42961
5752.00000 0.42775
5754.00000 0.42601
5756.00000 0.42407
5758.00000 0.42218
5760.00000 0.4205
5762.00000 0.4188
5764.00000 0.41704
5766.00000 0.41517
5768.00000 0.41335
5770.00000 0.41124
5772.00000 0.40971
5774.00000 0.40771
5776.00000 0.40618
5778.00000 0.40426
5780.00000 0.40254
5782.00000 0.40086
5784.00000 0.3988
5786.00000 0.39701
5788.00000 0.39548
5790.00000 0.39353
5792.00000 0.39175
5794.00000 0.38985
5796.00000 0.38781
5798.00000 0.38626
5800.00000 0.3843
5802.00000 0.38235
5804.00000 0.38074
5806.00000 0.37865
5808.00000 0.37691
5810.00000 0.37504
5812.00000 0.37315
5814.00000 0.37133
5816.00000 0.36945
5818.00000 0.36756
5820.00000 0.36566
5822.00000 0.36378
5824.00000 0.36195
5826.00000 0.35991
5828.00000 0.35811
5830.00000 0.35633
5832.00000 0.35477
5834.00000 0.35253
5836.00000 0.35066
5838.00000 0.34883
5840.00000 0.34696
5842.00000 0.34504
5844.00000 0.34331
5846.00000 0.34154
5848.00000 0.33964
5850.00000 0.33768
5852.00000 0.33581
5854.00000 0.33406
5856.00000 0.3322
5858.00000 0.33031
5860.00000 0.32848
5862.00000 0.32665
5864.00000 0.32481
5866.00000 0.323
5868.00000 0.32124
5870.00000 0.31929
5872.00000 0.31742
5874.00000 0.31557
5876.00000 0.31386
5878.00000 0.31206
5880.00000 0.31014
5882.00000 0.30833
5884.00000 0.30649
5886.00000 0.30469
5888.00000 0.30271
5890.00000 0.30098
5892.00000 0.29932
5894.00000 0.29751
5896.00000 0.2956
5898.00000 0.29383
5900.00000 0.292
5902.00000 0.28995
5904.00000 0.28827
5906.00000 0.28658
5908.00000 0.28481
5910.00000 0.28302
5912.00000 0.28113
5914.00000 0.2792
5916.00000 0.27755
5918.00000 0.27591
5920.00000 0.27398
5922.00000 0.27219
5924.00000 0.27068
5926.00000 0.26877
5928.00000 0.2669
5930.00000 0.26521
5932.00000 0.26345
5934.00000 0.26179
5936.00000 0.26
5938.00000 0.25822
5940.00000 0.25641
5942.00000 0.2546
5944.00000 0.25304
5946.00000 0.25122
5948.00000 0.24953
5950.00000 0.24782
5952.00000 0.24592
5954.00000 0.24432
5956.00000 0.24255
5958.00000 0.24097
5960.00000 0.23929
5962.00000 0.23752
5964.00000 0.23586
5966.00000 0.23419
5968.00000 0.2325
5970.00000 0.23093
5972.00000 0.22927
5974.00000 0.22758
5976.00000 0.22597
5978.00000 0.22432
5980.00000 0.22266
5982.00000 0.2211
5984.00000 0.21945
5986.00000 0.21799
5988.00000 0.21627
5990.00000 0.21461
5992.00000 0.21306
5994.00000 0.21141
5996.00000 0.20986
5998.00000 0.2082
6000.00000 0.2067
6002.00000 0.20516
6004.00000 0.2035
6006.00000 0.20201
6008.00000 0.20045
6010.00000 0.19899
6012.00000 0.19744
6014.00000 0.19595
6016.00000 0.1944
6018.00000 0.19268
6020.00000 0.19123
6022.00000 0.18967
6024.00000 0.18818
6026.00000 0.18664
6028.00000 0.18522
6030.00000 0.18366
6032.00000 0.18221
6034.00000 0.18063
6036.00000 0.17925
6038.00000 0.17771
6040.00000 0.17634
6042.00000 0.17478
6044.00000 0.17337
6046.00000 0.17194
6048.00000 0.17034
6050.00000 0.16902
6052.00000 0.16755
6054.00000 0.16611
6056.00000 0.16471
6058.00000 0.16329
6060.00000 0.16195
6062.00000 0.16059
6064.00000 0.15918
6066.00000 0.15782
6068.00000 0.15647
6070.00000 0.15507
6072.00000 0.15375
6074.00000 0.15241
6076.00000 0.15105
6078.00000 0.14972
6080.00000 0.14839
6082.00000 0.14707
6084.00000 0.14576
6086.00000 0.14444
6088.00000 0.1432
6090.00000 0.14198
6092.00000 0.14074
6094.00000 0.13944
6096.00000 0.13819
6098.00000 0.13694
6100.00000 0.13567
6102.00000 0.13445
6104.00000 0.13322
6106.00000 0.13195
6108.00000 0.13074
6110.00000 0.12959
6112.00000 0.12828
6114.00000 0.12717
6116.00000 0.12589
6118.00000 0.12475
6120.00000 0.1236
6122.00000 0.12236
6124.00000 0.12121
6126.00000 0.12004
6128.00000 0.11888
6130.00000 0.11777
6132.00000 0.11665
6134.00000 0.11549
6136.00000 0.1144
6138.00000 0.11327
6140.00000 0.11221
6142.00000 0.11106
6144.00000 0.11001
6146.00000 0.1089
6148.00000 0.10777
6150.00000 0.10674
6152.00000 0.10561
6154.00000 0.10456
6156.00000 0.1035
6158.00000 0.10248
6160.00000 0.10139
6162.00000 0.10037
6164.00000 0.09934
6166.00000 0.09842
6168.00000 0.09736
6170.00000 0.09638
6172.00000 0.09537
6174.00000 0.09438
6176.00000 0.09335
6178.00000 0.09244
6180.00000 0.09139
6182.00000 0.09047
6184.00000 0.08957
6186.00000 0.08866
6188.00000 0.08768
6190.00000 0.08677
6192.00000 0.0859
6194.00000 0.08498
6196.00000 0.08414
6198.00000 0.08319
6200.00000 0.08228
6202.00000 0.08135
6204.00000 0.08053
6206.00000 0.07972
6208.00000 0.07877
6210.00000 0.07801
6212.00000 0.07714
6214.00000 0.07624
6216.00000 0.07549
6218.00000 0.07469
6220.00000 0.07386
6222.00000 0.07301
6224.00000 0.0722
6226.00000 0.07147
6228.00000 0.07062
6230.00000 0.06983
6232.00000 0.06908
6234.00000 0.06831
6236.00000 0.06754
6238.00000 0.06677
6240.00000 0.06599
6242.00000 0.06526
6244.00000 0.0645
6246.00000 0.06376
6248.00000 0.06312
6250.00000 0.06235
6252.00000 0.06157
6254.00000 0.06088
6256.00000 0.0602
6258.00000 0.05947
6260.00000 0.05877
6262.00000 0.05803
6264.00000 0.05739
6266.00000 0.05669
6268.00000 0.05604
6270.00000 0.0554
6272.00000 0.0547
6274.00000 0.05411
6276.00000 0.05344
6278.00000 0.05284
6280.00000 0.05219
6282.00000 0.0516
6284.00000 0.05093
6286.00000 0.05034
6288.00000 0.04971
6290.00000 0.04909
6292.00000 0.0485
6294.00000 0.04794
6296.00000 0.04736
6298.00000 0.0468
6300.00000 0.0462
6302.00000 0.04566
6304.00000 0.04506
6306.00000 0.04454
6308.00000 0.04397
6310.00000 0.04345
6312.00000 0.04291
6314.00000 0.04235
6316.00000 0.04184
6318.00000 0.04134
6320.00000 0.04078
6322.00000 0.04031
6324.00000 0.03975
6326.00000 0.03931
6328.00000 0.03883
6330.00000 0.03831
6332.00000 0.03778
6334.00000 0.03735
6336.00000 0.03683
6338.00000 0.0364
6340.00000 0.03591
6342.00000 0.03543
6344.00000 0.03501
6346.00000 0.03454
6348.00000 0.03408
6350.00000 0.03362
6352.00000 0.03322
6354.00000 0.0328
6356.00000 0.03235
6358.00000 0.03191
6360.00000 0.03152
6362.00000 0.03108
6364.00000 0.03065
6366.00000 0.03029
6368.00000 0.02984
6370.00000 0.02945
6372.00000 0.02904
6374.00000 0.02867
6376.00000 0.02829
6378.00000 0.02791
6380.00000 0.0275
6382.00000 0.02713
6384.00000 0.02676
6386.00000 0.02643
6388.00000 0.02606
6390.00000 0.02573
6392.00000 0.02537
6394.00000 0.025
6396.00000 0.02466
6398.00000 0.02431
6400.00000 0.02401
6402.00000 0.02366
6404.00000 0.02335
6406.00000 0.023
6408.00000 0.02271
6410.00000 0.02238
6412.00000 0.02205
6414.00000 0.02179
6416.00000 0.0215
6418.00000 0.02116
6420.00000 0.02089
6422.00000 0.02058
6424.00000 0.02031
6426.00000 0.02
6428.00000 0.01973
6430.00000 0.01946
6432.00000 0.01918
6434.00000 0.0189
6436.00000 0.01863
6438.00000 0.01835
6440.00000 0.01812
6442.00000 0.01784
6444.00000 0.01757
6446.00000 0.01736
6448.00000 0.01708
6450.00000 0.01684
6452.00000 0.01661
6454.00000 0.01638
6456.00000 0.01611
6458.00000 0.01589
6460.00000 0.01565
6462.00000 0.01543
6464.00000 0.01519
6466.00000 0.01498
6468.00000 0.01474
6470.00000 0.01452
6472.00000 0.01428
6474.00000 0.01409
6476.00000 0.01389
6478.00000 0.01366
6480.00000 0.01347
6482.00000 0.01326
6484.00000 0.01307
6486.00000 0.01288
6488.00000 0.01266
6490.00000 0.01248
6492.00000 0.01228
6494.00000 0.0121
6496.00000 0.01192
6498.00000 0.01171
6500.00000 0.01156
6502.00000 0.01138
6504.00000 0.01122
6506.00000 0.01105
6508.00000 0.01086
6510.00000 0.01067
6512.00000 0.01054
6514.00000 0.01039
6516.00000 0.01019
6518.00000 0.01005
6520.00000 0.00989
6522.00000 0.00975
6524.00000 0.00957
6526.00000 0.00944
6528.00000 0.0093
6530.00000 0.00916
6532.00000 0.009
6534.00000 0.00886
6536.00000 0.00873
6538.00000 0.00858
6540.00000 0.00843
6542.00000 0.0083
6544.00000 0.00821
6546.00000 0.00806
6548.00000 0.00793
6550.00000 0.0078
6552.00000 0.00768
6554.00000 0.00756
6556.00000 0.00743
6558.00000 0.00731
6560.00000 0.0072
6562.00000 0.00707
6564.00000 0.00697
6566.00000 0.00685
6568.00000 0.00674
6570.00000 0.00663
6572.00000 0.00651
6574.00000 0.00641
6576.00000 0.00631
6578.00000 0.00622
6580.00000 0.00611
6582.00000 0.00599
6584.00000 0.0059
6586.00000 0.0058
6588.00000 0.00572
6590.00000 0.00561
6592.00000 0.00551
6594.00000 0.00543
6596.00000 0.00533
6598.00000 0.00525
6600.00000 0.00515
6602.00000 0.00506
6604.00000 0.00498
6606.00000 0.0049
6608.00000 0.00482
6610.00000 0.00474
6612.00000 0.00466
6614.00000 0.00458
6616.00000 0.0045
6618.00000 0.00442
6620.00000 0.00435
6622.00000 0.00428
6624.00000 0.00421
6626.00000 0.00413
6628.00000 0.00406
6630.00000 0.00399
6632.00000 0.00393
6634.00000 0.00386
6636.00000 0.0038
6638.00000 0.00374
6640.00000 0.00366
6642.00000 0.0036
6644.00000 0.00354
6646.00000 0.00348
6648.00000 0.00342
6650.00000 0.00335
6652.00000 0.0033
6654.00000 0.00324
6656.00000 0.00319
6658.00000 0.00314
6660.00000 0.00308
6662.00000 0.00302
6664.00000 0.00296
6666.00000 0.00292
6668.00000 0.00286
6670.00000 0.00281
6672.00000 0.00276
6674.00000 0.00272
6676.00000 0.00266
6678.00000 0.00262
6680.00000 0.00258
6682.00000 0.00253
6684.00000 0.00247
6686.00000 0.00244
6688.00000 0.0024
6690.00000 0.00235
6692.00000 0.0023
6694.00000 0.00226
6696.00000 0.00222
6698.00000 0.00218
6700.00000 0.00215
6702.00000 0.00209
6704.00000 0.00206
6706.00000 0.00203
6708.00000 0.00199
6710.00000 0.00195
6712.00000 0.00193
6714.00000 0.00189
6716.00000 0.00184
6718.00000 0.00181
6720.00000 0.00178
6722.00000 0.00175
6724.00000 0.00172
6726.00000 0.00169
6728.00000 0.00166
6730.00000 0.00163
6732.00000 0.00159
6734.00000 0.00157
6736.00000 0.00154
6738.00000 0.00151
6740.00000 0.00147
6742.00000 0.00145
6744.00000 0.00142
6746.00000 0.0014
6748.00000 0.00137
6750.00000 0.00136
6752.00000 0.00132
6754.00000 0.0013
6756.00000 0.00128
6758.00000 0.00125
6760.00000 0.00122
6762.00000 0.0012
6764.00000 0.00118
6766.00000 0.00115
6768.00000 0.00113
6770.00000 0.00111
6772.00000 0.00109
6774.00000 0.00107
6776.00000 0.00104
6778.00000 0.00103
6780.00000 0.00101
6782.00000 0.00099
6784.00000 0.00097
6786.00000 0.00095
6788.00000 0.00093
6790.00000 0.00091
6792.00000 0.0009
6794.00000 0.00088
6796.00000 0.00086
6798.00000 0.00084
6800.00000 0.00082
6802.00000 0.00081
6804.00000 0.00079
6806.00000 0.00078
6808.00000 0.00077
6810.00000 0.00075
6812.00000 0.00074
6814.00000 0.00072
6816.00000 0.00071
6818.00000 0.00069
6820.00000 0.00067
6822.00000 0.00067
6824.00000 0.00065
6826.00000 0.00064
6828.00000 0.00062
6830.00000 0.00061
6832.00000 0.0006
6834.00000 0.00059
6836.00000 0.00058
6838.00000 0.00057
6840.00000 0.00056
6842.00000 0.00055
6844.00000 0.00053
6846.00000 0.00052
6848.00000 0.00051
6850.00000 0.0005
6852.00000 0.00049
6854.00000 0.00048
6856.00000 0.00047
6858.00000 0.00047
6860.00000 0.00045
6862.00000 0.00044
6864.00000 0.00043
6866.00000 0.00043
6868.00000 0.00042
6870.00000 0.00041
6872.00000 0.0004
6874.00000 0.00039
6876.00000 0.00038
6878.00000 0.00037
6880.00000 0.00037
6882.00000 0.00036
6884.00000 0.00035
6886.00000 0.00035
6888.00000 0.00034
6890.00000 0.00033
6892.00000 0.00032
6894.00000 0.00032
6896.00000 0.00032
6898.00000 0.00031
6900.00000 0.0003
6902.00000 0.00029
6904.00000 0.00029
6906.00000 0.00028
6908.00000 0.00027
6910.00000 0.00027
6912.00000 0.00026
6914.00000 0.00026
6916.00000 0.00025
6918.00000 0.00025
6920.00000 0.00024
6922.00000 0.00024
6924.00000 0.00023
6926.00000 0.00023
6928.00000 0.00022
6930.00000 0.00022
6932.00000 0.00021
6934.00000 0.00021
6936.00000 0.0002
6938.00000 0.0002
6940.00000 0.00019
6942.00000 0.00019
6944.00000 0.00019
6946.00000 0.00018
6948.00000 0.00018
6950.00000 0.00017
6952.00000 0.00017
6954.00000 0.00017
6956.00000 0.00017
6958.00000 0.00016
6960.00000 0.00016
6962.00000 0.00015
6964.00000 0.00015
6966.00000 0.00015
6968.00000 0.00014
6970.00000 0.00014
6972.00000 0.00014
6974.00000 0.00014
6976.00000 0.00013
6978.00000 0.00013
6980.00000 0.00013
6982.00000 0.00013
6984.00000 0.00012
6986.00000 0.00012
6988.00000 0.00011
6990.00000 0.00011
6992.00000 0.00011
6994.00000 0.00011
6996.00000 0.00011
6998.00000 0.00011
7000.00000 0.0001
7700.00000 0.0
