# %ECSV 0.9
# ---
# datatype:
# - {name: wavelength, unit: Angstrom, datatype: float32}
# - {name: response, datatype: float32}
# meta: !!omap
# - {band_name: b_z1}
# - {group_name: Stromgren}
wavelength response
3951.00000 0.0
4390.00000 4e-05
4392.00000 4e-05
4394.00000 5e-05
4396.00000 6e-05
4398.00000 7e-05
4400.00000 8e-05
4402.00000 0.0001
4404.00000 0.00011
4406.00000 0.00013
4408.00000 0.00016
4410.00000 0.00019
4412.00000 0.00023
4414.00000 0.00028
4416.00000 0.00033
4418.00000 0.00039
4420.00000 0.00046
4422.00000 0.00052
4424.00000 0.00059
4426.00000 0.00066
4428.00000 0.00071
4430.00000 0.00074
4432.00000 0.00076
4434.00000 0.00076
4436.00000 0.00075
4438.00000 0.00073
4440.00000 0.0007
4442.00000 0.00067
4444.00000 0.00064
4446.00000 0.00062
4448.00000 0.00059
4450.00000 0.00056
4452.00000 0.00055
4454.00000 0.00053
4456.00000 0.00052
4458.00000 0.00051
4460.00000 0.0005
4462.00000 0.0005
4464.00000 0.0005
4466.00000 0.0005
4468.00000 0.00049
4470.00000 0.0005
4472.00000 0.00051
4474.00000 0.00052
4476.00000 0.00052
4478.00000 0.00055
4480.00000 0.00056
4482.00000 0.00058
4484.00000 0.0006
4486.00000 0.00063
4488.00000 0.00066
4490.00000 0.00068
4492.00000 0.00072
4494.00000 0.00076
4496.00000 0.00081
4498.00000 0.00086
4500.00000 0.00091
4502.00000 0.00098
4504.00000 0.00104
4506.00000 0.00113
4508.00000 0.00122
4510.00000 0.00133
4512.00000 0.00144
4514.00000 0.00157
4516.00000 0.00171
4518.00000 0.00188
4520.00000 0.00206
4522.00000 0.00228
4524.00000 0.00253
4526.00000 0.0028
4528.00000 0.00311
4530.00000 0.00348
4532.00000 0.0039
4534.00000 0.00439
4536.00000 0.00494
4538.00000 0.00556
4540.00000 0.00626
4542.00000 0.00708
4544.00000 0.00802
4546.00000 0.00909
4548.00000 0.01037
4550.00000 0.01179
4552.00000 0.01333
4554.00000 0.01514
4556.00000 0.01711
4558.00000 0.01933
4560.00000 0.02175
4562.00000 0.02446
4564.00000 0.02731
4566.00000 0.03045
4568.00000 0.03367
4570.00000 0.03701
4572.00000 0.04055
4574.00000 0.04427
4576.00000 0.04792
4578.00000 0.05164
4580.00000 0.05536
4582.00000 0.05919
4584.00000 0.06291
4586.00000 0.06683
4588.00000 0.07098
4590.00000 0.07502
4592.00000 0.07923
4594.00000 0.08369
4596.00000 0.08847
4598.00000 0.09357
4600.00000 0.09934
4602.00000 0.10551
4604.00000 0.11216
4606.00000 0.11964
4608.00000 0.12767
4610.00000 0.13683
4612.00000 0.1469
4614.00000 0.15845
4616.00000 0.17087
4618.00000 0.1849
4620.00000 0.20046
4622.00000 0.21799
4624.00000 0.23669
4626.00000 0.25865
4628.00000 0.2826
4630.00000 0.30811
4632.00000 0.33569
4634.00000 0.36427
4636.00000 0.39547
4638.00000 0.42724
4640.00000 0.46073
4642.00000 0.49246
4644.00000 0.524
4646.00000 0.55278
4648.00000 0.58004
4650.00000 0.60307
4652.00000 0.62439
4654.00000 0.6414
4656.00000 0.65434
4658.00000 0.66331
4660.00000 0.6693
4662.00000 0.67243
4664.00000 0.67351
4666.00000 0.67267
4668.00000 0.67024
4670.00000 0.66744
4672.00000 0.66432
4674.00000 0.66072
4676.00000 0.6571
4678.00000 0.65428
4680.00000 0.6518
4682.00000 0.64962
4684.00000 0.64856
4686.00000 0.64773
4688.00000 0.64722
4690.00000 0.64798
4692.00000 0.64935
4694.00000 0.65042
4696.00000 0.65276
4698.00000 0.65486
4700.00000 0.65708
4702.00000 0.65988
4704.00000 0.66262
4706.00000 0.66465
4708.00000 0.66731
4710.00000 0.66948
4712.00000 0.67071
4714.00000 0.67172
4716.00000 0.67274
4718.00000 0.67284
4720.00000 0.67267
4722.00000 0.67184
4724.00000 0.66992
4726.00000 0.66822
4728.00000 0.66573
4730.00000 0.66274
4732.00000 0.65946
4734.00000 0.65599
4736.00000 0.65225
4738.00000 0.64832
4740.00000 0.64413
4742.00000 0.64006
4744.00000 0.63571
4746.00000 0.63202
4748.00000 0.62813
4750.00000 0.62477
4752.00000 0.62129
4754.00000 0.61879
4756.00000 0.61583
4758.00000 0.61382
4760.00000 0.61158
4762.00000 0.61042
4764.00000 0.60943
4766.00000 0.60897
4768.00000 0.6086
4770.00000 0.6089
4772.00000 0.60937
4774.00000 0.61021
4776.00000 0.61103
4778.00000 0.61208
4780.00000 0.61323
4782.00000 0.61413
4784.00000 0.61459
4786.00000 0.61483
4788.00000 0.61413
4790.00000 0.61326
4792.00000 0.61043
4794.00000 0.60672
4796.00000 0.60148
4798.00000 0.59471
4800.00000 0.5852
4802.00000 0.57459
4804.00000 0.56121
4806.00000 0.54607
4808.00000 0.5284
4810.00000 0.50891
4812.00000 0.48701
4814.00000 0.46375
4816.00000 0.44024
4818.00000 0.41534
4820.00000 0.3905
4822.00000 0.36511
4824.00000 0.34009
4826.00000 0.31529
4828.00000 0.29239
4830.00000 0.26967
4832.00000 0.24869
4834.00000 0.22851
4836.00000 0.20948
4838.00000 0.19126
4840.00000 0.17489
4842.00000 0.15977
4844.00000 0.14558
4846.00000 0.13296
4848.00000 0.1211
4850.00000 0.11028
4852.00000 0.10036
4854.00000 0.09154
4856.00000 0.08339
4858.00000 0.07608
4860.00000 0.06928
4862.00000 0.0631
4864.00000 0.05737
4866.00000 0.05223
4868.00000 0.04773
4870.00000 0.0434
4872.00000 0.03968
4874.00000 0.03616
4876.00000 0.03291
4878.00000 0.02998
4880.00000 0.02734
4882.00000 0.02489
4884.00000 0.02277
4886.00000 0.02076
4888.00000 0.01895
4890.00000 0.01728
4892.00000 0.01579
4894.00000 0.01445
4896.00000 0.01322
4898.00000 0.01208
4900.00000 0.01104
4902.00000 0.0101
4904.00000 0.00923
4906.00000 0.00846
4908.00000 0.00778
4910.00000 0.00712
4912.00000 0.00656
4914.00000 0.00602
4916.00000 0.00554
4918.00000 0.00509
4920.00000 0.0047
4922.00000 0.00434
4924.00000 0.00401
4926.00000 0.0037
4928.00000 0.00342
4930.00000 0.00317
4932.00000 0.00294
4934.00000 0.00273
4936.00000 0.00254
4938.00000 0.00237
4940.00000 0.00221
4942.00000 0.00205
4944.00000 0.00192
4946.00000 0.0018
4948.00000 0.00168
4950.00000 0.00158
4952.00000 0.00149
4954.00000 0.0014
4956.00000 0.00132
4958.00000 0.00125
4960.00000 0.00118
4962.00000 0.00112
4964.00000 0.00106
4966.00000 0.00101
4968.00000 0.00096
4970.00000 0.00092
4972.00000 0.00088
4974.00000 0.00084
4976.00000 0.00081
4978.00000 0.00078
4980.00000 0.00075
4982.00000 0.00072
4984.00000 0.0007
4986.00000 0.00068
4988.00000 0.00066
4990.00000 0.00064
4992.00000 0.00063
4994.00000 0.00062
4996.00000 0.0006
4998.00000 0.00059
5000.00000 0.00059
5002.00000 0.00058
5004.00000 0.00057
5006.00000 0.00057
5008.00000 0.00056
5010.00000 0.00056
5012.00000 0.00056
5014.00000 0.00056
5016.00000 0.00057
5018.00000 0.00057
5020.00000 0.00058
5022.00000 0.00059
5024.00000 0.0006
5026.00000 0.00061
5028.00000 0.00063
5030.00000 0.00064
5032.00000 0.00066
5034.00000 0.00068
5036.00000 0.00071
5038.00000 0.00073
5040.00000 0.00075
5042.00000 0.00077
5044.00000 0.0008
5046.00000 0.00081
5048.00000 0.00084
5050.00000 0.00084
5052.00000 0.00085
5054.00000 0.00084
5056.00000 0.00082
5058.00000 0.0008
5060.00000 0.00076
5062.00000 0.00072
5064.00000 0.00066
5066.00000 0.00061
5068.00000 0.00055
5070.00000 0.00049
5072.00000 0.00044
5074.00000 0.00038
5076.00000 0.00034
5078.00000 0.0003
5080.00000 0.00026
5082.00000 0.00023
5084.00000 0.0002
5086.00000 0.00018
5088.00000 0.00016
5090.00000 0.00014
5092.00000 0.00012
5094.00000 0.00011
5096.00000 0.0001
5098.00000 8e-05
5100.00000 8e-05
5610.00000 0.0
