# %ECSV 0.9
# ---
# datatype:
# - {name: wavelength, unit: Angstrom, datatype: float32}
# - {name: response, datatype: float32}
# meta: !!omap
# - {band_name: J0770}
# - {group_name: JPAS}
wavelength response
6835.50000 0.0
7595.00000 0.0001
7596.00000 0.0001
7597.00000 0.0001
7598.00000 0.0001
7599.00000 0.0001
7600.00000 0.0001
7601.00000 0.0001
7602.00000 0.0001
7603.00000 0.0001
7604.00000 0.0001
7605.00000 0.0001
7606.00000 0.0001
7607.00000 0.0002
7608.00000 0.0002
7609.00000 0.0002
7610.00000 0.0002
7611.00000 0.0003
7612.00000 0.0003
7613.00000 0.0004
7614.00000 0.0005
7615.00000 0.0005
7616.00000 0.0006
7617.00000 0.0007
7618.00000 0.0008
7619.00000 0.001
7620.00000 0.0012
7621.00000 0.0014
7622.00000 0.0017
7623.00000 0.002
7624.00000 0.0024
7625.00000 0.0029
7626.00000 0.0034
7627.00000 0.0042
7628.00000 0.005
7629.00000 0.0062
7630.00000 0.0074
7631.00000 0.0092
7632.00000 0.0112
7633.00000 0.0138
7634.00000 0.0172
7635.00000 0.0211
7636.00000 0.0265
7637.00000 0.0328
7638.00000 0.0421
7639.00000 0.0533
7640.00000 0.0677
7641.00000 0.0848
7642.00000 0.1099
7643.00000 0.1367
7644.00000 0.1718
7645.00000 0.211
7646.00000 0.2599
7647.00000 0.3157
7648.00000 0.3722
7649.00000 0.4324
7650.00000 0.4898
7651.00000 0.5476
7652.00000 0.5943
7653.00000 0.6322
7654.00000 0.6603
7655.00000 0.6812
7656.00000 0.6933
7657.00000 0.7019
7658.00000 0.7084
7659.00000 0.7117
7660.00000 0.7125
7661.00000 0.7158
7662.00000 0.7168
7663.00000 0.7237
7664.00000 0.7268
7665.00000 0.7348
7666.00000 0.7373
7667.00000 0.7485
7668.00000 0.7536
7669.00000 0.7646
7670.00000 0.7714
7671.00000 0.7803
7672.00000 0.788
7673.00000 0.7982
7674.00000 0.8064
7675.00000 0.8144
7676.00000 0.8196
7677.00000 0.8273
7678.00000 0.836
7679.00000 0.8412
7680.00000 0.8476
7681.00000 0.8463
7682.00000 0.8477
7683.00000 0.8457
7684.00000 0.8469
7685.00000 0.848
7686.00000 0.8468
7687.00000 0.8455
7688.00000 0.8481
7689.00000 0.8455
7690.00000 0.8466
7691.00000 0.8481
7692.00000 0.8442
7693.00000 0.8449
7694.00000 0.8482
7695.00000 0.8452
7696.00000 0.8482
7697.00000 0.8444
7698.00000 0.846
7699.00000 0.8484
7700.00000 0.8484
7701.00000 0.8486
7702.00000 0.85
7703.00000 0.8492
7704.00000 0.8492
7705.00000 0.8504
7706.00000 0.8513
7707.00000 0.8514
7708.00000 0.8533
7709.00000 0.8517
7710.00000 0.8531
7711.00000 0.8525
7712.00000 0.8537
7713.00000 0.8528
7714.00000 0.8542
7715.00000 0.8524
7716.00000 0.8533
7717.00000 0.854
7718.00000 0.8521
7719.00000 0.8539
7720.00000 0.8534
7721.00000 0.8536
7722.00000 0.8539
7723.00000 0.853
7724.00000 0.8547
7725.00000 0.8536
7726.00000 0.8537
7727.00000 0.8535
7728.00000 0.8514
7729.00000 0.8499
7730.00000 0.8491
7731.00000 0.8479
7732.00000 0.8461
7733.00000 0.8459
7734.00000 0.8431
7735.00000 0.8453
7736.00000 0.8423
7737.00000 0.8431
7738.00000 0.8402
7739.00000 0.8379
7740.00000 0.837
7741.00000 0.8365
7742.00000 0.836
7743.00000 0.8349
7744.00000 0.8362
7745.00000 0.8348
7746.00000 0.8359
7747.00000 0.8339
7748.00000 0.8337
7749.00000 0.8353
7750.00000 0.8351
7751.00000 0.8388
7752.00000 0.84
7753.00000 0.8424
7754.00000 0.844
7755.00000 0.8443
7756.00000 0.8464
7757.00000 0.8465
7758.00000 0.8493
7759.00000 0.8518
7760.00000 0.855
7761.00000 0.8523
7762.00000 0.8554
7763.00000 0.8546
7764.00000 0.855
7765.00000 0.8545
7766.00000 0.8527
7767.00000 0.8514
7768.00000 0.8509
7769.00000 0.8497
7770.00000 0.8456
7771.00000 0.8453
7772.00000 0.8446
7773.00000 0.8417
7774.00000 0.8416
7775.00000 0.8423
7776.00000 0.8422
7777.00000 0.8465
7778.00000 0.8432
7779.00000 0.8421
7780.00000 0.8429
7781.00000 0.836
7782.00000 0.8313
7783.00000 0.815
7784.00000 0.7957
7785.00000 0.7667
7786.00000 0.7276
7787.00000 0.6768
7788.00000 0.6226
7789.00000 0.5615
7790.00000 0.4906
7791.00000 0.4255
7792.00000 0.3559
7793.00000 0.2992
7794.00000 0.2415
7795.00000 0.1989
7796.00000 0.1598
7797.00000 0.1309
7798.00000 0.1044
7799.00000 0.0837
7800.00000 0.0675
7801.00000 0.0554
7802.00000 0.0451
7803.00000 0.0361
7804.00000 0.0295
7805.00000 0.0242
7806.00000 0.0201
7807.00000 0.0164
7808.00000 0.0137
7809.00000 0.0113
7810.00000 0.0095
7811.00000 0.0081
7812.00000 0.0067
7813.00000 0.0057
7814.00000 0.0048
7815.00000 0.0042
7816.00000 0.0035
7817.00000 0.003
7818.00000 0.0025
7819.00000 0.0022
7820.00000 0.0018
7821.00000 0.0017
7822.00000 0.0015
7823.00000 0.0012
7824.00000 0.001
7825.00000 0.0009
7826.00000 0.0008
7827.00000 0.0007
7828.00000 0.0006
7829.00000 0.0005
7830.00000 0.0005
7831.00000 0.0004
7832.00000 0.0004
7833.00000 0.0003
7834.00000 0.0003
7835.00000 0.0003
7836.00000 0.0002
7837.00000 0.0002
7838.00000 0.0002
7839.00000 0.0002
7840.00000 0.0002
7841.00000 0.0001
7842.00000 0.0001
7843.00000 0.0001
7844.00000 0.0001
7845.00000 0.0001
7846.00000 0.0001
7847.00000 0.0001
7848.00000 0.0001
8632.79980 0.0
