# %ECSV 0.9
# ---
# datatype:
# - {name: wavelength, unit: Angstrom, datatype: float32}
# - {name: response, datatype: float32}
# meta: !!omap
# - {band_name: J0460}
# - {group_name: JPAS}
wavelength response
4027.50000 0.0
4475.00000 0.0001
4476.00000 0.0001
4477.00000 0.0001
4478.00000 0.0001
4479.00000 0.0001
4480.00000 0.0001
4481.00000 0.0001
4482.00000 0.0001
4483.00000 0.0001
4484.00000 0.0001
4485.00000 0.0001
4486.00000 0.0002
4487.00000 0.0002
4488.00000 0.0002
4489.00000 0.0002
4490.00000 0.0002
4491.00000 0.0003
4492.00000 0.0003
4493.00000 0.0004
4494.00000 0.0004
4495.00000 0.0005
4496.00000 0.0005
4497.00000 0.0006
4498.00000 0.0007
4499.00000 0.0008
4500.00000 0.0009
4501.00000 0.001
4502.00000 0.0012
4503.00000 0.0013
4504.00000 0.0015
4505.00000 0.0018
4506.00000 0.002
4507.00000 0.0024
4508.00000 0.0028
4509.00000 0.0032
4510.00000 0.0037
4511.00000 0.0045
4512.00000 0.0052
4513.00000 0.0061
4514.00000 0.0073
4515.00000 0.0086
4516.00000 0.0103
4517.00000 0.0123
4518.00000 0.0146
4519.00000 0.0174
4520.00000 0.0213
4521.00000 0.0257
4522.00000 0.0313
4523.00000 0.0376
4524.00000 0.0465
4525.00000 0.0562
4526.00000 0.0688
4527.00000 0.0835
4528.00000 0.1027
4529.00000 0.126
4530.00000 0.1519
4531.00000 0.1843
4532.00000 0.2201
4533.00000 0.2657
4534.00000 0.3105
4535.00000 0.3615
4536.00000 0.4087
4537.00000 0.4611
4538.00000 0.5046
4539.00000 0.5454
4540.00000 0.5769
4541.00000 0.6048
4542.00000 0.6244
4543.00000 0.6392
4544.00000 0.6494
4545.00000 0.6562
4546.00000 0.66
4547.00000 0.6624
4548.00000 0.6638
4549.00000 0.6636
4550.00000 0.665
4551.00000 0.6639
4552.00000 0.6647
4553.00000 0.6646
4554.00000 0.6651
4555.00000 0.6659
4556.00000 0.6656
4557.00000 0.667
4558.00000 0.6672
4559.00000 0.6673
4560.00000 0.668
4561.00000 0.6682
4562.00000 0.6687
4563.00000 0.6684
4564.00000 0.6689
4565.00000 0.6677
4566.00000 0.668
4567.00000 0.6678
4568.00000 0.6668
4569.00000 0.6658
4570.00000 0.667
4571.00000 0.6664
4572.00000 0.6653
4573.00000 0.6641
4574.00000 0.6644
4575.00000 0.6658
4576.00000 0.6641
4577.00000 0.6638
4578.00000 0.6641
4579.00000 0.6639
4580.00000 0.6651
4581.00000 0.665
4582.00000 0.6658
4583.00000 0.6665
4584.00000 0.6666
4585.00000 0.6674
4586.00000 0.6683
4587.00000 0.669
4588.00000 0.6689
4589.00000 0.6704
4590.00000 0.6717
4591.00000 0.6722
4592.00000 0.6731
4593.00000 0.6737
4594.00000 0.6752
4595.00000 0.6743
4596.00000 0.6755
4597.00000 0.6755
4598.00000 0.6756
4599.00000 0.6763
4600.00000 0.677
4601.00000 0.6768
4602.00000 0.6768
4603.00000 0.6772
4604.00000 0.6762
4605.00000 0.6772
4606.00000 0.6773
4607.00000 0.6763
4608.00000 0.6763
4609.00000 0.676
4610.00000 0.6757
4611.00000 0.676
4612.00000 0.6759
4613.00000 0.675
4614.00000 0.6754
4615.00000 0.6744
4616.00000 0.6745
4617.00000 0.6745
4618.00000 0.6745
4619.00000 0.674
4620.00000 0.6739
4621.00000 0.6734
4622.00000 0.6739
4623.00000 0.6739
4624.00000 0.6735
4625.00000 0.6732
4626.00000 0.673
4627.00000 0.6739
4628.00000 0.6742
4629.00000 0.6737
4630.00000 0.6739
4631.00000 0.674
4632.00000 0.6753
4633.00000 0.6751
4634.00000 0.6759
4635.00000 0.6758
4636.00000 0.6762
4637.00000 0.6774
4638.00000 0.6774
4639.00000 0.6781
4640.00000 0.679
4641.00000 0.6784
4642.00000 0.6788
4643.00000 0.6799
4644.00000 0.6806
4645.00000 0.6813
4646.00000 0.6815
4647.00000 0.6808
4648.00000 0.682
4649.00000 0.6814
4650.00000 0.6821
4651.00000 0.6814
4652.00000 0.6817
4653.00000 0.6816
4654.00000 0.6813
4655.00000 0.68
4656.00000 0.68
4657.00000 0.6797
4658.00000 0.6792
4659.00000 0.6796
4660.00000 0.6781
4661.00000 0.6777
4662.00000 0.6772
4663.00000 0.6776
4664.00000 0.677
4665.00000 0.677
4666.00000 0.6758
4667.00000 0.6753
4668.00000 0.6732
4669.00000 0.6701
4670.00000 0.6651
4671.00000 0.6579
4672.00000 0.6477
4673.00000 0.6338
4674.00000 0.6166
4675.00000 0.5963
4676.00000 0.5671
4677.00000 0.5358
4678.00000 0.4979
4679.00000 0.4602
4680.00000 0.4154
4681.00000 0.3742
4682.00000 0.3305
4683.00000 0.2908
4684.00000 0.2517
4685.00000 0.2152
4686.00000 0.1849
4687.00000 0.1573
4688.00000 0.1337
4689.00000 0.1115
4690.00000 0.0944
4691.00000 0.0789
4692.00000 0.0672
4693.00000 0.0562
4694.00000 0.048
4695.00000 0.0401
4696.00000 0.0342
4697.00000 0.0291
4698.00000 0.0248
4699.00000 0.0212
4700.00000 0.0182
4701.00000 0.0157
4702.00000 0.0134
4703.00000 0.0116
4704.00000 0.0099
4705.00000 0.0087
4706.00000 0.0075
4707.00000 0.0066
4708.00000 0.0057
4709.00000 0.005
4710.00000 0.0044
4711.00000 0.0038
4712.00000 0.0034
4713.00000 0.003
4714.00000 0.0027
4715.00000 0.0024
4716.00000 0.0021
4717.00000 0.0018
4718.00000 0.0016
4719.00000 0.0015
4720.00000 0.0013
4721.00000 0.0012
4722.00000 0.001
4723.00000 0.0009
4724.00000 0.0008
4725.00000 0.0008
4726.00000 0.0007
4727.00000 0.0006
4728.00000 0.0005
4729.00000 0.0005
4730.00000 0.0005
4731.00000 0.0004
4732.00000 0.0004
4733.00000 0.0003
4734.00000 0.0003
4735.00000 0.0003
4736.00000 0.0003
4737.00000 0.0002
4738.00000 0.0002
4739.00000 0.0002
4740.00000 0.0002
4741.00000 0.0002
4742.00000 0.0001
4743.00000 0.0001
4744.00000 0.0001
4745.00000 0.0001
4746.00000 0.0001
4747.00000 0.0001
4748.00000 0.0001
4749.00000 0.0001
4750.00000 0.0001
4751.00000 0.0001
4752.00000 0.0001
4753.00000 0.0001
4754.00000 0.0001
5229.39990 0.0
