# %ECSV 0.9
# ---
# datatype:
# - {name: wavelength, unit: Angstrom, datatype: float32}
# - {name: response, datatype: float32}
# meta: !!omap
# - {band_name: J0880}
# - {group_name: JPAS}
wavelength response
7818.29980 0.0
8687.00000 0.0001
8688.00000 0.0001
8689.00000 0.0001
8690.00000 0.0001
8691.00000 0.0001
8692.00000 0.0001
8693.00000 0.0001
8694.00000 0.0001
8695.00000 0.0001
8696.00000 0.0001
8697.00000 0.0002
8698.00000 0.0002
8699.00000 0.0002
8700.00000 0.0003
8701.00000 0.0003
8702.00000 0.0003
8703.00000 0.0003
8704.00000 0.0004
8705.00000 0.0004
8706.00000 0.0005
8707.00000 0.0006
8708.00000 0.0006
8709.00000 0.0007
8710.00000 0.0008
8711.00000 0.0009
8712.00000 0.0011
8713.00000 0.0012
8714.00000 0.0014
8715.00000 0.0017
8716.00000 0.002
8717.00000 0.0024
8718.00000 0.0027
8719.00000 0.0031
8720.00000 0.0036
8721.00000 0.0043
8722.00000 0.0048
8723.00000 0.0057
8724.00000 0.0068
8725.00000 0.0082
8726.00000 0.0094
8727.00000 0.0107
8728.00000 0.0129
8729.00000 0.0154
8730.00000 0.0186
8731.00000 0.0216
8732.00000 0.0267
8733.00000 0.0333
8734.00000 0.0419
8735.00000 0.0494
8736.00000 0.0591
8737.00000 0.0716
8738.00000 0.0883
8739.00000 0.104
8740.00000 0.124
8741.00000 0.1516
8742.00000 0.1824
8743.00000 0.2157
8744.00000 0.2413
8745.00000 0.2785
8746.00000 0.3169
8747.00000 0.3623
8748.00000 0.4008
8749.00000 0.4456
8750.00000 0.4886
8751.00000 0.5344
8752.00000 0.5645
8753.00000 0.5868
8754.00000 0.6106
8755.00000 0.6296
8756.00000 0.6433
8757.00000 0.6505
8758.00000 0.6617
8759.00000 0.6663
8760.00000 0.6718
8761.00000 0.673
8762.00000 0.6747
8763.00000 0.6741
8764.00000 0.6768
8765.00000 0.6781
8766.00000 0.6755
8767.00000 0.6765
8768.00000 0.6798
8769.00000 0.6778
8770.00000 0.6785
8771.00000 0.6802
8772.00000 0.6794
8773.00000 0.6771
8774.00000 0.6774
8775.00000 0.6771
8776.00000 0.6757
8777.00000 0.6758
8778.00000 0.6725
8779.00000 0.6743
8780.00000 0.6733
8781.00000 0.6713
8782.00000 0.6701
8783.00000 0.6707
8784.00000 0.6687
8785.00000 0.6715
8786.00000 0.6693
8787.00000 0.6676
8788.00000 0.671
8789.00000 0.6668
8790.00000 0.6684
8791.00000 0.6692
8792.00000 0.6692
8793.00000 0.6676
8794.00000 0.666
8795.00000 0.666
8796.00000 0.6658
8797.00000 0.6656
8798.00000 0.6661
8799.00000 0.6638
8800.00000 0.6674
8801.00000 0.6653
8802.00000 0.6655
8803.00000 0.668
8804.00000 0.6661
8805.00000 0.6687
8806.00000 0.6681
8807.00000 0.6655
8808.00000 0.6661
8809.00000 0.6653
8810.00000 0.6655
8811.00000 0.6658
8812.00000 0.6653
8813.00000 0.6655
8814.00000 0.6632
8815.00000 0.664
8816.00000 0.6627
8817.00000 0.6642
8818.00000 0.6631
8819.00000 0.662
8820.00000 0.6622
8821.00000 0.6628
8822.00000 0.6611
8823.00000 0.6604
8824.00000 0.6603
8825.00000 0.6601
8826.00000 0.6592
8827.00000 0.6592
8828.00000 0.6586
8829.00000 0.6562
8830.00000 0.6559
8831.00000 0.6565
8832.00000 0.6553
8833.00000 0.6563
8834.00000 0.6529
8835.00000 0.6519
8836.00000 0.6537
8837.00000 0.6517
8838.00000 0.6515
8839.00000 0.6498
8840.00000 0.6473
8841.00000 0.6487
8842.00000 0.6479
8843.00000 0.6502
8844.00000 0.6498
8845.00000 0.649
8846.00000 0.6453
8847.00000 0.6467
8848.00000 0.6483
8849.00000 0.645
8850.00000 0.6425
8851.00000 0.6436
8852.00000 0.6436
8853.00000 0.6428
8854.00000 0.6432
8855.00000 0.6434
8856.00000 0.6454
8857.00000 0.6427
8858.00000 0.6424
8859.00000 0.6438
8860.00000 0.6432
8861.00000 0.64
8862.00000 0.6439
8863.00000 0.6407
8864.00000 0.6382
8865.00000 0.6375
8866.00000 0.6365
8867.00000 0.6351
8868.00000 0.6357
8869.00000 0.6373
8870.00000 0.6338
8871.00000 0.6325
8872.00000 0.6293
8873.00000 0.6302
8874.00000 0.6301
8875.00000 0.6295
8876.00000 0.6295
8877.00000 0.6287
8878.00000 0.6293
8879.00000 0.6256
8880.00000 0.6239
8881.00000 0.62
8882.00000 0.6172
8883.00000 0.6146
8884.00000 0.6041
8885.00000 0.5907
8886.00000 0.574
8887.00000 0.5563
8888.00000 0.524
8889.00000 0.4888
8890.00000 0.4493
8891.00000 0.413
8892.00000 0.3732
8893.00000 0.3326
8894.00000 0.2894
8895.00000 0.2538
8896.00000 0.2156
8897.00000 0.1798
8898.00000 0.1488
8899.00000 0.1276
8900.00000 0.1067
8901.00000 0.0897
8902.00000 0.0747
8903.00000 0.0619
8904.00000 0.0517
8905.00000 0.0397
8906.00000 0.0324
8907.00000 0.0262
8908.00000 0.0218
8909.00000 0.0185
8910.00000 0.0158
8911.00000 0.0127
8912.00000 0.0109
8913.00000 0.0097
8914.00000 0.0077
8915.00000 0.0065
8916.00000 0.0058
8917.00000 0.005
8918.00000 0.0043
8919.00000 0.0039
8920.00000 0.0032
8921.00000 0.003
8922.00000 0.0026
8923.00000 0.0022
8924.00000 0.0018
8925.00000 0.0016
8926.00000 0.0014
8927.00000 0.0012
8928.00000 0.001
8929.00000 0.0009
8930.00000 0.0008
8931.00000 0.0008
8932.00000 0.0007
8933.00000 0.0006
8934.00000 0.0006
8935.00000 0.0005
8936.00000 0.0005
8937.00000 0.0003
8938.00000 0.0003
8939.00000 0.0003
8940.00000 0.0003
8941.00000 0.0003
8942.00000 0.0002
8943.00000 0.0002
8944.00000 0.0002
8945.00000 0.0002
8946.00000 0.0002
8947.00000 0.0001
8948.00000 0.0001
8949.00000 0.0001
8950.00000 0.0001
8951.00000 0.0001
8952.00000 0.0001
8953.00000 0.0001
8954.00000 0.0001
9849.40039 0.0
