# %ECSV 0.9
# ---
# datatype:
# - {name: wavelength, unit: Angstrom, datatype: float32}
# - {name: response, datatype: float32}
# meta: !!omap
# - {band_name: J0800}
# - {group_name: JPAS}
wavelength response
7089.29980 0.0
7877.00000 0.0001
7878.00000 0.0001
7879.00000 0.0001
7880.00000 0.0001
7881.00000 0.0001
7882.00000 0.0001
7883.00000 0.0001
7884.00000 0.0001
7885.00000 0.0001
7886.00000 0.0001
7887.00000 0.0001
7888.00000 0.0002
7889.00000 0.0002
7890.00000 0.0002
7891.00000 0.0002
7892.00000 0.0003
7893.00000 0.0003
7894.00000 0.0003
7895.00000 0.0004
7896.00000 0.0004
7897.00000 0.0004
7898.00000 0.0005
7899.00000 0.0006
7900.00000 0.0006
7901.00000 0.0007
7902.00000 0.0008
7903.00000 0.001
7904.00000 0.0012
7905.00000 0.0013
7906.00000 0.0015
7907.00000 0.0017
7908.00000 0.002
7909.00000 0.0023
7910.00000 0.0026
7911.00000 0.0031
7912.00000 0.0034
7913.00000 0.0042
7914.00000 0.0049
7915.00000 0.0057
7916.00000 0.0071
7917.00000 0.0085
7918.00000 0.01
7919.00000 0.0119
7920.00000 0.0146
7921.00000 0.0173
7922.00000 0.0206
7923.00000 0.0242
7924.00000 0.0291
7925.00000 0.0352
7926.00000 0.0429
7927.00000 0.0533
7928.00000 0.0652
7929.00000 0.0826
7930.00000 0.1023
7931.00000 0.1276
7932.00000 0.1566
7933.00000 0.1954
7934.00000 0.2346
7935.00000 0.2834
7936.00000 0.3293
7937.00000 0.3916
7938.00000 0.4533
7939.00000 0.5214
7940.00000 0.5904
7941.00000 0.6543
7942.00000 0.7159
7943.00000 0.7622
7944.00000 0.7984
7945.00000 0.8243
7946.00000 0.839
7947.00000 0.8456
7948.00000 0.8518
7949.00000 0.8551
7950.00000 0.8565
7951.00000 0.8546
7952.00000 0.8572
7953.00000 0.855
7954.00000 0.8523
7955.00000 0.8496
7956.00000 0.8492
7957.00000 0.851
7958.00000 0.8505
7959.00000 0.8541
7960.00000 0.8548
7961.00000 0.8564
7962.00000 0.8577
7963.00000 0.857
7964.00000 0.8585
7965.00000 0.8594
7966.00000 0.8581
7967.00000 0.8609
7968.00000 0.8576
7969.00000 0.8587
7970.00000 0.858
7971.00000 0.8576
7972.00000 0.8576
7973.00000 0.8577
7974.00000 0.8544
7975.00000 0.8535
7976.00000 0.8557
7977.00000 0.8525
7978.00000 0.8538
7979.00000 0.8555
7980.00000 0.8555
7981.00000 0.8558
7982.00000 0.856
7983.00000 0.8546
7984.00000 0.8537
7985.00000 0.8552
7986.00000 0.8526
7987.00000 0.8507
7988.00000 0.8514
7989.00000 0.853
7990.00000 0.8534
7991.00000 0.8552
7992.00000 0.857
7993.00000 0.8557
7994.00000 0.8574
7995.00000 0.8555
7996.00000 0.8582
7997.00000 0.859
7998.00000 0.8572
7999.00000 0.8571
8000.00000 0.8551
8001.00000 0.8579
8002.00000 0.8551
8003.00000 0.8555
8004.00000 0.8562
8005.00000 0.8578
8006.00000 0.8566
8007.00000 0.8579
8008.00000 0.8573
8009.00000 0.8581
8010.00000 0.8603
8011.00000 0.857
8012.00000 0.8579
8013.00000 0.8567
8014.00000 0.8556
8015.00000 0.8557
8016.00000 0.8559
8017.00000 0.8528
8018.00000 0.8554
8019.00000 0.8563
8020.00000 0.8557
8021.00000 0.8559
8022.00000 0.8559
8023.00000 0.8538
8024.00000 0.8546
8025.00000 0.8514
8026.00000 0.8482
8027.00000 0.8502
8028.00000 0.8484
8029.00000 0.8483
8030.00000 0.8497
8031.00000 0.8498
8032.00000 0.8498
8033.00000 0.8512
8034.00000 0.8535
8035.00000 0.8519
8036.00000 0.8519
8037.00000 0.8518
8038.00000 0.8488
8039.00000 0.8506
8040.00000 0.8492
8041.00000 0.8473
8042.00000 0.8507
8043.00000 0.8503
8044.00000 0.8533
8045.00000 0.8544
8046.00000 0.8557
8047.00000 0.8547
8048.00000 0.8559
8049.00000 0.8539
8050.00000 0.8547
8051.00000 0.8532
8052.00000 0.8545
8053.00000 0.8527
8054.00000 0.8544
8055.00000 0.8531
8056.00000 0.8543
8057.00000 0.8534
8058.00000 0.8534
8059.00000 0.8533
8060.00000 0.8523
8061.00000 0.8508
8062.00000 0.8478
8063.00000 0.8509
8064.00000 0.8488
8065.00000 0.8418
8066.00000 0.8363
8067.00000 0.8295
8068.00000 0.8158
8069.00000 0.8016
8070.00000 0.7792
8071.00000 0.7543
8072.00000 0.7196
8073.00000 0.6751
8074.00000 0.6235
8075.00000 0.5698
8076.00000 0.5052
8077.00000 0.4412
8078.00000 0.3802
8079.00000 0.3248
8080.00000 0.2792
8081.00000 0.2325
8082.00000 0.1982
8083.00000 0.1661
8084.00000 0.1393
8085.00000 0.1145
8086.00000 0.095
8087.00000 0.0765
8088.00000 0.0637
8089.00000 0.0515
8090.00000 0.0423
8091.00000 0.0345
8092.00000 0.0287
8093.00000 0.0243
8094.00000 0.0205
8095.00000 0.0175
8096.00000 0.0149
8097.00000 0.0129
8098.00000 0.011
8099.00000 0.0094
8100.00000 0.0079
8101.00000 0.0068
8102.00000 0.0056
8103.00000 0.0048
8104.00000 0.0041
8105.00000 0.0035
8106.00000 0.003
8107.00000 0.0025
8108.00000 0.0023
8109.00000 0.0021
8110.00000 0.0018
8111.00000 0.0016
8112.00000 0.0014
8113.00000 0.0013
8114.00000 0.001
8115.00000 0.0009
8116.00000 0.0008
8117.00000 0.0007
8118.00000 0.0006
8119.00000 0.0006
8120.00000 0.0005
8121.00000 0.0004
8122.00000 0.0004
8123.00000 0.0003
8124.00000 0.0003
8125.00000 0.0003
8126.00000 0.0002
8127.00000 0.0002
8128.00000 0.0002
8129.00000 0.0002
8130.00000 0.0002
8131.00000 0.0001
8132.00000 0.0001
8133.00000 0.0001
8134.00000 0.0001
8135.00000 0.0001
8136.00000 0.0001
8137.00000 0.0001
8138.00000 0.0001
8139.00000 0.0001
8140.00000 0.0001
8141.00000 0.0001
8955.09961 0.0
