# %ECSV 0.9
# ---
# datatype:
# - {name: wavelength, unit: Angstrom, datatype: float32}
# - {name: response, datatype: float32}
# meta: !!omap
# - {band_name: J0910}
# - {group_name: JPAS}
wavelength response
8010.89990 0.0
8901.00000 0.0007
8902.00000 0.0026
8903.00000 0.0004
8904.00000 0.0
8905.00000 0.0
8906.00000 0.0
8907.00000 0.0011
8908.00000 0.0001
8909.00000 0.0
8910.00000 0.0004
8911.00000 0.0005
8912.00000 0.0
8913.00000 0.0015
8914.00000 0.0
8915.00000 0.0011
8916.00000 0.0
8917.00000 0.0
8918.00000 0.0
8919.00000 0.0
8920.00000 0.0004
8921.00000 0.0
8922.00000 0.0
8923.00000 0.0008
8924.00000 0.0
8925.00000 0.0
8926.00000 0.0
8927.00000 0.0005
8928.00000 0.0
8929.00000 0.0011
8930.00000 0.0018
8931.00000 0.0
8932.00000 0.0
8933.00000 0.001
8934.00000 0.0
8935.00000 0.0006
8936.00000 0.0004
8937.00000 0.0
8938.00000 0.0011
8939.00000 0.0
8940.00000 0.0023
8941.00000 0.0009
8942.00000 0.0001
8943.00000 0.0
8944.00000 0.0
8945.00000 0.0
8946.00000 0.0007
8947.00000 0.0
8948.00000 0.0005
8949.00000 0.0019
8950.00000 0.0013
8951.00000 0.0012
8952.00000 0.0
8953.00000 0.003
8954.00000 0.0007
8955.00000 0.0
8956.00000 0.0
8957.00000 0.0015
8958.00000 0.0001
8959.00000 0.0
8960.00000 0.0
8961.00000 0.0005
8962.00000 0.0
8963.00000 0.0
8964.00000 0.0015
8965.00000 0.0005
8966.00000 0.0
8967.00000 0.0013
8968.00000 0.0
8969.00000 0.0
8970.00000 0.0
8971.00000 0.0
8972.00000 0.0
8973.00000 0.0
8974.00000 0.0
8975.00000 0.0033
8976.00000 0.0
8977.00000 0.0006
8978.00000 0.0
8979.00000 0.0
8980.00000 0.0028
8981.00000 0.0015
8982.00000 0.0
8983.00000 0.0
8984.00000 0.0022
8985.00000 0.0
8986.00000 0.0
8987.00000 0.0033
8988.00000 0.0009
8989.00000 0.0
8990.00000 0.0026
8991.00000 0.0031
8992.00000 0.003
8993.00000 0.0018
8994.00000 0.0026
8995.00000 0.0013
8996.00000 0.0022
8997.00000 0.0028
8998.00000 0.0062
8999.00000 0.003
9000.00000 0.0055
9001.00000 0.005
9002.00000 0.0041
9003.00000 0.0057
9004.00000 0.0055
9005.00000 0.0071
9006.00000 0.0068
9007.00000 0.0106
9008.00000 0.0117
9009.00000 0.0164
9010.00000 0.0196
9011.00000 0.0209
9012.00000 0.029
9013.00000 0.0367
9014.00000 0.043
9015.00000 0.0512
9016.00000 0.062
9017.00000 0.0773
9018.00000 0.0959
9019.00000 0.1189
9020.00000 0.1328
9021.00000 0.1615
9022.00000 0.1867
9023.00000 0.2202
9024.00000 0.2488
9025.00000 0.2927
9026.00000 0.3348
9027.00000 0.3752
9028.00000 0.402
9029.00000 0.4294
9030.00000 0.4593
9031.00000 0.4922
9032.00000 0.5051
9033.00000 0.5168
9034.00000 0.5282
9035.00000 0.5355
9036.00000 0.5256
9037.00000 0.5365
9038.00000 0.5321
9039.00000 0.5281
9040.00000 0.5333
9041.00000 0.5266
9042.00000 0.5286
9043.00000 0.5331
9044.00000 0.5269
9045.00000 0.5347
9046.00000 0.5269
9047.00000 0.5361
9048.00000 0.5281
9049.00000 0.527
9050.00000 0.533
9051.00000 0.5239
9052.00000 0.5318
9053.00000 0.5339
9054.00000 0.5334
9055.00000 0.5417
9056.00000 0.5258
9057.00000 0.537
9058.00000 0.5355
9059.00000 0.5414
9060.00000 0.5264
9061.00000 0.5282
9062.00000 0.5278
9063.00000 0.5352
9064.00000 0.5264
9065.00000 0.5242
9066.00000 0.5248
9067.00000 0.5249
9068.00000 0.5249
9069.00000 0.5339
9070.00000 0.5311
9071.00000 0.5233
9072.00000 0.5237
9073.00000 0.5263
9074.00000 0.5267
9075.00000 0.5322
9076.00000 0.52
9077.00000 0.5222
9078.00000 0.5268
9079.00000 0.5268
9080.00000 0.5261
9081.00000 0.5227
9082.00000 0.5149
9083.00000 0.5195
9084.00000 0.5226
9085.00000 0.5269
9086.00000 0.5259
9087.00000 0.5208
9088.00000 0.5297
9089.00000 0.508
9090.00000 0.5191
9091.00000 0.5147
9092.00000 0.513
9093.00000 0.5214
9094.00000 0.512
9095.00000 0.5167
9096.00000 0.5212
9097.00000 0.5243
9098.00000 0.5072
9099.00000 0.5169
9100.00000 0.5215
9101.00000 0.5154
9102.00000 0.509
9103.00000 0.5134
9104.00000 0.5129
9105.00000 0.5139
9106.00000 0.5185
9107.00000 0.5151
9108.00000 0.4963
9109.00000 0.5096
9110.00000 0.5089
9111.00000 0.5057
9112.00000 0.5109
9113.00000 0.5044
9114.00000 0.5033
9115.00000 0.5073
9116.00000 0.5012
9117.00000 0.504
9118.00000 0.507
9119.00000 0.5095
9120.00000 0.4942
9121.00000 0.4876
9122.00000 0.5066
9123.00000 0.4997
9124.00000 0.4939
9125.00000 0.5033
9126.00000 0.4945
9127.00000 0.5025
9128.00000 0.4979
9129.00000 0.4895
9130.00000 0.4902
9131.00000 0.5079
9132.00000 0.4981
9133.00000 0.4906
9134.00000 0.4918
9135.00000 0.5024
9136.00000 0.4856
9137.00000 0.4997
9138.00000 0.5012
9139.00000 0.4923
9140.00000 0.4892
9141.00000 0.4889
9142.00000 0.4904
9143.00000 0.4977
9144.00000 0.4805
9145.00000 0.4854
9146.00000 0.4884
9147.00000 0.484
9148.00000 0.4871
9149.00000 0.4725
9150.00000 0.483
9151.00000 0.4737
9152.00000 0.4775
9153.00000 0.4796
9154.00000 0.481
9155.00000 0.4843
9156.00000 0.4694
9157.00000 0.4748
9158.00000 0.4657
9159.00000 0.4697
9160.00000 0.4735
9161.00000 0.4566
9162.00000 0.4512
9163.00000 0.4403
9164.00000 0.4363
9165.00000 0.3992
9166.00000 0.3773
9167.00000 0.3621
9168.00000 0.3396
9169.00000 0.3001
9170.00000 0.2648
9171.00000 0.2388
9172.00000 0.1989
9173.00000 0.1762
9174.00000 0.1459
9175.00000 0.1314
9176.00000 0.1153
9177.00000 0.0929
9178.00000 0.0797
9179.00000 0.0651
9180.00000 0.0539
9181.00000 0.0425
9182.00000 0.0291
9183.00000 0.0242
9184.00000 0.0288
9185.00000 0.02
9186.00000 0.0172
9187.00000 0.0143
9188.00000 0.015
9189.00000 0.0139
9190.00000 0.0096
9191.00000 0.0062
9192.00000 0.0056
9193.00000 0.0108
9194.00000 0.0027
9195.00000 0.0067
9196.00000 0.0016
9197.00000 0.009
9198.00000 0.0013
10117.79980 0.0
