# %ECSV 0.9
# ---
# datatype:
# - {name: wavelength, unit: Angstrom, datatype: float32}
# - {name: response, datatype: float32}
# meta: !!omap
# - {band_name: J0730}
# - {group_name: JPAS}
wavelength response
6458.39990 0.0
7176.00000 0.0001
7177.00000 0.0001
7178.00000 0.0001
7179.00000 0.0001
7180.00000 0.0001
7181.00000 0.0001
7182.00000 0.0001
7183.00000 0.0001
7184.00000 0.0001
7185.00000 0.0001
7186.00000 0.0002
7187.00000 0.0002
7188.00000 0.0002
7189.00000 0.0002
7190.00000 0.0002
7191.00000 0.0003
7192.00000 0.0003
7193.00000 0.0003
7194.00000 0.0004
7195.00000 0.0004
7196.00000 0.0005
7197.00000 0.0005
7198.00000 0.0006
7199.00000 0.0006
7200.00000 0.0007
7201.00000 0.0008
7202.00000 0.001
7203.00000 0.0011
7204.00000 0.0012
7205.00000 0.0014
7206.00000 0.0017
7207.00000 0.0019
7208.00000 0.0021
7209.00000 0.0024
7210.00000 0.0028
7211.00000 0.0033
7212.00000 0.0038
7213.00000 0.0044
7214.00000 0.0052
7215.00000 0.006
7216.00000 0.0071
7217.00000 0.0083
7218.00000 0.0098
7219.00000 0.0117
7220.00000 0.0137
7221.00000 0.0166
7222.00000 0.0196
7223.00000 0.0237
7224.00000 0.0279
7225.00000 0.0341
7226.00000 0.0411
7227.00000 0.05
7228.00000 0.0601
7229.00000 0.0732
7230.00000 0.0902
7231.00000 0.1091
7232.00000 0.1346
7233.00000 0.1625
7234.00000 0.199
7235.00000 0.2366
7236.00000 0.2846
7237.00000 0.3314
7238.00000 0.3908
7239.00000 0.4494
7240.00000 0.5125
7241.00000 0.5738
7242.00000 0.6305
7243.00000 0.688
7244.00000 0.7299
7245.00000 0.7699
7246.00000 0.7957
7247.00000 0.8179
7248.00000 0.832
7249.00000 0.841
7250.00000 0.8464
7251.00000 0.85
7252.00000 0.8525
7253.00000 0.8515
7254.00000 0.851
7255.00000 0.8507
7256.00000 0.8497
7257.00000 0.8489
7258.00000 0.8487
7259.00000 0.848
7260.00000 0.8494
7261.00000 0.8492
7262.00000 0.8503
7263.00000 0.8506
7264.00000 0.8511
7265.00000 0.8521
7266.00000 0.8533
7267.00000 0.8526
7268.00000 0.8534
7269.00000 0.8536
7270.00000 0.8537
7271.00000 0.8528
7272.00000 0.853
7273.00000 0.8539
7274.00000 0.8529
7275.00000 0.8525
7276.00000 0.8519
7277.00000 0.8515
7278.00000 0.8506
7279.00000 0.8502
7280.00000 0.8511
7281.00000 0.8504
7282.00000 0.8527
7283.00000 0.8501
7284.00000 0.8514
7285.00000 0.8529
7286.00000 0.852
7287.00000 0.8526
7288.00000 0.8545
7289.00000 0.854
7290.00000 0.8559
7291.00000 0.856
7292.00000 0.855
7293.00000 0.8556
7294.00000 0.8582
7295.00000 0.8579
7296.00000 0.8578
7297.00000 0.8596
7298.00000 0.8596
7299.00000 0.8613
7300.00000 0.8594
7301.00000 0.8611
7302.00000 0.8599
7303.00000 0.8625
7304.00000 0.8631
7305.00000 0.8623
7306.00000 0.8634
7307.00000 0.8645
7308.00000 0.8653
7309.00000 0.8657
7310.00000 0.8694
7311.00000 0.868
7312.00000 0.8682
7313.00000 0.8698
7314.00000 0.8705
7315.00000 0.8708
7316.00000 0.8744
7317.00000 0.8726
7318.00000 0.8747
7319.00000 0.8747
7320.00000 0.8736
7321.00000 0.8744
7322.00000 0.8765
7323.00000 0.8775
7324.00000 0.8775
7325.00000 0.8779
7326.00000 0.88
7327.00000 0.8786
7328.00000 0.8774
7329.00000 0.8794
7330.00000 0.8801
7331.00000 0.8791
7332.00000 0.8796
7333.00000 0.88
7334.00000 0.8795
7335.00000 0.8789
7336.00000 0.8798
7337.00000 0.8819
7338.00000 0.8812
7339.00000 0.8805
7340.00000 0.8824
7341.00000 0.8839
7342.00000 0.8821
7343.00000 0.8842
7344.00000 0.8847
7345.00000 0.8849
7346.00000 0.8882
7347.00000 0.8887
7348.00000 0.8886
7349.00000 0.8894
7350.00000 0.8908
7351.00000 0.8905
7352.00000 0.8906
7353.00000 0.8914
7354.00000 0.8906
7355.00000 0.8906
7356.00000 0.8921
7357.00000 0.8913
7358.00000 0.8899
7359.00000 0.8882
7360.00000 0.8871
7361.00000 0.8856
7362.00000 0.8867
7363.00000 0.8851
7364.00000 0.8853
7365.00000 0.8848
7366.00000 0.8832
7367.00000 0.8863
7368.00000 0.884
7369.00000 0.8859
7370.00000 0.8874
7371.00000 0.8883
7372.00000 0.8885
7373.00000 0.8862
7374.00000 0.8823
7375.00000 0.8734
7376.00000 0.8627
7377.00000 0.843
7378.00000 0.8176
7379.00000 0.783
7380.00000 0.7419
7381.00000 0.6929
7382.00000 0.6329
7383.00000 0.5734
7384.00000 0.5071
7385.00000 0.4473
7386.00000 0.3797
7387.00000 0.3252
7388.00000 0.2733
7389.00000 0.2315
7390.00000 0.1918
7391.00000 0.1591
7392.00000 0.1309
7393.00000 0.1084
7394.00000 0.09
7395.00000 0.0737
7396.00000 0.0617
7397.00000 0.051
7398.00000 0.0429
7399.00000 0.0352
7400.00000 0.0295
7401.00000 0.0249
7402.00000 0.0212
7403.00000 0.0178
7404.00000 0.0152
7405.00000 0.0129
7406.00000 0.0111
7407.00000 0.0095
7408.00000 0.0081
7409.00000 0.007
7410.00000 0.006
7411.00000 0.0054
7412.00000 0.0045
7413.00000 0.004
7414.00000 0.0034
7415.00000 0.003
7416.00000 0.0026
7417.00000 0.0023
7418.00000 0.0021
7419.00000 0.0018
7420.00000 0.0016
7421.00000 0.0014
7422.00000 0.0013
7423.00000 0.0011
7424.00000 0.001
7425.00000 0.0009
7426.00000 0.0008
7427.00000 0.0007
7428.00000 0.0006
7429.00000 0.0006
7430.00000 0.0005
7431.00000 0.0005
7432.00000 0.0004
7433.00000 0.0004
7434.00000 0.0003
7435.00000 0.0003
7436.00000 0.0003
7437.00000 0.0002
7438.00000 0.0002
7439.00000 0.0002
7440.00000 0.0002
7441.00000 0.0002
7442.00000 0.0002
7443.00000 0.0001
7444.00000 0.0001
7445.00000 0.0001
7446.00000 0.0001
7447.00000 0.0001
7448.00000 0.0001
7449.00000 0.0001
7450.00000 0.0001
7451.00000 0.0001
7452.00000 0.0001
7453.00000 0.0001
7454.00000 0.0001
8199.40039 0.0
