# %ECSV 0.9
# ---
# datatype:
# - {name: wavelength, unit: Angstrom, datatype: float32}
# - {name: response, datatype: float32}
# meta: !!omap
# - {band_name: g}
# - {group_name: JPAS}
wavelength response
3487.50000 0.0
3875.00000 0.000655932
3880.00000 0.00139488
3885.00000 0.00295979
3890.00000 0.00626264
3895.00000 0.0081343
3900.00000 0.010544
3905.00000 0.0140547
3910.00000 0.018701
3915.00000 0.0248388
3920.00000 0.0329418
3925.00000 0.0436375
3930.00000 0.0577571
3935.00000 0.0722473
3940.00000 0.0903516
3945.00000 0.105149
3950.00000 0.12238
3955.00000 0.139107
3960.00000 0.158103
3965.00000 0.173772
3970.00000 0.190952
3975.00000 0.206787
3980.00000 0.223843
3985.00000 0.234232
3990.00000 0.245003
3995.00000 0.253756
4000.00000 0.262737
4005.00000 0.269189
4010.00000 0.27568
4015.00000 0.280982
4020.00000 0.286389
4025.00000 0.291918
4030.00000 0.297584
4035.00000 0.301911
4040.00000 0.306343
4045.00000 0.310881
4050.00000 0.315523
4055.00000 0.319239
4060.00000 0.322973
4065.00000 0.326765
4070.00000 0.330608
4075.00000 0.334491
4080.00000 0.338404
4085.00000 0.342322
4090.00000 0.346246
4095.00000 0.350165
4100.00000 0.35407
4105.00000 0.356386
4110.00000 0.358631
4115.00000 0.360828
4120.00000 0.362983
4125.00000 0.365106
4130.00000 0.367214
4135.00000 0.369317
4140.00000 0.371442
4145.00000 0.374193
4150.00000 0.377395
4155.00000 0.380242
4160.00000 0.383145
4165.00000 0.386111
4170.00000 0.389127
4175.00000 0.392174
4180.00000 0.395228
4185.00000 0.398212
4190.00000 0.40115
4195.00000 0.404017
4200.00000 0.406799
4205.00000 0.409019
4210.00000 0.411123
4215.00000 0.413153
4220.00000 0.415134
4225.00000 0.417104
4230.00000 0.419102
4235.00000 0.421137
4240.00000 0.423282
4245.00000 0.425569
4250.00000 0.428018
4255.00000 0.430392
4260.00000 0.432901
4265.00000 0.435546
4270.00000 0.43829
4275.00000 0.441084
4280.00000 0.443871
4285.00000 0.446605
4290.00000 0.449217
4295.00000 0.451659
4300.00000 0.453898
4305.00000 0.455684
4310.00000 0.457242
4315.00000 0.458613
4320.00000 0.459843
4325.00000 0.460992
4330.00000 0.462131
4335.00000 0.462932
4340.00000 0.463237
4345.00000 0.463734
4350.00000 0.464471
4355.00000 0.465517
4360.00000 0.466825
4365.00000 0.468398
4370.00000 0.470203
4375.00000 0.47219
4380.00000 0.474295
4385.00000 0.476444
4390.00000 0.478558
4395.00000 0.480561
4400.00000 0.482385
4405.00000 0.483892
4410.00000 0.485147
4415.00000 0.486123
4420.00000 0.48683
4425.00000 0.487303
4430.00000 0.487594
4435.00000 0.487731
4440.00000 0.487826
4445.00000 0.487955
4450.00000 0.488191
4455.00000 0.488492
4460.00000 0.489009
4465.00000 0.489774
4470.00000 0.490797
4475.00000 0.492068
4480.00000 0.493559
4485.00000 0.495197
4490.00000 0.496951
4495.00000 0.498753
4500.00000 0.500532
4505.00000 0.502165
4510.00000 0.503613
4515.00000 0.504855
4520.00000 0.505858
4525.00000 0.506608
4530.00000 0.507118
4535.00000 0.507387
4540.00000 0.507482
4545.00000 0.507457
4550.00000 0.507373
4555.00000 0.507342
4560.00000 0.507351
4565.00000 0.507487
4570.00000 0.507795
4575.00000 0.508308
4580.00000 0.509043
4585.00000 0.509987
4590.00000 0.511139
4595.00000 0.51247
4600.00000 0.513938
4605.00000 0.515471
4610.00000 0.517032
4615.00000 0.518563
4620.00000 0.520007
4625.00000 0.521317
4630.00000 0.522455
4635.00000 0.523373
4640.00000 0.524086
4645.00000 0.524601
4650.00000 0.524942
4655.00000 0.525146
4660.00000 0.525227
4665.00000 0.525267
4670.00000 0.525322
4675.00000 0.525444
4680.00000 0.525681
4685.00000 0.526043
4690.00000 0.526589
4695.00000 0.527334
4700.00000 0.528281
4705.00000 0.529363
4710.00000 0.530581
4715.00000 0.53193
4720.00000 0.53336
4725.00000 0.534827
4730.00000 0.536283
4735.00000 0.53764
4740.00000 0.538892
4745.00000 0.540002
4750.00000 0.540945
4755.00000 0.541751
4760.00000 0.542374
4765.00000 0.542826
4770.00000 0.543132
4775.00000 0.543324
4780.00000 0.543443
4785.00000 0.543534
4790.00000 0.543642
4795.00000 0.543809
4800.00000 0.544073
4805.00000 0.544327
4810.00000 0.544726
4815.00000 0.54528
4820.00000 0.545985
4825.00000 0.546827
4830.00000 0.54778
4835.00000 0.548791
4840.00000 0.549838
4845.00000 0.550878
4850.00000 0.551863
4855.00000 0.552708
4860.00000 0.553416
4865.00000 0.553958
4870.00000 0.554313
4875.00000 0.554472
4880.00000 0.55444
4885.00000 0.554219
4890.00000 0.553852
4895.00000 0.553376
4900.00000 0.552837
4905.00000 0.552393
4910.00000 0.551957
4915.00000 0.551601
4920.00000 0.551368
4925.00000 0.551293
4930.00000 0.551402
4935.00000 0.551678
4940.00000 0.55216
4945.00000 0.552839
4950.00000 0.553698
4955.00000 0.554546
4960.00000 0.555509
4965.00000 0.556541
4970.00000 0.557595
4975.00000 0.558621
4980.00000 0.559572
4985.00000 0.560371
4990.00000 0.561014
4995.00000 0.561471
5000.00000 0.561726
5005.00000 0.561785
5010.00000 0.561628
5015.00000 0.561292
5020.00000 0.560804
5025.00000 0.560203
5030.00000 0.559531
5035.00000 0.558836
5040.00000 0.558166
5045.00000 0.557564
5050.00000 0.557072
5055.00000 0.556643
5060.00000 0.556368
5065.00000 0.55628
5070.00000 0.556384
5075.00000 0.556678
5080.00000 0.557149
5085.00000 0.557778
5090.00000 0.558537
5095.00000 0.559394
5100.00000 0.560307
5105.00000 0.561283
5110.00000 0.562248
5115.00000 0.563168
5120.00000 0.564017
5125.00000 0.564771
5130.00000 0.565414
5135.00000 0.565924
5140.00000 0.566312
5145.00000 0.566585
5150.00000 0.566753
5155.00000 0.566787
5160.00000 0.566763
5165.00000 0.566684
5170.00000 0.566567
5175.00000 0.566428
5180.00000 0.566278
5185.00000 0.566127
5190.00000 0.565979
5195.00000 0.565834
5200.00000 0.565691
5205.00000 0.565449
5210.00000 0.565216
5215.00000 0.564971
5220.00000 0.564713
5225.00000 0.564443
5230.00000 0.564168
5235.00000 0.563881
5240.00000 0.563614
5245.00000 0.563387
5250.00000 0.563221
5255.00000 0.563056
5260.00000 0.563015
5265.00000 0.563106
5270.00000 0.563341
5275.00000 0.563728
5280.00000 0.564264
5285.00000 0.564931
5290.00000 0.565698
5295.00000 0.566526
5300.00000 0.567363
5305.00000 0.56808
5310.00000 0.568677
5315.00000 0.569085
5320.00000 0.569242
5325.00000 0.569097
5330.00000 0.568618
5335.00000 0.567783
5340.00000 0.566624
5345.00000 0.565189
5350.00000 0.563557
5355.00000 0.561906
5360.00000 0.56026
5365.00000 0.558761
5370.00000 0.557535
5375.00000 0.556691
5380.00000 0.556314
5385.00000 0.556449
5390.00000 0.557094
5395.00000 0.558188
5400.00000 0.559611
5405.00000 0.560661
5410.00000 0.561641
5415.00000 0.562312
5420.00000 0.562449
5425.00000 0.561892
5430.00000 0.560591
5435.00000 0.558617
5440.00000 0.556278
5445.00000 0.554014
5450.00000 0.552373
5455.00000 0.551832
5460.00000 0.552724
5465.00000 0.554682
5470.00000 0.556075
5475.00000 0.553267
5480.00000 0.540369
5485.00000 0.510465
5490.00000 0.459017
5495.00000 0.387791
5500.00000 0.305966
5505.00000 0.226315
5510.00000 0.159228
5515.00000 0.108606
5520.00000 0.0731107
5525.00000 0.0492075
5530.00000 0.0333743
5535.00000 0.0229019
5540.00000 0.015928
5545.00000 0.0112319
5550.00000 0.00802818
5555.00000 0.00581119
5560.00000 0.00425775
5565.00000 0.00315531
5570.00000 0.00236329
5575.00000 0.00178776
5580.00000 0.00136502
5585.00000 0.00105141
5590.00000 0.000816505
5595.00000 0.000638971
6154.50000 0.0
