# %ECSV 0.9
# ---
# datatype:
# - {name: wavelength, unit: Angstrom, datatype: float32}
# - {name: response, datatype: float32}
# meta: !!omap
# - {band_name: J0430}
# - {group_name: JPAS}
wavelength response
3770.10010 0.0
4189.00000 0.0001
4190.00000 0.0001
4191.00000 0.0001
4192.00000 0.0001
4193.00000 0.0002
4194.00000 0.0002
4195.00000 0.0003
4196.00000 0.0003
4197.00000 0.0004
4198.00000 0.0004
4199.00000 0.0005
4200.00000 0.0006
4201.00000 0.0007
4202.00000 0.0008
4203.00000 0.0009
4204.00000 0.0011
4205.00000 0.0012
4206.00000 0.0015
4207.00000 0.0017
4208.00000 0.002
4209.00000 0.0023
4210.00000 0.0027
4211.00000 0.0031
4212.00000 0.0038
4213.00000 0.0044
4214.00000 0.0052
4215.00000 0.0061
4216.00000 0.0074
4217.00000 0.0089
4218.00000 0.0107
4219.00000 0.0128
4220.00000 0.0155
4221.00000 0.019
4222.00000 0.0231
4223.00000 0.0285
4224.00000 0.0345
4225.00000 0.0436
4226.00000 0.0535
4227.00000 0.0663
4228.00000 0.081
4229.00000 0.1005
4230.00000 0.1253
4231.00000 0.155
4232.00000 0.1909
4233.00000 0.2309
4234.00000 0.282
4235.00000 0.3345
4236.00000 0.392
4237.00000 0.4478
4238.00000 0.5051
4239.00000 0.5537
4240.00000 0.5988
4241.00000 0.6343
4242.00000 0.6626
4243.00000 0.6831
4244.00000 0.6959
4245.00000 0.7036
4246.00000 0.7076
4247.00000 0.71
4248.00000 0.7101
4249.00000 0.7097
4250.00000 0.7088
4251.00000 0.7069
4252.00000 0.7072
4253.00000 0.7062
4254.00000 0.7071
4255.00000 0.7072
4256.00000 0.7066
4257.00000 0.7072
4258.00000 0.7081
4259.00000 0.7093
4260.00000 0.7097
4261.00000 0.7105
4262.00000 0.7102
4263.00000 0.711
4264.00000 0.7109
4265.00000 0.7103
4266.00000 0.7102
4267.00000 0.7102
4268.00000 0.7098
4269.00000 0.7084
4270.00000 0.7088
4271.00000 0.7077
4272.00000 0.7073
4273.00000 0.707
4274.00000 0.7063
4275.00000 0.7054
4276.00000 0.7059
4277.00000 0.7054
4278.00000 0.7056
4279.00000 0.7052
4280.00000 0.7054
4281.00000 0.7052
4282.00000 0.7059
4283.00000 0.7066
4284.00000 0.7067
4285.00000 0.7081
4286.00000 0.7082
4287.00000 0.7088
4288.00000 0.7097
4289.00000 0.7109
4290.00000 0.7119
4291.00000 0.7125
4292.00000 0.7132
4293.00000 0.7141
4294.00000 0.7152
4295.00000 0.7157
4296.00000 0.7169
4297.00000 0.7176
4298.00000 0.7186
4299.00000 0.7186
4300.00000 0.7192
4301.00000 0.7202
4302.00000 0.7208
4303.00000 0.7213
4304.00000 0.7226
4305.00000 0.7227
4306.00000 0.7226
4307.00000 0.7239
4308.00000 0.7237
4309.00000 0.7243
4310.00000 0.7246
4311.00000 0.7246
4312.00000 0.7247
4313.00000 0.7259
4314.00000 0.7261
4315.00000 0.7266
4316.00000 0.7265
4317.00000 0.7266
4318.00000 0.726
4319.00000 0.7264
4320.00000 0.7268
4321.00000 0.7262
4322.00000 0.7262
4323.00000 0.7254
4324.00000 0.7261
4325.00000 0.7253
4326.00000 0.7257
4327.00000 0.7256
4328.00000 0.7258
4329.00000 0.7258
4330.00000 0.7252
4331.00000 0.7256
4332.00000 0.725
4333.00000 0.7254
4334.00000 0.7253
4335.00000 0.7256
4336.00000 0.7257
4337.00000 0.7264
4338.00000 0.7272
4339.00000 0.7279
4340.00000 0.7278
4341.00000 0.7279
4342.00000 0.7293
4343.00000 0.7297
4344.00000 0.7303
4345.00000 0.731
4346.00000 0.7315
4347.00000 0.7317
4348.00000 0.7326
4349.00000 0.7332
4350.00000 0.7331
4351.00000 0.7334
4352.00000 0.7337
4353.00000 0.7343
4354.00000 0.7344
4355.00000 0.7344
4356.00000 0.7336
4357.00000 0.7321
4358.00000 0.7322
4359.00000 0.7321
4360.00000 0.7321
4361.00000 0.7312
4362.00000 0.731
4363.00000 0.7312
4364.00000 0.7318
4365.00000 0.7321
4366.00000 0.7335
4367.00000 0.7337
4368.00000 0.7346
4369.00000 0.7347
4370.00000 0.7348
4371.00000 0.7338
4372.00000 0.7302
4373.00000 0.724
4374.00000 0.715
4375.00000 0.7027
4376.00000 0.6844
4377.00000 0.6584
4378.00000 0.6282
4379.00000 0.5901
4380.00000 0.5493
4381.00000 0.4978
4382.00000 0.4478
4383.00000 0.3968
4384.00000 0.3502
4385.00000 0.3016
4386.00000 0.2579
4387.00000 0.2185
4388.00000 0.1849
4389.00000 0.1564
4390.00000 0.1293
4391.00000 0.1086
4392.00000 0.0901
4393.00000 0.0754
4394.00000 0.0624
4395.00000 0.0526
4396.00000 0.044
4397.00000 0.0374
4398.00000 0.0317
4399.00000 0.0266
4400.00000 0.0226
4401.00000 0.0193
4402.00000 0.0165
4403.00000 0.014
4404.00000 0.012
4405.00000 0.0104
4406.00000 0.009
4407.00000 0.0077
4408.00000 0.0067
4409.00000 0.0058
4410.00000 0.0051
4411.00000 0.0044
4412.00000 0.0039
4413.00000 0.0034
4414.00000 0.003
4415.00000 0.0027
4416.00000 0.0023
4417.00000 0.0021
4418.00000 0.0018
4419.00000 0.0016
4420.00000 0.0014
4421.00000 0.0013
4422.00000 0.0011
4423.00000 0.001
4424.00000 0.0009
4425.00000 0.0008
4426.00000 0.0007
4427.00000 0.0007
4428.00000 0.0006
4429.00000 0.0005
4430.00000 0.0005
4431.00000 0.0004
4432.00000 0.0004
4433.00000 0.0004
4434.00000 0.0003
4435.00000 0.0003
4436.00000 0.0003
4437.00000 0.0002
4438.00000 0.0002
4439.00000 0.0002
4440.00000 0.0002
4441.00000 0.0002
4442.00000 0.0002
4443.00000 0.0002
4444.00000 0.0001
4445.00000 0.0001
4446.00000 0.0001
4447.00000 0.0001
4448.00000 0.0001
4449.00000 0.0001
4450.00000 0.0001
4451.00000 0.0001
4452.00000 0.0001
4453.00000 0.0001
4454.00000 0.0001
4455.00000 0.0001
4456.00000 0.0001
4901.60010 0.0
