# %ECSV 0.9
# ---
# datatype:
# - {name: wavelength, unit: Angstrom, datatype: float32}
# - {name: response, datatype: float32}
# meta: !!omap
# - {band_name: J0720}
# - {group_name: JPAS}
wavelength response
6367.50000 0.0
7075.00000 0.0001
7076.00000 0.0001
7077.00000 0.0001
7078.00000 0.0001
7079.00000 0.0001
7080.00000 0.0001
7081.00000 0.0001
7082.00000 0.0001
7083.00000 0.0001
7084.00000 0.0001
7085.00000 0.0001
7086.00000 0.0001
7087.00000 0.0002
7088.00000 0.0002
7089.00000 0.0002
7090.00000 0.0002
7091.00000 0.0003
7092.00000 0.0003
7093.00000 0.0003
7094.00000 0.0004
7095.00000 0.0004
7096.00000 0.0004
7097.00000 0.0005
7098.00000 0.0006
7099.00000 0.0006
7100.00000 0.0007
7101.00000 0.0008
7102.00000 0.0009
7103.00000 0.001
7104.00000 0.0012
7105.00000 0.0013
7106.00000 0.0015
7107.00000 0.0017
7108.00000 0.002
7109.00000 0.0023
7110.00000 0.0026
7111.00000 0.003
7112.00000 0.0035
7113.00000 0.0041
7114.00000 0.0048
7115.00000 0.0055
7116.00000 0.0063
7117.00000 0.0075
7118.00000 0.0088
7119.00000 0.0104
7120.00000 0.0122
7121.00000 0.0145
7122.00000 0.0172
7123.00000 0.0204
7124.00000 0.0244
7125.00000 0.0295
7126.00000 0.0358
7127.00000 0.0429
7128.00000 0.0523
7129.00000 0.0629
7130.00000 0.0779
7131.00000 0.094
7132.00000 0.1161
7133.00000 0.1392
7134.00000 0.171
7135.00000 0.2056
7136.00000 0.2469
7137.00000 0.2948
7138.00000 0.3506
7139.00000 0.4135
7140.00000 0.4749
7141.00000 0.5391
7142.00000 0.6004
7143.00000 0.6632
7144.00000 0.7142
7145.00000 0.7586
7146.00000 0.7918
7147.00000 0.8208
7148.00000 0.8402
7149.00000 0.8535
7150.00000 0.8606
7151.00000 0.8646
7152.00000 0.8656
7153.00000 0.8654
7154.00000 0.8623
7155.00000 0.8604
7156.00000 0.8592
7157.00000 0.8565
7158.00000 0.8556
7159.00000 0.854
7160.00000 0.8521
7161.00000 0.8512
7162.00000 0.8507
7163.00000 0.8497
7164.00000 0.848
7165.00000 0.8468
7166.00000 0.8459
7167.00000 0.8464
7168.00000 0.8461
7169.00000 0.846
7170.00000 0.8447
7171.00000 0.8422
7172.00000 0.8401
7173.00000 0.839
7174.00000 0.8378
7175.00000 0.8375
7176.00000 0.8336
7177.00000 0.8327
7178.00000 0.8316
7179.00000 0.8303
7180.00000 0.8264
7181.00000 0.8275
7182.00000 0.8266
7183.00000 0.8276
7184.00000 0.8275
7185.00000 0.8285
7186.00000 0.8299
7187.00000 0.8298
7188.00000 0.8303
7189.00000 0.83
7190.00000 0.831
7191.00000 0.8315
7192.00000 0.8336
7193.00000 0.8325
7194.00000 0.8326
7195.00000 0.8345
7196.00000 0.8355
7197.00000 0.8356
7198.00000 0.8359
7199.00000 0.8382
7200.00000 0.8377
7201.00000 0.8403
7202.00000 0.8379
7203.00000 0.8381
7204.00000 0.8412
7205.00000 0.8411
7206.00000 0.8422
7207.00000 0.8412
7208.00000 0.8439
7209.00000 0.8458
7210.00000 0.8449
7211.00000 0.8465
7212.00000 0.846
7213.00000 0.8481
7214.00000 0.8483
7215.00000 0.8487
7216.00000 0.8502
7217.00000 0.8501
7218.00000 0.8508
7219.00000 0.8513
7220.00000 0.8525
7221.00000 0.8524
7222.00000 0.8529
7223.00000 0.8541
7224.00000 0.8533
7225.00000 0.8539
7226.00000 0.8551
7227.00000 0.8563
7228.00000 0.8554
7229.00000 0.8555
7230.00000 0.8553
7231.00000 0.8562
7232.00000 0.8565
7233.00000 0.8549
7234.00000 0.856
7235.00000 0.8542
7236.00000 0.8547
7237.00000 0.8528
7238.00000 0.8537
7239.00000 0.8547
7240.00000 0.8543
7241.00000 0.8552
7242.00000 0.8562
7243.00000 0.8567
7244.00000 0.8585
7245.00000 0.8585
7246.00000 0.8606
7247.00000 0.8606
7248.00000 0.8612
7249.00000 0.8621
7250.00000 0.8633
7251.00000 0.8629
7252.00000 0.8643
7253.00000 0.865
7254.00000 0.8647
7255.00000 0.8653
7256.00000 0.8649
7257.00000 0.8651
7258.00000 0.8631
7259.00000 0.8617
7260.00000 0.8628
7261.00000 0.8615
7262.00000 0.8602
7263.00000 0.859
7264.00000 0.8578
7265.00000 0.8566
7266.00000 0.8581
7267.00000 0.8577
7268.00000 0.8587
7269.00000 0.8586
7270.00000 0.8577
7271.00000 0.8596
7272.00000 0.8587
7273.00000 0.8573
7274.00000 0.8544
7275.00000 0.8469
7276.00000 0.8367
7277.00000 0.8194
7278.00000 0.7951
7279.00000 0.7646
7280.00000 0.7274
7281.00000 0.6821
7282.00000 0.6245
7283.00000 0.5652
7284.00000 0.5015
7285.00000 0.4406
7286.00000 0.3765
7287.00000 0.3218
7288.00000 0.2717
7289.00000 0.23
7290.00000 0.1906
7291.00000 0.1571
7292.00000 0.1293
7293.00000 0.1069
7294.00000 0.0883
7295.00000 0.0725
7296.00000 0.0598
7297.00000 0.0494
7298.00000 0.0416
7299.00000 0.0345
7300.00000 0.029
7301.00000 0.0244
7302.00000 0.0207
7303.00000 0.0176
7304.00000 0.0148
7305.00000 0.0125
7306.00000 0.0107
7307.00000 0.0092
7308.00000 0.0078
7309.00000 0.0068
7310.00000 0.0058
7311.00000 0.0051
7312.00000 0.0044
7313.00000 0.0039
7314.00000 0.0034
7315.00000 0.003
7316.00000 0.0026
7317.00000 0.0023
7318.00000 0.002
7319.00000 0.0018
7320.00000 0.0016
7321.00000 0.0014
7322.00000 0.0012
7323.00000 0.0011
7324.00000 0.001
7325.00000 0.0008
7326.00000 0.0008
7327.00000 0.0007
7328.00000 0.0006
7329.00000 0.0005
7330.00000 0.0005
7331.00000 0.0004
7332.00000 0.0004
7333.00000 0.0004
7334.00000 0.0003
7335.00000 0.0003
7336.00000 0.0003
7337.00000 0.0002
7338.00000 0.0002
7339.00000 0.0002
7340.00000 0.0002
7341.00000 0.0002
7342.00000 0.0002
7343.00000 0.0001
7344.00000 0.0001
7345.00000 0.0001
7346.00000 0.0001
7347.00000 0.0001
7348.00000 0.0001
7349.00000 0.0001
7350.00000 0.0001
7351.00000 0.0001
7352.00000 0.0001
7353.00000 0.0001
7354.00000 0.0001
8089.39990 0.0
