# %ECSV 0.9
# ---
# datatype:
# - {name: wavelength, unit: Angstrom, datatype: float32}
# - {name: response, datatype: float32}
# meta: !!omap
# - {band_name: J0660}
# - {group_name: JPAS}
wavelength response
5827.50000 0.0
6475.00000 0.0001
6476.00000 0.0001
6477.00000 0.0001
6478.00000 0.0001
6479.00000 0.0001
6480.00000 0.0001
6481.00000 0.0001
6482.00000 0.0001
6483.00000 0.0001
6484.00000 0.0002
6485.00000 0.0002
6486.00000 0.0002
6487.00000 0.0002
6488.00000 0.0003
6489.00000 0.0003
6490.00000 0.0003
6491.00000 0.0004
6492.00000 0.0004
6493.00000 0.0005
6494.00000 0.0005
6495.00000 0.0006
6496.00000 0.0007
6497.00000 0.0008
6498.00000 0.0009
6499.00000 0.001
6500.00000 0.0011
6501.00000 0.0013
6502.00000 0.0015
6503.00000 0.0017
6504.00000 0.0019
6505.00000 0.0022
6506.00000 0.0026
6507.00000 0.003
6508.00000 0.0035
6509.00000 0.0042
6510.00000 0.0049
6511.00000 0.0057
6512.00000 0.0067
6513.00000 0.0078
6514.00000 0.0093
6515.00000 0.0109
6516.00000 0.013
6517.00000 0.0155
6518.00000 0.0191
6519.00000 0.0231
6520.00000 0.0279
6521.00000 0.0336
6522.00000 0.0416
6523.00000 0.0501
6524.00000 0.0613
6525.00000 0.0745
6526.00000 0.092
6527.00000 0.1152
6528.00000 0.1421
6529.00000 0.1768
6530.00000 0.2163
6531.00000 0.2697
6532.00000 0.3245
6533.00000 0.3897
6534.00000 0.4533
6535.00000 0.529
6536.00000 0.6007
6537.00000 0.673
6538.00000 0.7375
6539.00000 0.7891
6540.00000 0.8319
6541.00000 0.8575
6542.00000 0.8746
6543.00000 0.882
6544.00000 0.8851
6545.00000 0.8845
6546.00000 0.8818
6547.00000 0.8778
6548.00000 0.873
6549.00000 0.8698
6550.00000 0.8673
6551.00000 0.8671
6552.00000 0.8673
6553.00000 0.8683
6554.00000 0.8695
6555.00000 0.8705
6556.00000 0.8717
6557.00000 0.8735
6558.00000 0.8746
6559.00000 0.8769
6560.00000 0.88
6561.00000 0.8838
6562.00000 0.8869
6563.00000 0.8887
6564.00000 0.8907
6565.00000 0.892
6566.00000 0.8922
6567.00000 0.8933
6568.00000 0.893
6569.00000 0.8926
6570.00000 0.8922
6571.00000 0.8921
6572.00000 0.8922
6573.00000 0.8914
6574.00000 0.8913
6575.00000 0.8919
6576.00000 0.8912
6577.00000 0.8913
6578.00000 0.8905
6579.00000 0.8901
6580.00000 0.889
6581.00000 0.8883
6582.00000 0.8876
6583.00000 0.8883
6584.00000 0.8888
6585.00000 0.8894
6586.00000 0.8905
6587.00000 0.8915
6588.00000 0.892
6589.00000 0.8921
6590.00000 0.8919
6591.00000 0.8916
6592.00000 0.892
6593.00000 0.8924
6594.00000 0.8924
6595.00000 0.894
6596.00000 0.8945
6597.00000 0.8945
6598.00000 0.8954
6599.00000 0.896
6600.00000 0.8954
6601.00000 0.8955
6602.00000 0.8949
6603.00000 0.8952
6604.00000 0.8957
6605.00000 0.8958
6606.00000 0.8964
6607.00000 0.8961
6608.00000 0.8958
6609.00000 0.8964
6610.00000 0.8955
6611.00000 0.8957
6612.00000 0.8961
6613.00000 0.8953
6614.00000 0.895
6615.00000 0.8955
6616.00000 0.896
6617.00000 0.8959
6618.00000 0.8954
6619.00000 0.8946
6620.00000 0.8943
6621.00000 0.8932
6622.00000 0.8933
6623.00000 0.8923
6624.00000 0.8922
6625.00000 0.8921
6626.00000 0.8922
6627.00000 0.8919
6628.00000 0.8919
6629.00000 0.8918
6630.00000 0.8909
6631.00000 0.8894
6632.00000 0.888
6633.00000 0.8881
6634.00000 0.8886
6635.00000 0.8887
6636.00000 0.8902
6637.00000 0.8909
6638.00000 0.8911
6639.00000 0.8906
6640.00000 0.8909
6641.00000 0.8902
6642.00000 0.8907
6643.00000 0.891
6644.00000 0.8911
6645.00000 0.8926
6646.00000 0.893
6647.00000 0.8935
6648.00000 0.8931
6649.00000 0.8916
6650.00000 0.8919
6651.00000 0.8913
6652.00000 0.8903
6653.00000 0.8895
6654.00000 0.8872
6655.00000 0.885
6656.00000 0.8833
6657.00000 0.8812
6658.00000 0.8794
6659.00000 0.8778
6660.00000 0.8775
6661.00000 0.8778
6662.00000 0.8764
6663.00000 0.877
6664.00000 0.8779
6665.00000 0.877
6666.00000 0.8784
6667.00000 0.8789
6668.00000 0.8807
6669.00000 0.8825
6670.00000 0.8832
6671.00000 0.8817
6672.00000 0.8769
6673.00000 0.8675
6674.00000 0.8504
6675.00000 0.8284
6676.00000 0.7954
6677.00000 0.7557
6678.00000 0.7048
6679.00000 0.6434
6680.00000 0.5774
6681.00000 0.509
6682.00000 0.4456
6683.00000 0.379
6684.00000 0.324
6685.00000 0.2712
6686.00000 0.228
6687.00000 0.1859
6688.00000 0.1534
6689.00000 0.1246
6690.00000 0.1021
6691.00000 0.0835
6692.00000 0.0685
6693.00000 0.0572
6694.00000 0.0477
6695.00000 0.0403
6696.00000 0.0334
6697.00000 0.0282
6698.00000 0.0234
6699.00000 0.0196
6700.00000 0.0162
6701.00000 0.0137
6702.00000 0.0117
6703.00000 0.0101
6704.00000 0.0087
6705.00000 0.0074
6706.00000 0.0064
6707.00000 0.0056
6708.00000 0.0049
6709.00000 0.0042
6710.00000 0.0036
6711.00000 0.0031
6712.00000 0.0027
6713.00000 0.0024
6714.00000 0.0021
6715.00000 0.0019
6716.00000 0.0016
6717.00000 0.0015
6718.00000 0.0013
6719.00000 0.0011
6720.00000 0.001
6721.00000 0.0009
6722.00000 0.0008
6723.00000 0.0007
6724.00000 0.0006
6725.00000 0.0006
6726.00000 0.0005
6727.00000 0.0005
6728.00000 0.0004
6729.00000 0.0004
6730.00000 0.0003
6731.00000 0.0003
6732.00000 0.0003
6733.00000 0.0002
6734.00000 0.0002
6735.00000 0.0002
6736.00000 0.0002
6737.00000 0.0001
6738.00000 0.0001
6739.00000 0.0001
6740.00000 0.0001
6741.00000 0.0001
6742.00000 0.0001
6743.00000 0.0001
6744.00000 0.0001
6745.00000 0.0001
6746.00000 0.0001
7420.60010 0.0
