# %ECSV 0.9
# ---
# datatype:
# - {name: wavelength, unit: Angstrom, datatype: float32}
# - {name: response, datatype: float32}
# meta: !!omap
# - {band_name: J0470}
# - {group_name: JPAS}
wavelength response
4112.10010 0.0
4569.00000 0.0001
4570.00000 0.0001
4571.00000 0.0001
4572.00000 0.0001
4573.00000 0.0001
4574.00000 0.0001
4575.00000 0.0001
4576.00000 0.0001
4577.00000 0.0001
4578.00000 0.0001
4579.00000 0.0002
4580.00000 0.0002
4581.00000 0.0002
4582.00000 0.0002
4583.00000 0.0003
4584.00000 0.0003
4585.00000 0.0003
4586.00000 0.0004
4587.00000 0.0004
4588.00000 0.0005
4589.00000 0.0006
4590.00000 0.0006
4591.00000 0.0007
4592.00000 0.0008
4593.00000 0.0009
4594.00000 0.001
4595.00000 0.0011
4596.00000 0.0013
4597.00000 0.0015
4598.00000 0.0017
4599.00000 0.0019
4600.00000 0.0022
4601.00000 0.0025
4602.00000 0.003
4603.00000 0.0034
4604.00000 0.004
4605.00000 0.0046
4606.00000 0.0053
4607.00000 0.0062
4608.00000 0.0073
4609.00000 0.0086
4610.00000 0.0101
4611.00000 0.012
4612.00000 0.0141
4613.00000 0.0168
4614.00000 0.0196
4615.00000 0.0233
4616.00000 0.0278
4617.00000 0.0336
4618.00000 0.0403
4619.00000 0.0484
4620.00000 0.0587
4621.00000 0.0702
4622.00000 0.0835
4623.00000 0.0999
4624.00000 0.122
4625.00000 0.1468
4626.00000 0.1757
4627.00000 0.2056
4628.00000 0.2421
4629.00000 0.2824
4630.00000 0.326
4631.00000 0.3715
4632.00000 0.4133
4633.00000 0.4558
4634.00000 0.4945
4635.00000 0.5298
4636.00000 0.5581
4637.00000 0.5845
4638.00000 0.6028
4639.00000 0.6167
4640.00000 0.6249
4641.00000 0.632
4642.00000 0.6363
4643.00000 0.639
4644.00000 0.6401
4645.00000 0.6411
4646.00000 0.6415
4647.00000 0.6413
4648.00000 0.6429
4649.00000 0.6427
4650.00000 0.6448
4651.00000 0.6457
4652.00000 0.6469
4653.00000 0.6487
4654.00000 0.6506
4655.00000 0.6538
4656.00000 0.6553
4657.00000 0.6576
4658.00000 0.6602
4659.00000 0.6632
4660.00000 0.6665
4661.00000 0.6696
4662.00000 0.6716
4663.00000 0.6745
4664.00000 0.677
4665.00000 0.6803
4666.00000 0.6822
4667.00000 0.6846
4668.00000 0.6872
4669.00000 0.6893
4670.00000 0.6905
4671.00000 0.6926
4672.00000 0.6948
4673.00000 0.6956
4674.00000 0.6978
4675.00000 0.6984
4676.00000 0.6994
4677.00000 0.6997
4678.00000 0.7009
4679.00000 0.7013
4680.00000 0.7018
4681.00000 0.7024
4682.00000 0.702
4683.00000 0.7026
4684.00000 0.7027
4685.00000 0.7024
4686.00000 0.7025
4687.00000 0.7018
4688.00000 0.7013
4689.00000 0.7015
4690.00000 0.7007
4691.00000 0.7004
4692.00000 0.6988
4693.00000 0.6987
4694.00000 0.6977
4695.00000 0.697
4696.00000 0.6978
4697.00000 0.6963
4698.00000 0.6956
4699.00000 0.6957
4700.00000 0.6951
4701.00000 0.6957
4702.00000 0.6945
4703.00000 0.6939
4704.00000 0.6939
4705.00000 0.6935
4706.00000 0.6932
4707.00000 0.6929
4708.00000 0.6929
4709.00000 0.6926
4710.00000 0.6934
4711.00000 0.6934
4712.00000 0.6937
4713.00000 0.6929
4714.00000 0.694
4715.00000 0.6945
4716.00000 0.6954
4717.00000 0.6955
4718.00000 0.6963
4719.00000 0.6958
4720.00000 0.6962
4721.00000 0.6971
4722.00000 0.6977
4723.00000 0.6983
4724.00000 0.6988
4725.00000 0.6998
4726.00000 0.7002
4727.00000 0.7015
4728.00000 0.7026
4729.00000 0.7024
4730.00000 0.7036
4731.00000 0.7039
4732.00000 0.7053
4733.00000 0.7051
4734.00000 0.7065
4735.00000 0.7072
4736.00000 0.707
4737.00000 0.7089
4738.00000 0.7094
4739.00000 0.7102
4740.00000 0.7105
4741.00000 0.7103
4742.00000 0.7115
4743.00000 0.7111
4744.00000 0.7115
4745.00000 0.7118
4746.00000 0.7112
4747.00000 0.7116
4748.00000 0.712
4749.00000 0.7122
4750.00000 0.7125
4751.00000 0.7118
4752.00000 0.7119
4753.00000 0.7122
4754.00000 0.7114
4755.00000 0.7124
4756.00000 0.7125
4757.00000 0.7123
4758.00000 0.712
4759.00000 0.712
4760.00000 0.7116
4761.00000 0.7094
4762.00000 0.7076
4763.00000 0.704
4764.00000 0.6987
4765.00000 0.6929
4766.00000 0.6838
4767.00000 0.6691
4768.00000 0.6544
4769.00000 0.6338
4770.00000 0.6107
4771.00000 0.581
4772.00000 0.549
4773.00000 0.5119
4774.00000 0.4743
4775.00000 0.4329
4776.00000 0.3885
4777.00000 0.3479
4778.00000 0.308
4779.00000 0.2708
4780.00000 0.2333
4781.00000 0.2028
4782.00000 0.1734
4783.00000 0.15
4784.00000 0.1275
4785.00000 0.1093
4786.00000 0.0932
4787.00000 0.0793
4788.00000 0.0677
4789.00000 0.0576
4790.00000 0.0496
4791.00000 0.0421
4792.00000 0.0365
4793.00000 0.0308
4794.00000 0.0267
4795.00000 0.0228
4796.00000 0.0199
4797.00000 0.017
4798.00000 0.0148
4799.00000 0.0129
4800.00000 0.0112
4801.00000 0.0098
4802.00000 0.0085
4803.00000 0.0075
4804.00000 0.0066
4805.00000 0.0058
4806.00000 0.0051
4807.00000 0.0045
4808.00000 0.004
4809.00000 0.0035
4810.00000 0.0031
4811.00000 0.0028
4812.00000 0.0025
4813.00000 0.0022
4814.00000 0.002
4815.00000 0.0017
4816.00000 0.0016
4817.00000 0.0014
4818.00000 0.0013
4819.00000 0.0011
4820.00000 0.001
4821.00000 0.0009
4822.00000 0.0008
4823.00000 0.0008
4824.00000 0.0007
4825.00000 0.0006
4826.00000 0.0006
4827.00000 0.0005
4828.00000 0.0005
4829.00000 0.0004
4830.00000 0.0004
4831.00000 0.0004
4832.00000 0.0003
4833.00000 0.0003
4834.00000 0.0003
4835.00000 0.0002
4836.00000 0.0002
4837.00000 0.0002
4838.00000 0.0002
4839.00000 0.0002
4840.00000 0.0002
4841.00000 0.0002
4842.00000 0.0001
4843.00000 0.0001
4844.00000 0.0001
4845.00000 0.0001
4846.00000 0.0001
4847.00000 0.0001
4848.00000 0.0001
4849.00000 0.0001
4850.00000 0.0001
4851.00000 0.0001
4852.00000 0.0001
4853.00000 0.0001
4854.00000 0.0001
5339.39990 0.0
