# %ECSV 0.9
# ---
# datatype:
# - {name: wavelength, unit: Angstrom, datatype: float32}
# - {name: response, datatype: float32}
# meta: !!omap
# - {band_name: J0410}
# - {group_name: JPAS}
wavelength response
3580.19995 0.0
3978.00000 0.0001
3979.00000 0.0001
3980.00000 0.0001
3981.00000 0.0001
3982.00000 0.0001
3983.00000 0.0001
3984.00000 0.0001
3985.00000 0.0001
3986.00000 0.0001
3987.00000 0.0001
3988.00000 0.0002
3989.00000 0.0002
3990.00000 0.0002
3991.00000 0.0002
3992.00000 0.0002
3993.00000 0.0002
3994.00000 0.0003
3995.00000 0.0003
3996.00000 0.0003
3997.00000 0.0004
3998.00000 0.0004
3999.00000 0.0005
4000.00000 0.0005
4001.00000 0.0006
4002.00000 0.0007
4003.00000 0.0007
4004.00000 0.0008
4005.00000 0.0009
4006.00000 0.001
4007.00000 0.0012
4008.00000 0.0014
4009.00000 0.0015
4010.00000 0.0018
4011.00000 0.002
4012.00000 0.0023
4013.00000 0.0026
4014.00000 0.003
4015.00000 0.0034
4016.00000 0.0039
4017.00000 0.0045
4018.00000 0.0052
4019.00000 0.006
4020.00000 0.007
4021.00000 0.0081
4022.00000 0.0095
4023.00000 0.0111
4024.00000 0.0132
4025.00000 0.0153
4026.00000 0.0182
4027.00000 0.0214
4028.00000 0.0252
4029.00000 0.0298
4030.00000 0.0356
4031.00000 0.0427
4032.00000 0.0509
4033.00000 0.0609
4034.00000 0.0723
4035.00000 0.0876
4036.00000 0.1042
4037.00000 0.1256
4038.00000 0.1486
4039.00000 0.1787
4040.00000 0.2097
4041.00000 0.2451
4042.00000 0.2814
4043.00000 0.3243
4044.00000 0.3703
4045.00000 0.4124
4046.00000 0.4534
4047.00000 0.4886
4048.00000 0.5239
4049.00000 0.5503
4050.00000 0.5737
4051.00000 0.59
4052.00000 0.6046
4053.00000 0.6128
4054.00000 0.6204
4055.00000 0.6231
4056.00000 0.6257
4057.00000 0.627
4058.00000 0.628
4059.00000 0.6283
4060.00000 0.6286
4061.00000 0.6298
4062.00000 0.631
4063.00000 0.6304
4064.00000 0.6316
4065.00000 0.6326
4066.00000 0.6333
4067.00000 0.635
4068.00000 0.635
4069.00000 0.6373
4070.00000 0.6376
4071.00000 0.638
4072.00000 0.6389
4073.00000 0.6395
4074.00000 0.6386
4075.00000 0.6389
4076.00000 0.6379
4077.00000 0.6372
4078.00000 0.6363
4079.00000 0.6352
4080.00000 0.6336
4081.00000 0.632
4082.00000 0.6295
4083.00000 0.6282
4084.00000 0.6255
4085.00000 0.6239
4086.00000 0.6232
4087.00000 0.6202
4088.00000 0.6195
4089.00000 0.6171
4090.00000 0.6162
4091.00000 0.615
4092.00000 0.6138
4093.00000 0.6137
4094.00000 0.6136
4095.00000 0.6134
4096.00000 0.6137
4097.00000 0.6134
4098.00000 0.6137
4099.00000 0.6159
4100.00000 0.6168
4101.00000 0.6173
4102.00000 0.6207
4103.00000 0.6221
4104.00000 0.6248
4105.00000 0.6284
4106.00000 0.6289
4107.00000 0.6313
4108.00000 0.6348
4109.00000 0.6377
4110.00000 0.6405
4111.00000 0.6435
4112.00000 0.6459
4113.00000 0.649
4114.00000 0.6514
4115.00000 0.6533
4116.00000 0.6557
4117.00000 0.6563
4118.00000 0.6585
4119.00000 0.6592
4120.00000 0.6616
4121.00000 0.6626
4122.00000 0.6645
4123.00000 0.6639
4124.00000 0.6646
4125.00000 0.6645
4126.00000 0.6639
4127.00000 0.6641
4128.00000 0.6629
4129.00000 0.6633
4130.00000 0.6624
4131.00000 0.6611
4132.00000 0.6596
4133.00000 0.6594
4134.00000 0.6572
4135.00000 0.6571
4136.00000 0.6549
4137.00000 0.654
4138.00000 0.6527
4139.00000 0.6514
4140.00000 0.6505
4141.00000 0.6508
4142.00000 0.6485
4143.00000 0.6476
4144.00000 0.6469
4145.00000 0.6475
4146.00000 0.6452
4147.00000 0.645
4148.00000 0.6447
4149.00000 0.644
4150.00000 0.6432
4151.00000 0.6443
4152.00000 0.643
4153.00000 0.6433
4154.00000 0.643
4155.00000 0.643
4156.00000 0.6433
4157.00000 0.6431
4158.00000 0.644
4159.00000 0.6453
4160.00000 0.6454
4161.00000 0.6459
4162.00000 0.6463
4163.00000 0.6487
4164.00000 0.6492
4165.00000 0.651
4166.00000 0.6527
4167.00000 0.6537
4168.00000 0.6548
4169.00000 0.6567
4170.00000 0.6565
4171.00000 0.6577
4172.00000 0.6555
4173.00000 0.6541
4174.00000 0.6501
4175.00000 0.6445
4176.00000 0.6362
4177.00000 0.6259
4178.00000 0.6118
4179.00000 0.5942
4180.00000 0.5712
4181.00000 0.5468
4182.00000 0.5154
4183.00000 0.4846
4184.00000 0.4493
4185.00000 0.4153
4186.00000 0.3783
4187.00000 0.3411
4188.00000 0.3055
4189.00000 0.2728
4190.00000 0.2423
4191.00000 0.2115
4192.00000 0.1859
4193.00000 0.1612
4194.00000 0.141
4195.00000 0.121
4196.00000 0.106
4197.00000 0.0916
4198.00000 0.0799
4199.00000 0.0694
4200.00000 0.06
4201.00000 0.0522
4202.00000 0.0455
4203.00000 0.04
4204.00000 0.0347
4205.00000 0.0305
4206.00000 0.0265
4207.00000 0.0235
4208.00000 0.0204
4209.00000 0.018
4210.00000 0.0159
4211.00000 0.0141
4212.00000 0.0124
4213.00000 0.0111
4214.00000 0.0098
4215.00000 0.0087
4216.00000 0.0078
4217.00000 0.0069
4218.00000 0.0062
4219.00000 0.0056
4220.00000 0.005
4221.00000 0.0044
4222.00000 0.004
4223.00000 0.0036
4224.00000 0.0033
4225.00000 0.0029
4226.00000 0.0026
4227.00000 0.0024
4228.00000 0.0022
4229.00000 0.002
4230.00000 0.0018
4231.00000 0.0016
4232.00000 0.0015
4233.00000 0.0013
4234.00000 0.0012
4235.00000 0.0011
4236.00000 0.001
4237.00000 0.0009
4238.00000 0.0009
4239.00000 0.0008
4240.00000 0.0007
4241.00000 0.0007
4242.00000 0.0006
4243.00000 0.0006
4244.00000 0.0005
4245.00000 0.0005
4246.00000 0.0004
4247.00000 0.0004
4248.00000 0.0004
4249.00000 0.0003
4250.00000 0.0003
4251.00000 0.0003
4252.00000 0.0003
4253.00000 0.0002
4254.00000 0.0002
4255.00000 0.0002
4256.00000 0.0002
4257.00000 0.0002
4258.00000 0.0002
4259.00000 0.0002
4260.00000 0.0002
4261.00000 0.0001
4262.00000 0.0001
4263.00000 0.0001
4264.00000 0.0001
4265.00000 0.0001
4266.00000 0.0001
4267.00000 0.0001
4268.00000 0.0001
4269.00000 0.0001
4270.00000 0.0001
4271.00000 0.0001
4272.00000 0.0001
4273.00000 0.0001
4274.00000 0.0001
4275.00000 0.0001
4276.00000 0.0001
4277.00000 0.0001
4704.70020 0.0
