# %ECSV 0.9
# ---
# datatype:
# - {name: wavelength, unit: Angstrom, datatype: float32}
# - {name: response, datatype: float32}
# meta: !!omap
# - {band_name: J0680}
# - {group_name: JPAS}
wavelength response
6008.39990 0.0
6676.00000 0.0001
6677.00000 0.0001
6678.00000 0.0001
6679.00000 0.0001
6680.00000 0.0001
6681.00000 0.0001
6682.00000 0.0001
6683.00000 0.0001
6684.00000 0.0001
6685.00000 0.0002
6686.00000 0.0002
6687.00000 0.0002
6688.00000 0.0002
6689.00000 0.0002
6690.00000 0.0003
6691.00000 0.0003
6692.00000 0.0004
6693.00000 0.0004
6694.00000 0.0004
6695.00000 0.0005
6696.00000 0.0006
6697.00000 0.0006
6698.00000 0.0007
6699.00000 0.0008
6700.00000 0.0009
6701.00000 0.0011
6702.00000 0.0012
6703.00000 0.0014
6704.00000 0.0016
6705.00000 0.0018
6706.00000 0.0021
6707.00000 0.0024
6708.00000 0.0027
6709.00000 0.0032
6710.00000 0.0036
6711.00000 0.0042
6712.00000 0.0048
6713.00000 0.0057
6714.00000 0.0067
6715.00000 0.0079
6716.00000 0.0092
6717.00000 0.0109
6718.00000 0.0129
6719.00000 0.0152
6720.00000 0.018
6721.00000 0.0213
6722.00000 0.0255
6723.00000 0.0302
6724.00000 0.0366
6725.00000 0.0438
6726.00000 0.0539
6727.00000 0.065
6728.00000 0.0792
6729.00000 0.095
6730.00000 0.1158
6731.00000 0.1398
6732.00000 0.1693
6733.00000 0.202
6734.00000 0.2409
6735.00000 0.2886
6736.00000 0.3374
6737.00000 0.3957
6738.00000 0.4534
6739.00000 0.5216
6740.00000 0.5792
6741.00000 0.6388
6742.00000 0.6878
6743.00000 0.735
6744.00000 0.7736
6745.00000 0.8058
6746.00000 0.8305
6747.00000 0.8495
6748.00000 0.8644
6749.00000 0.8732
6750.00000 0.8794
6751.00000 0.8836
6752.00000 0.8859
6753.00000 0.8874
6754.00000 0.8879
6755.00000 0.8879
6756.00000 0.8895
6757.00000 0.8889
6758.00000 0.8888
6759.00000 0.8901
6760.00000 0.8898
6761.00000 0.8901
6762.00000 0.8913
6763.00000 0.8907
6764.00000 0.8902
6765.00000 0.8904
6766.00000 0.8906
6767.00000 0.8909
6768.00000 0.8897
6769.00000 0.8892
6770.00000 0.8889
6771.00000 0.8883
6772.00000 0.8879
6773.00000 0.8878
6774.00000 0.8862
6775.00000 0.8859
6776.00000 0.8853
6777.00000 0.8844
6778.00000 0.885
6779.00000 0.8847
6780.00000 0.8855
6781.00000 0.885
6782.00000 0.8839
6783.00000 0.8843
6784.00000 0.8845
6785.00000 0.885
6786.00000 0.8864
6787.00000 0.886
6788.00000 0.8864
6789.00000 0.8872
6790.00000 0.8878
6791.00000 0.8887
6792.00000 0.8894
6793.00000 0.89
6794.00000 0.8913
6795.00000 0.8914
6796.00000 0.8922
6797.00000 0.8922
6798.00000 0.8934
6799.00000 0.8939
6800.00000 0.8944
6801.00000 0.8951
6802.00000 0.8954
6803.00000 0.8956
6804.00000 0.8957
6805.00000 0.8958
6806.00000 0.8956
6807.00000 0.8953
6808.00000 0.894
6809.00000 0.8939
6810.00000 0.8931
6811.00000 0.893
6812.00000 0.893
6813.00000 0.8923
6814.00000 0.8916
6815.00000 0.8911
6816.00000 0.8905
6817.00000 0.8898
6818.00000 0.8891
6819.00000 0.8884
6820.00000 0.8871
6821.00000 0.8865
6822.00000 0.8858
6823.00000 0.8855
6824.00000 0.8851
6825.00000 0.8843
6826.00000 0.8828
6827.00000 0.8818
6828.00000 0.8815
6829.00000 0.8808
6830.00000 0.8795
6831.00000 0.8782
6832.00000 0.8775
6833.00000 0.8759
6834.00000 0.8754
6835.00000 0.8744
6836.00000 0.8731
6837.00000 0.8715
6838.00000 0.8709
6839.00000 0.8695
6840.00000 0.8689
6841.00000 0.8682
6842.00000 0.867
6843.00000 0.8666
6844.00000 0.865
6845.00000 0.8644
6846.00000 0.863
6847.00000 0.8628
6848.00000 0.8613
6849.00000 0.8598
6850.00000 0.8575
6851.00000 0.8564
6852.00000 0.8548
6853.00000 0.8519
6854.00000 0.8496
6855.00000 0.8473
6856.00000 0.845
6857.00000 0.8423
6858.00000 0.8397
6859.00000 0.838
6860.00000 0.8359
6861.00000 0.8321
6862.00000 0.8303
6863.00000 0.8279
6864.00000 0.8261
6865.00000 0.8249
6866.00000 0.8238
6867.00000 0.8237
6868.00000 0.8241
6869.00000 0.8258
6870.00000 0.8281
6871.00000 0.8308
6872.00000 0.8336
6873.00000 0.8354
6874.00000 0.8365
6875.00000 0.8359
6876.00000 0.8322
6877.00000 0.8246
6878.00000 0.8106
6879.00000 0.7907
6880.00000 0.7611
6881.00000 0.7262
6882.00000 0.6791
6883.00000 0.6278
6884.00000 0.5696
6885.00000 0.5096
6886.00000 0.4458
6887.00000 0.3842
6888.00000 0.3283
6889.00000 0.2776
6890.00000 0.2324
6891.00000 0.19
6892.00000 0.1568
6893.00000 0.1285
6894.00000 0.107
6895.00000 0.0872
6896.00000 0.0726
6897.00000 0.0601
6898.00000 0.0503
6899.00000 0.0416
6900.00000 0.0347
6901.00000 0.0292
6902.00000 0.0245
6903.00000 0.0208
6904.00000 0.0174
6905.00000 0.0146
6906.00000 0.0124
6907.00000 0.0107
6908.00000 0.0092
6909.00000 0.0079
6910.00000 0.0069
6911.00000 0.0059
6912.00000 0.0051
6913.00000 0.0044
6914.00000 0.0038
6915.00000 0.0034
6916.00000 0.003
6917.00000 0.0026
6918.00000 0.0023
6919.00000 0.002
6920.00000 0.0018
6921.00000 0.0015
6922.00000 0.0014
6923.00000 0.0012
6924.00000 0.0011
6925.00000 0.001
6926.00000 0.0008
6927.00000 0.0008
6928.00000 0.0007
6929.00000 0.0006
6930.00000 0.0005
6931.00000 0.0005
6932.00000 0.0004
6933.00000 0.0004
6934.00000 0.0003
6935.00000 0.0003
6936.00000 0.0003
6937.00000 0.0003
6938.00000 0.0002
6939.00000 0.0002
6940.00000 0.0002
6941.00000 0.0002
6942.00000 0.0002
6943.00000 0.0001
6944.00000 0.0001
6945.00000 0.0001
6946.00000 0.0001
6947.00000 0.0001
6948.00000 0.0001
6949.00000 0.0001
6950.00000 0.0001
6951.00000 0.0001
6952.00000 0.0001
7647.20020 0.0
