# %ECSV 0.9
# ---
# datatype:
# - {name: wavelength, unit: Angstrom, datatype: float32}
# - {name: response, datatype: float32}
# meta: !!omap
# - {band_name: J0710}
# - {group_name: JPAS}
wavelength response
6288.29980 0.0
6987.00000 0.0001
6988.00000 0.0001
6989.00000 0.0001
6990.00000 0.0001
6991.00000 0.0001
6992.00000 0.0001
6993.00000 0.0001
6994.00000 0.0001
6995.00000 0.0001
6996.00000 0.0001
6997.00000 0.0002
6998.00000 0.0002
6999.00000 0.0002
7000.00000 0.0002
7001.00000 0.0003
7002.00000 0.0003
7003.00000 0.0003
7004.00000 0.0004
7005.00000 0.0004
7006.00000 0.0005
7007.00000 0.0005
7008.00000 0.0006
7009.00000 0.0007
7010.00000 0.0007
7011.00000 0.0008
7012.00000 0.0009
7013.00000 0.0011
7014.00000 0.0012
7015.00000 0.0014
7016.00000 0.0015
7017.00000 0.0018
7018.00000 0.002
7019.00000 0.0023
7020.00000 0.0026
7021.00000 0.0031
7022.00000 0.0035
7023.00000 0.0042
7024.00000 0.0048
7025.00000 0.0056
7026.00000 0.0065
7027.00000 0.0075
7028.00000 0.0088
7029.00000 0.0104
7030.00000 0.0124
7031.00000 0.0147
7032.00000 0.0174
7033.00000 0.0206
7034.00000 0.0247
7035.00000 0.0297
7036.00000 0.0355
7037.00000 0.0424
7038.00000 0.0509
7039.00000 0.0626
7040.00000 0.0761
7041.00000 0.0933
7042.00000 0.1132
7043.00000 0.1393
7044.00000 0.1666
7045.00000 0.2011
7046.00000 0.238
7047.00000 0.2836
7048.00000 0.3374
7049.00000 0.3973
7050.00000 0.4613
7051.00000 0.523
7052.00000 0.5933
7053.00000 0.6507
7054.00000 0.7053
7055.00000 0.7503
7056.00000 0.7931
7057.00000 0.8246
7058.00000 0.8521
7059.00000 0.8712
7060.00000 0.8854
7061.00000 0.8932
7062.00000 0.8971
7063.00000 0.8993
7064.00000 0.9006
7065.00000 0.9018
7066.00000 0.9032
7067.00000 0.9026
7068.00000 0.9026
7069.00000 0.9021
7070.00000 0.9025
7071.00000 0.9025
7072.00000 0.9042
7073.00000 0.9045
7074.00000 0.9051
7075.00000 0.9068
7076.00000 0.9087
7077.00000 0.91
7078.00000 0.9088
7079.00000 0.9102
7080.00000 0.9105
7081.00000 0.9115
7082.00000 0.9114
7083.00000 0.9113
7084.00000 0.9119
7085.00000 0.9111
7086.00000 0.912
7087.00000 0.9122
7088.00000 0.9122
7089.00000 0.9125
7090.00000 0.9121
7091.00000 0.9117
7092.00000 0.9119
7093.00000 0.9106
7094.00000 0.9111
7095.00000 0.9101
7096.00000 0.9113
7097.00000 0.9116
7098.00000 0.9121
7099.00000 0.9122
7100.00000 0.913
7101.00000 0.9128
7102.00000 0.913
7103.00000 0.9113
7104.00000 0.9125
7105.00000 0.9127
7106.00000 0.9124
7107.00000 0.9126
7108.00000 0.9128
7109.00000 0.9131
7110.00000 0.9127
7111.00000 0.9124
7112.00000 0.912
7113.00000 0.9107
7114.00000 0.91
7115.00000 0.9109
7116.00000 0.9099
7117.00000 0.9098
7118.00000 0.909
7119.00000 0.9095
7120.00000 0.9094
7121.00000 0.909
7122.00000 0.9075
7123.00000 0.9074
7124.00000 0.9079
7125.00000 0.9077
7126.00000 0.908
7127.00000 0.9062
7128.00000 0.9057
7129.00000 0.9065
7130.00000 0.9048
7131.00000 0.9045
7132.00000 0.901
7133.00000 0.8998
7134.00000 0.8969
7135.00000 0.8956
7136.00000 0.8937
7137.00000 0.8924
7138.00000 0.891
7139.00000 0.8886
7140.00000 0.8865
7141.00000 0.8841
7142.00000 0.8813
7143.00000 0.8789
7144.00000 0.8777
7145.00000 0.8768
7146.00000 0.8753
7147.00000 0.8743
7148.00000 0.8715
7149.00000 0.8713
7150.00000 0.8701
7151.00000 0.8663
7152.00000 0.8657
7153.00000 0.8644
7154.00000 0.8629
7155.00000 0.8623
7156.00000 0.8629
7157.00000 0.8628
7158.00000 0.8616
7159.00000 0.8606
7160.00000 0.8612
7161.00000 0.8591
7162.00000 0.8573
7163.00000 0.8567
7164.00000 0.856
7165.00000 0.855
7166.00000 0.8531
7167.00000 0.8502
7168.00000 0.8491
7169.00000 0.8469
7170.00000 0.8446
7171.00000 0.8425
7172.00000 0.8401
7173.00000 0.839
7174.00000 0.8364
7175.00000 0.8326
7176.00000 0.8303
7177.00000 0.8288
7178.00000 0.8271
7179.00000 0.8261
7180.00000 0.8269
7181.00000 0.8292
7182.00000 0.831
7183.00000 0.8322
7184.00000 0.832
7185.00000 0.8304
7186.00000 0.8273
7187.00000 0.8224
7188.00000 0.8111
7189.00000 0.7963
7190.00000 0.7727
7191.00000 0.7392
7192.00000 0.7028
7193.00000 0.6558
7194.00000 0.6062
7195.00000 0.5466
7196.00000 0.4897
7197.00000 0.4285
7198.00000 0.3716
7199.00000 0.3131
7200.00000 0.2627
7201.00000 0.2186
7202.00000 0.1823
7203.00000 0.1528
7204.00000 0.1267
7205.00000 0.1056
7206.00000 0.087
7207.00000 0.0722
7208.00000 0.0577
7209.00000 0.0482
7210.00000 0.04
7211.00000 0.0337
7212.00000 0.0286
7213.00000 0.0244
7214.00000 0.0207
7215.00000 0.0178
7216.00000 0.015
7217.00000 0.0126
7218.00000 0.0108
7219.00000 0.0091
7220.00000 0.0077
7221.00000 0.0067
7222.00000 0.0059
7223.00000 0.0051
7224.00000 0.0045
7225.00000 0.0039
7226.00000 0.0035
7227.00000 0.003
7228.00000 0.0026
7229.00000 0.0023
7230.00000 0.002
7231.00000 0.0017
7232.00000 0.0015
7233.00000 0.0014
7234.00000 0.0012
7235.00000 0.0011
7236.00000 0.001
7237.00000 0.0009
7238.00000 0.0008
7239.00000 0.0007
7240.00000 0.0006
7241.00000 0.0005
7242.00000 0.0005
7243.00000 0.0004
7244.00000 0.0004
7245.00000 0.0003
7246.00000 0.0003
7247.00000 0.0003
7248.00000 0.0003
7249.00000 0.0003
7250.00000 0.0002
7251.00000 0.0002
7252.00000 0.0002
7253.00000 0.0002
7254.00000 0.0001
7255.00000 0.0001
7256.00000 0.0001
7257.00000 0.0001
7258.00000 0.0001
7259.00000 0.0001
7260.00000 0.0001
7261.00000 0.0001
7262.00000 0.0001
7263.00000 0.0001
7264.00000 0.0001
7990.39990 0.0
