# %ECSV 0.9
# ---
# datatype:
# - {name: wavelength, unit: Angstrom, datatype: float32}
# - {name: response, datatype: float32}
# meta: !!omap
# - {band_name: f_6170_590}
# - {group_name: CTIO}
wavelength response
5730.00000 0.0
5735.00000 0.001
5740.00000 0.001
5745.00000 0.001
5750.00000 0.002
5755.00000 0.003
5760.00000 0.004
5765.00000 0.005
5770.00000 0.007
5775.00000 0.01
5780.00000 0.013
5785.00000 0.017
5790.00000 0.022
5795.00000 0.028
5800.00000 0.035
5805.00000 0.043
5810.00000 0.052
5815.00000 0.063
5820.00000 0.075
5825.00000 0.087
5830.00000 0.101
5835.00000 0.116
5840.00000 0.132
5845.00000 0.148
5850.00000 0.165
5855.00000 0.183
5860.00000 0.201
5865.00000 0.218
5870.00000 0.237
5875.00000 0.254
5880.00000 0.272
5885.00000 0.289
5890.00000 0.306
5895.00000 0.321
5900.00000 0.335
5905.00000 0.349
5910.00000 0.364
5915.00000 0.377
5920.00000 0.39
5925.00000 0.402
5930.00000 0.414
5935.00000 0.425
5940.00000 0.435
5945.00000 0.444
5950.00000 0.453
5955.00000 0.461
5960.00000 0.468
5965.00000 0.474
5970.00000 0.48
5975.00000 0.485
5980.00000 0.489
5985.00000 0.493
5990.00000 0.496
5995.00000 0.499
6000.00000 0.502
6005.00000 0.504
6010.00000 0.506
6015.00000 0.507
6020.00000 0.508
6025.00000 0.509
6030.00000 0.509
6035.00000 0.509
6040.00000 0.509
6045.00000 0.508
6050.00000 0.507
6055.00000 0.507
6060.00000 0.505
6065.00000 0.504
6070.00000 0.503
6075.00000 0.501
6080.00000 0.499
6085.00000 0.497
6090.00000 0.495
6095.00000 0.493
6100.00000 0.491
6105.00000 0.489
6110.00000 0.486
6115.00000 0.484
6120.00000 0.482
6125.00000 0.479
6130.00000 0.476
6135.00000 0.473
6140.00000 0.47
6145.00000 0.467
6150.00000 0.464
6155.00000 0.461
6160.00000 0.458
6165.00000 0.455
6170.00000 0.451
6175.00000 0.448
6180.00000 0.445
6185.00000 0.442
6190.00000 0.438
6195.00000 0.435
6200.00000 0.432
6205.00000 0.428
6210.00000 0.425
6215.00000 0.421
6220.00000 0.418
6225.00000 0.415
6230.00000 0.411
6235.00000 0.408
6240.00000 0.404
6245.00000 0.401
6250.00000 0.397
6255.00000 0.394
6260.00000 0.39
6265.00000 0.387
6270.00000 0.383
6275.00000 0.38
6280.00000 0.376
6285.00000 0.373
6290.00000 0.369
6295.00000 0.366
6300.00000 0.363
6305.00000 0.359
6310.00000 0.356
6315.00000 0.352
6320.00000 0.349
6325.00000 0.346
6330.00000 0.343
6335.00000 0.339
6340.00000 0.336
6345.00000 0.332
6350.00000 0.329
6355.00000 0.326
6360.00000 0.322
6365.00000 0.319
6370.00000 0.316
6375.00000 0.312
6380.00000 0.309
6385.00000 0.305
6390.00000 0.302
6395.00000 0.299
6400.00000 0.295
6405.00000 0.292
6410.00000 0.289
6415.00000 0.286
6420.00000 0.282
6425.00000 0.279
6430.00000 0.276
6435.00000 0.273
6440.00000 0.27
6445.00000 0.266
6450.00000 0.263
6455.00000 0.26
6460.00000 0.257
6465.00000 0.254
6470.00000 0.251
6475.00000 0.248
6480.00000 0.245
6485.00000 0.242
6490.00000 0.239
6495.00000 0.236
6500.00000 0.233
6505.00000 0.231
6510.00000 0.228
6515.00000 0.225
6520.00000 0.222
6525.00000 0.219
6530.00000 0.216
6535.00000 0.214
6540.00000 0.211
6545.00000 0.209
6550.00000 0.206
6555.00000 0.204
6560.00000 0.201
6565.00000 0.198
6570.00000 0.196
6575.00000 0.193
6580.00000 0.191
6585.00000 0.188
6590.00000 0.185
6595.00000 0.183
6600.00000 0.18
6605.00000 0.178
6610.00000 0.175
6615.00000 0.173
6620.00000 0.17
6625.00000 0.168
6630.00000 0.166
6635.00000 0.163
6640.00000 0.161
6645.00000 0.159
6650.00000 0.156
6655.00000 0.154
6660.00000 0.152
6665.00000 0.15
6670.00000 0.148
6675.00000 0.145
6680.00000 0.143
6685.00000 0.141
6690.00000 0.139
6695.00000 0.137
6700.00000 0.135
6705.00000 0.133
6710.00000 0.131
6715.00000 0.129
6720.00000 0.127
6725.00000 0.125
6730.00000 0.123
6735.00000 0.122
6740.00000 0.12
6745.00000 0.118
6750.00000 0.116
6755.00000 0.114
6760.00000 0.113
6765.00000 0.111
6770.00000 0.109
6775.00000 0.108
6780.00000 0.106
6785.00000 0.104
6790.00000 0.103
6795.00000 0.101
6800.00000 0.099
6805.00000 0.098
6810.00000 0.096
6815.00000 0.095
6820.00000 0.093
6825.00000 0.091
6830.00000 0.09
6835.00000 0.088
6840.00000 0.087
6845.00000 0.085
6850.00000 0.084
6855.00000 0.083
6860.00000 0.081
6865.00000 0.08
6870.00000 0.078
6875.00000 0.077
6880.00000 0.076
6885.00000 0.075
6890.00000 0.073
6895.00000 0.072
6900.00000 0.071
6905.00000 0.07
6910.00000 0.068
6915.00000 0.067
6920.00000 0.066
6925.00000 0.065
6930.00000 0.064
6935.00000 0.063
6940.00000 0.062
6945.00000 0.06
6950.00000 0.059
6955.00000 0.058
6960.00000 0.057
6965.00000 0.056
6970.00000 0.055
6975.00000 0.055
6980.00000 0.054
6985.00000 0.053
6990.00000 0.052
6995.00000 0.051
7000.00000 0.05
7005.00000 0.049
7010.00000 0.048
7015.00000 0.047
7020.00000 0.046
7025.00000 0.045
7030.00000 0.045
7035.00000 0.044
7040.00000 0.043
7045.00000 0.042
7050.00000 0.041
7055.00000 0.041
7060.00000 0.04
7065.00000 0.039
7070.00000 0.038
7075.00000 0.038
7080.00000 0.037
7085.00000 0.036
7090.00000 0.036
7095.00000 0.035
7100.00000 0.034
7105.00000 0.034
7110.00000 0.033
7115.00000 0.032
7120.00000 0.032
7125.00000 0.031
7130.00000 0.031
7135.00000 0.03
7140.00000 0.029
7145.00000 0.029
7150.00000 0.028
7155.00000 0.028
7160.00000 0.027
7165.00000 0.027
7170.00000 0.026
7175.00000 0.026
7180.00000 0.025
7185.00000 0.025
7190.00000 0.024
7195.00000 0.024
7200.00000 0.023
7205.00000 0.023
7210.00000 0.023
7215.00000 0.022
7220.00000 0.022
7225.00000 0.021
7230.00000 0.021
7235.00000 0.02
7240.00000 0.02
7245.00000 0.02
7250.00000 0.019
7255.00000 0.019
7260.00000 0.018
7265.00000 0.018
7270.00000 0.018
7275.00000 0.017
7280.00000 0.017
7285.00000 0.017
7290.00000 0.016
7295.00000 0.016
7300.00000 0.016
7305.00000 0.015
7310.00000 0.015
7315.00000 0.015
7320.00000 0.015
7325.00000 0.014
7330.00000 0.014
7335.00000 0.014
7340.00000 0.013
7345.00000 0.013
7350.00000 0.013
7355.00000 0.013
7360.00000 0.012
7365.00000 0.012
7370.00000 0.012
7375.00000 0.012
7380.00000 0.011
7385.00000 0.011
7390.00000 0.011
7395.00000 0.011
7400.00000 0.011
7405.00000 0.01
7410.00000 0.01
7415.00000 0.01
7420.00000 0.01
7425.00000 0.01
7430.00000 0.009
7435.00000 0.009
7440.00000 0.009
7445.00000 0.009
7450.00000 0.009
7455.00000 0.009
7460.00000 0.008
7465.00000 0.008
7470.00000 0.008
7475.00000 0.008
7480.00000 0.008
7485.00000 0.008
7490.00000 0.007
7495.00000 0.007
7500.00000 0.007
7505.00000 0.007
7510.00000 0.007
7515.00000 0.007
7520.00000 0.007
7525.00000 0.007
7530.00000 0.006
7535.00000 0.006
7540.00000 0.006
7545.00000 0.006
7550.00000 0.006
7555.00000 0.006
7560.00000 0.006
7565.00000 0.006
7570.00000 0.005
7575.00000 0.005
7580.00000 0.005
7585.00000 0.005
7590.00000 0.005
7595.00000 0.005
7600.00000 0.005
7605.00000 0.005
7610.00000 0.005
7615.00000 0.005
7620.00000 0.005
7625.00000 0.004
7630.00000 0.004
7635.00000 0.004
7640.00000 0.004
7645.00000 0.004
7650.00000 0.004
7655.00000 0.004
7660.00000 0.004
7665.00000 0.004
7670.00000 0.004
7675.00000 0.004
7680.00000 0.004
7685.00000 0.004
7690.00000 0.003
7695.00000 0.003
7700.00000 0.003
7705.00000 0.003
7710.00000 0.003
7715.00000 0.003
7720.00000 0.003
7725.00000 0.003
7730.00000 0.003
7735.00000 0.003
7740.00000 0.003
7745.00000 0.003
7750.00000 0.003
7755.00000 0.003
7760.00000 0.003
7765.00000 0.003
7770.00000 0.003
7775.00000 0.003
7780.00000 0.003
7785.00000 0.002
7790.00000 0.002
7795.00000 0.002
7800.00000 0.002
7805.00000 0.002
7810.00000 0.002
7815.00000 0.002
7820.00000 0.002
7825.00000 0.002
7830.00000 0.002
7835.00000 0.002
7840.00000 0.002
7845.00000 0.002
7850.00000 0.002
7855.00000 0.002
7860.00000 0.002
7865.00000 0.002
7870.00000 0.002
7875.00000 0.002
7880.00000 0.002
7885.00000 0.002
7890.00000 0.002
7895.00000 0.002
7900.00000 0.002
7905.00000 0.002
7910.00000 0.002
7915.00000 0.002
7920.00000 0.002
7925.00000 0.002
7930.00000 0.002
7935.00000 0.001
7940.00000 0.001
7945.00000 0.001
7950.00000 0.001
7955.00000 0.001
7960.00000 0.001
7965.00000 0.001
7970.00000 0.001
7975.00000 0.001
7980.00000 0.001
7985.00000 0.001
7990.00000 0.001
8000.00000 0.001
10010.00000 0.001
10020.00000 0.001
10030.00000 0.001
10040.00000 0.001
10050.00000 0.001
10060.00000 0.001
10070.00000 0.001
10080.00000 0.001
10090.00000 0.001
10100.00000 0.001
10110.00000 0.001
10120.00000 0.001
10130.00000 0.001
10140.00000 0.001
10150.00000 0.001
10160.00000 0.001
10170.00000 0.001
10180.00000 0.001
10190.00000 0.001
10200.00000 0.001
10210.00000 0.001
10220.00000 0.001
10230.00000 0.001
10240.00000 0.001
10250.00000 0.001
10260.00000 0.001
10270.00000 0.001
10280.00000 0.001
10290.00000 0.001
10300.00000 0.001
10310.00000 0.001
10320.00000 0.001
10330.00000 0.001
10340.00000 0.001
10350.00000 0.001
10360.00000 0.001
10370.00000 0.001
10380.00000 0.001
10390.00000 0.001
10400.00000 0.001
10410.00000 0.001
10420.00000 0.001
10430.00000 0.001
10440.00000 0.002
10450.00000 0.002
10460.00000 0.002
10470.00000 0.002
10480.00000 0.002
10490.00000 0.002
10500.00000 0.002
10510.00000 0.002
10520.00000 0.002
10530.00000 0.002
10540.00000 0.002
10550.00000 0.002
10560.00000 0.002
10570.00000 0.002
10580.00000 0.002
10590.00000 0.002
10600.00000 0.002
10610.00000 0.002
10620.00000 0.002
10630.00000 0.002
10640.00000 0.002
10650.00000 0.002
10660.00000 0.002
10670.00000 0.002
10680.00000 0.002
10690.00000 0.002
10700.00000 0.002
10710.00000 0.002
10720.00000 0.002
10730.00000 0.002
10740.00000 0.002
10750.00000 0.002
10760.00000 0.002
10770.00000 0.002
10780.00000 0.002
10790.00000 0.003
10800.00000 0.003
10810.00000 0.003
10820.00000 0.003
10830.00000 0.003
10840.00000 0.003
10850.00000 0.003
10860.00000 0.003
10870.00000 0.003
10880.00000 0.003
10890.00000 0.003
10900.00000 0.003
10910.00000 0.003
10920.00000 0.003
10930.00000 0.003
10940.00000 0.003
10950.00000 0.003
10960.00000 0.003
10970.00000 0.003
10980.00000 0.003
10990.00000 0.003
11000.00000 0.003
11010.00000 0.003
11020.00000 0.003
11030.00000 0.004
11040.00000 0.004
11050.00000 0.004
11060.00000 0.004
11070.00000 0.004
11080.00000 0.004
11090.00000 0.004
11100.00000 0.004
11110.00000 0.004
11120.00000 0.004
11130.00000 0.004
11140.00000 0.004
11150.00000 0.004
11160.00000 0.004
11170.00000 0.004
11180.00000 0.004
11190.00000 0.004
11200.00000 0.004
11210.00000 0.005
11220.00000 0.005
11230.00000 0.005
11240.00000 0.005
11250.00000 0.005
11260.00000 0.005
11270.00000 0.005
11280.00000 0.005
11290.00000 0.005
11300.00000 0.005
11310.00000 0.005
11320.00000 0.005
11330.00000 0.005
11340.00000 0.005
11350.00000 0.005
11360.00000 0.006
11370.00000 0.006
11380.00000 0.006
11390.00000 0.006
11400.00000 0.006
11410.00000 0.006
11420.00000 0.006
11430.00000 0.006
11440.00000 0.006
11450.00000 0.006
11460.00000 0.006
11470.00000 0.006
11480.00000 0.006
11490.00000 0.007
11500.00000 0.007
11510.00000 0.007
11520.00000 0.007
11530.00000 0.007
11540.00000 0.007
11550.00000 0.007
11560.00000 0.007
11570.00000 0.007
11580.00000 0.007
11590.00000 0.007
11600.00000 0.008
11610.00000 0.008
11620.00000 0.008
11630.00000 0.008
11640.00000 0.008
11650.00000 0.008
11660.00000 0.008
11670.00000 0.008
11680.00000 0.008
11690.00000 0.009
11700.00000 0.009
11710.00000 0.009
11720.00000 0.009
11730.00000 0.009
11740.00000 0.009
11750.00000 0.009
11760.00000 0.009
11770.00000 0.009
11780.00000 0.01
11790.00000 0.01
11800.00000 0.01
11810.00000 0.01
11820.00000 0.01
11830.00000 0.01
11840.00000 0.01
11850.00000 0.01
11860.00000 0.011
11870.00000 0.011
11880.00000 0.011
11890.00000 0.011
11900.00000 0.011
11910.00000 0.011
11920.00000 0.011
11930.00000 0.012
11940.00000 0.012
11950.00000 0.012
11960.00000 0.012
11970.00000 0.012
11980.00000 0.012
11990.00000 0.013
12000.00000 0.013
13200.00000 0.0
