# %ECSV 0.9
# ---
# datatype:
# - {name: wavelength, unit: Angstrom, datatype: float32}
# - {name: response, datatype: float32}
# meta: !!omap
# - {band_name: f_4340_980}
# - {group_name: CTIO}
wavelength response
3395.00000 0.0
3400.00000 5.5296e-06
3405.00000 2.21183e-05
3410.00000 4.22159e-05
3415.00000 6.19183e-05
3420.00000 8.05746e-05
3425.00000 8.77018e-05
3430.00000 0.000108697
3435.00000 0.00019805
3440.00000 0.000344888
3445.00000 0.000480691
3450.00000 0.00056818
3455.00000 0.000617669
3460.00000 0.000663449
3465.00000 0.000729034
3470.00000 0.00080268
3475.00000 0.000871468
3480.00000 0.000938433
3485.00000 0.000990687
3490.00000 0.000997029
3495.00000 0.000935951
3500.00000 0.000817551
3505.00000 0.000703491
3510.00000 0.000657592
3515.00000 0.000697293
3520.00000 0.000803259
3525.00000 0.000905919
3530.00000 0.000963696
3535.00000 0.00101577
3540.00000 0.00109198
3545.00000 0.00118121
3550.00000 0.00128337
3555.00000 0.00142359
3560.00000 0.00161136
3565.00000 0.00185524
3570.00000 0.00217122
3575.00000 0.00254875
3580.00000 0.00300496
3585.00000 0.0036064
3590.00000 0.00437849
3595.00000 0.00530029
3600.00000 0.0063681
3605.00000 0.00760876
3610.00000 0.00908888
3615.00000 0.010837
3620.00000 0.01278
3625.00000 0.0148897
3630.00000 0.0172748
3635.00000 0.0200204
3640.00000 0.0230627
3645.00000 0.0263501
3650.00000 0.0299614
3655.00000 0.033932
3660.00000 0.0382344
3665.00000 0.0428616
3670.00000 0.0477563
3675.00000 0.0529586
3680.00000 0.0585913
3685.00000 0.0644759
3690.00000 0.0701761
3695.00000 0.0754151
3700.00000 0.080359
3705.00000 0.0854673
3710.00000 0.0910728
3715.00000 0.0972826
3720.00000 0.104039
3725.00000 0.11125
3730.00000 0.118815
3735.00000 0.12641
3740.00000 0.13386
3745.00000 0.141354
3750.00000 0.148919
3755.00000 0.156446
3760.00000 0.163897
3765.00000 0.171269
3770.00000 0.17871
3775.00000 0.18638
3780.00000 0.194314
3785.00000 0.202348
3790.00000 0.210091
3795.00000 0.217305
3800.00000 0.224214
3805.00000 0.231129
3810.00000 0.238167
3815.00000 0.245326
3820.00000 0.252377
3825.00000 0.259175
3830.00000 0.265946
3835.00000 0.273118
3840.00000 0.280817
3845.00000 0.288553
3850.00000 0.295991
3855.00000 0.303189
3860.00000 0.310133
3865.00000 0.316918
3870.00000 0.323496
3875.00000 0.329613
3880.00000 0.335296
3885.00000 0.340752
3890.00000 0.346484
3895.00000 0.352983
3900.00000 0.360139
3905.00000 0.367788
3910.00000 0.375758
3915.00000 0.383066
3920.00000 0.388705
3925.00000 0.393226
3930.00000 0.39791
3935.00000 0.402934
3940.00000 0.407827
3945.00000 0.412425
3950.00000 0.416675
3955.00000 0.420646
3960.00000 0.424336
3965.00000 0.427933
3970.00000 0.432054
3975.00000 0.436858
3980.00000 0.441991
3985.00000 0.44696
3990.00000 0.4515
3995.00000 0.455995
4000.00000 0.460592
4005.00000 0.464519
4010.00000 0.467596
4015.00000 0.470796
4020.00000 0.474676
4025.00000 0.478803
4030.00000 0.482406
4035.00000 0.485378
4040.00000 0.488583
4045.00000 0.492867
4050.00000 0.49775
4055.00000 0.501848
4060.00000 0.50491
4065.00000 0.507583
4070.00000 0.510046
4075.00000 0.512333
4080.00000 0.51485
4085.00000 0.517703
4090.00000 0.520017
4095.00000 0.521469
4100.00000 0.523092
4105.00000 0.525464
4110.00000 0.52878
4115.00000 0.532862
4120.00000 0.536274
4125.00000 0.53869
4130.00000 0.540598
4135.00000 0.541651
4140.00000 0.542475
4145.00000 0.543771
4150.00000 0.545226
4155.00000 0.546826
4160.00000 0.548675
4165.00000 0.550405
4170.00000 0.551994
4175.00000 0.55419
4180.00000 0.556906
4185.00000 0.559107
4190.00000 0.560762
4195.00000 0.562458
4200.00000 0.56414
4205.00000 0.565727
4210.00000 0.568207
4215.00000 0.571858
4220.00000 0.574424
4225.00000 0.574989
4230.00000 0.574917
4235.00000 0.574806
4240.00000 0.575178
4245.00000 0.576593
4250.00000 0.57869
4255.00000 0.58033
4260.00000 0.580628
4265.00000 0.580442
4270.00000 0.581161
4275.00000 0.582265
4280.00000 0.582546
4285.00000 0.582035
4290.00000 0.581045
4295.00000 0.580165
4300.00000 0.580626
4305.00000 0.582447
4310.00000 0.584178
4315.00000 0.585035
4320.00000 0.58595
4325.00000 0.587884
4330.00000 0.589399
4335.00000 0.588901
4340.00000 0.587494
4345.00000 0.586723
4350.00000 0.586671
4355.00000 0.587369
4360.00000 0.589217
4365.00000 0.59069
4370.00000 0.589856
4375.00000 0.587627
4380.00000 0.5856
4385.00000 0.584777
4390.00000 0.586431
4395.00000 0.589765
4400.00000 0.592018
4405.00000 0.592039
4410.00000 0.590516
4415.00000 0.589065
4420.00000 0.5892
4425.00000 0.59085
4430.00000 0.592669
4435.00000 0.592906
4440.00000 0.591238
4445.00000 0.589185
4450.00000 0.58768
4455.00000 0.58648
4460.00000 0.585892
4465.00000 0.586907
4470.00000 0.588278
4475.00000 0.587237
4480.00000 0.584213
4485.00000 0.581987
4490.00000 0.581401
4495.00000 0.58063
4500.00000 0.578531
4505.00000 0.576241
4510.00000 0.574326
4515.00000 0.572152
4520.00000 0.569643
4525.00000 0.56755
4530.00000 0.566387
4535.00000 0.565742
4540.00000 0.564944
4545.00000 0.564162
4550.00000 0.563848
4555.00000 0.562959
4560.00000 0.560909
4565.00000 0.558952
4570.00000 0.556963
4575.00000 0.553754
4580.00000 0.549876
4585.00000 0.546576
4590.00000 0.543677
4595.00000 0.540317
4600.00000 0.537235
4605.00000 0.535455
4610.00000 0.533748
4615.00000 0.530629
4620.00000 0.526797
4625.00000 0.523581
4630.00000 0.520875
4635.00000 0.517852
4640.00000 0.514433
4645.00000 0.511152
4650.00000 0.507806
4655.00000 0.503431
4660.00000 0.49803
4665.00000 0.492524
4670.00000 0.487035
4675.00000 0.481116
4680.00000 0.474987
4685.00000 0.469338
4690.00000 0.464793
4695.00000 0.461119
4700.00000 0.457089
4705.00000 0.452339
4710.00000 0.447442
4715.00000 0.441891
4720.00000 0.434686
4725.00000 0.42646
4730.00000 0.418804
4735.00000 0.412659
4740.00000 0.408086
4745.00000 0.403645
4750.00000 0.397785
4755.00000 0.391005
4760.00000 0.38449
4765.00000 0.378376
4770.00000 0.371924
4775.00000 0.364544
4780.00000 0.356831
4785.00000 0.349718
4790.00000 0.34298
4795.00000 0.336335
4800.00000 0.330056
4805.00000 0.323718
4810.00000 0.317179
4815.00000 0.311163
4820.00000 0.305541
4825.00000 0.299754
4830.00000 0.293771
4835.00000 0.287433
4840.00000 0.280533
4845.00000 0.273434
4850.00000 0.266683
4855.00000 0.260333
4860.00000 0.254318
4865.00000 0.248673
4870.00000 0.243105
4875.00000 0.237499
4880.00000 0.232215
4885.00000 0.227191
4890.00000 0.221788
4895.00000 0.215875
4900.00000 0.20991
4905.00000 0.204109
4910.00000 0.198522
4915.00000 0.193208
4920.00000 0.188111
4925.00000 0.183208
4930.00000 0.178528
4935.00000 0.174152
4940.00000 0.170248
4945.00000 0.166945
4950.00000 0.164072
4955.00000 0.161108
4960.00000 0.15769
4965.00000 0.153928
4970.00000 0.150181
4975.00000 0.146675
4980.00000 0.143352
4985.00000 0.140052
4990.00000 0.136757
4995.00000 0.133601
5000.00000 0.130541
5005.00000 0.127311
5010.00000 0.123805
5015.00000 0.120126
5020.00000 0.116418
5025.00000 0.112746
5030.00000 0.109015
5035.00000 0.105174
5040.00000 0.101386
5045.00000 0.0977121
5050.00000 0.0940984
5055.00000 0.0906489
5060.00000 0.0874154
5065.00000 0.0842609
5070.00000 0.0810935
5075.00000 0.0779488
5080.00000 0.0749216
5085.00000 0.0720395
5090.00000 0.0692022
5095.00000 0.0663784
5100.00000 0.0637084
5105.00000 0.0612534
5110.00000 0.0588701
5115.00000 0.0564848
5120.00000 0.0542483
5125.00000 0.0522531
5130.00000 0.0503388
5135.00000 0.0483504
5140.00000 0.0463199
5145.00000 0.0443012
5150.00000 0.0422984
5155.00000 0.0403047
5160.00000 0.0382952
5165.00000 0.0362964
5170.00000 0.0343709
5175.00000 0.0325377
5180.00000 0.030821
5185.00000 0.0292519
5190.00000 0.0278352
5195.00000 0.0265705
5200.00000 0.0254242
5205.00000 0.0243237
5210.00000 0.0231883
5215.00000 0.0219659
5220.00000 0.0207191
5225.00000 0.0195446
5230.00000 0.0184245
5235.00000 0.0173224
5240.00000 0.0162535
5245.00000 0.0152182
5250.00000 0.0142153
5255.00000 0.0132882
5260.00000 0.0124888
5265.00000 0.0117969
5270.00000 0.0111312
5275.00000 0.0104385
5280.00000 0.00972685
5285.00000 0.0090307
5290.00000 0.00839598
5295.00000 0.00786857
5300.00000 0.00743698
5305.00000 0.00704492
5310.00000 0.0066537
5315.00000 0.00624397
5320.00000 0.00584756
5325.00000 0.00553095
5330.00000 0.00527343
5335.00000 0.00501938
5340.00000 0.00479603
5345.00000 0.00460814
5350.00000 0.00438341
5355.00000 0.00410326
5360.00000 0.00382553
5365.00000 0.00359775
5370.00000 0.00342566
5375.00000 0.00328512
5380.00000 0.00314197
5385.00000 0.00301988
5390.00000 0.00299839
5395.00000 0.00307199
5400.00000 0.00312129
5405.00000 0.0030397
5410.00000 0.00286388
5415.00000 0.0027219
5420.00000 0.00264736
5425.00000 0.00259886
5430.00000 0.00256692
5435.00000 0.00255514
5440.00000 0.00254575
5445.00000 0.00252264
5450.00000 0.00249832
5455.00000 0.00250582
5460.00000 0.00258084
5465.00000 0.00272284
5470.00000 0.00289436
5475.00000 0.00306874
5480.00000 0.00323956
5485.00000 0.00340663
5490.00000 0.00357133
5495.00000 0.00375131
5500.00000 0.00400021
5505.00000 0.00434401
5510.00000 0.00471081
5515.00000 0.00502708
5520.00000 0.00531716
5525.00000 0.00562121
5530.00000 0.00591101
5535.00000 0.00615969
5540.00000 0.00638681
5545.00000 0.00659359
5550.00000 0.00677079
5555.00000 0.00692622
5560.00000 0.00705482
5565.00000 0.0071762
5570.00000 0.00732176
5575.00000 0.00744427
5580.00000 0.00749187
5585.00000 0.00759028
5590.00000 0.00798119
5595.00000 0.00865029
5600.00000 0.0092833
5605.00000 0.00968542
5610.00000 0.00990582
5615.00000 0.0100193
5620.00000 0.010025
5625.00000 0.00993482
5630.00000 0.00982831
5635.00000 0.00973851
5640.00000 0.00959627
5645.00000 0.00934421
5650.00000 0.00900491
5655.00000 0.00863466
5660.00000 0.00826574
5665.00000 0.00788379
5670.00000 0.00746337
5675.00000 0.00700684
5680.00000 0.00655994
5685.00000 0.00616727
5690.00000 0.00579796
5695.00000 0.00542368
5700.00000 0.00507426
5705.00000 0.00475046
5710.00000 0.00443078
5715.00000 0.00410743
5720.00000 0.00373821
5725.00000 0.00328692
5730.00000 0.00281203
5735.00000 0.00238873
5740.00000 0.00201783
5745.00000 0.00167778
5750.00000 0.00133679
5755.00000 0.000963261
5760.00000 0.000602092
5765.00000 0.000330516
5770.00000 0.000165495
5775.00000 8.5586e-05
5780.00000 7.456e-05
5785.00000 0.000140455
5790.00000 0.000304065
5795.00000 0.000526702
5800.00000 0.000731951
5805.00000 0.000906262
5810.00000 0.00107535
5815.00000 0.00124068
5820.00000 0.00141271
5825.00000 0.00161985
5830.00000 0.00185055
5835.00000 0.0020586
5840.00000 0.00221448
5845.00000 0.00232456
5850.00000 0.00241779
6435.00000 0.0
