# %ECSV 0.9
# ---
# datatype:
# - {name: wavelength, unit: Angstrom, datatype: float32}
# - {name: response, datatype: float32}
# meta: !!omap
# - {band_name: f_6440_1520}
# - {group_name: CTIO}
wavelength response
4950.00000 0.0
5500.00000 0.00386313
5510.00000 0.00692867
5520.00000 0.0105658
5530.00000 0.0152172
5540.00000 0.0213985
5550.00000 0.0297026
5560.00000 0.040781
5570.00000 0.0552929
5580.00000 0.0738241
5590.00000 0.0967933
5600.00000 0.12437
5610.00000 0.156429
5620.00000 0.192553
5630.00000 0.23209
5640.00000 0.274226
5650.00000 0.318075
5660.00000 0.362739
5670.00000 0.40736
5680.00000 0.45116
5690.00000 0.493467
5700.00000 0.533728
5710.00000 0.571521
5720.00000 0.606551
5730.00000 0.638649
5740.00000 0.667757
5750.00000 0.693913
5760.00000 0.717231
5770.00000 0.737888
5780.00000 0.75611
5790.00000 0.772152
5800.00000 0.786273
5810.00000 0.798705
5820.00000 0.809637
5830.00000 0.819206
5840.00000 0.827513
5850.00000 0.834635
5860.00000 0.840646
5870.00000 0.845633
5880.00000 0.849711
5890.00000 0.853019
5900.00000 0.855701
5910.00000 0.857888
5920.00000 0.859682
5930.00000 0.861152
5940.00000 0.862337
5950.00000 0.863247
5960.00000 0.86388
5970.00000 0.864228
5980.00000 0.864296
5990.00000 0.864107
6000.00000 0.863696
6010.00000 0.863106
6020.00000 0.862384
6030.00000 0.861581
6040.00000 0.860736
6050.00000 0.859863
6060.00000 0.858942
6070.00000 0.857929
6080.00000 0.856773
6090.00000 0.855434
6100.00000 0.853898
6110.00000 0.852179
6120.00000 0.85032
6130.00000 0.848392
6140.00000 0.846469
6150.00000 0.844599
6160.00000 0.842786
6170.00000 0.840996
6180.00000 0.839188
6190.00000 0.837334
6200.00000 0.835429
6210.00000 0.833473
6220.00000 0.831457
6230.00000 0.829362
6240.00000 0.82717
6250.00000 0.824865
6260.00000 0.822434
6270.00000 0.819865
6280.00000 0.817151
6290.00000 0.814307
6300.00000 0.811379
6310.00000 0.808436
6320.00000 0.805545
6330.00000 0.80275
6340.00000 0.800053
6350.00000 0.797416
6360.00000 0.794785
6370.00000 0.792114
6380.00000 0.789384
6390.00000 0.786598
6400.00000 0.783754
6410.00000 0.780834
6420.00000 0.77781
6430.00000 0.774672
6440.00000 0.771435
6450.00000 0.768136
6460.00000 0.764814
6470.00000 0.761495
6480.00000 0.758191
6490.00000 0.7549
6500.00000 0.751615
6510.00000 0.748326
6520.00000 0.745018
6530.00000 0.741684
6540.00000 0.738321
6550.00000 0.734924
6560.00000 0.73147
6570.00000 0.727928
6580.00000 0.724283
6590.00000 0.720559
6600.00000 0.716807
6610.00000 0.713083
6620.00000 0.709413
6630.00000 0.705785
6640.00000 0.702153
6650.00000 0.69847
6660.00000 0.694716
6670.00000 0.690922
6680.00000 0.687146
6690.00000 0.68344
6700.00000 0.679817
6710.00000 0.676252
6720.00000 0.672683
6730.00000 0.669033
6740.00000 0.665236
6750.00000 0.661256
6760.00000 0.65709
6770.00000 0.652758
6780.00000 0.648296
6790.00000 0.643756
6800.00000 0.639206
6810.00000 0.634701
6820.00000 0.63026
6830.00000 0.62587
6840.00000 0.621496
6850.00000 0.617105
6860.00000 0.612662
6870.00000 0.608134
6880.00000 0.603491
6890.00000 0.598732
6900.00000 0.593902
6910.00000 0.589098
6920.00000 0.584429
6930.00000 0.579954
6940.00000 0.575653
6950.00000 0.571437
6960.00000 0.567206
6970.00000 0.562891
6980.00000 0.558472
6990.00000 0.553975
7000.00000 0.54945
7010.00000 0.543292
7020.00000 0.537634
7030.00000 0.53205
7040.00000 0.526553
7050.00000 0.521145
7060.00000 0.515819
7070.00000 0.510564
7080.00000 0.505357
7090.00000 0.500173
7100.00000 0.494976
7110.00000 0.489723
7120.00000 0.484363
7130.00000 0.478845
7140.00000 0.473124
7150.00000 0.46717
7160.00000 0.460977
7170.00000 0.454569
7180.00000 0.448
7190.00000 0.441342
7200.00000 0.434679
7210.00000 0.428095
7220.00000 0.42166
7230.00000 0.415425
7240.00000 0.409421
7250.00000 0.403656
7260.00000 0.39812
7270.00000 0.392792
7280.00000 0.387643
7290.00000 0.382642
7300.00000 0.377761
7310.00000 0.372975
7320.00000 0.368267
7330.00000 0.363624
7340.00000 0.359037
7350.00000 0.354505
7360.00000 0.350026
7370.00000 0.345605
7380.00000 0.341243
7390.00000 0.336944
7400.00000 0.332705
7410.00000 0.328522
7420.00000 0.324387
7430.00000 0.320293
7440.00000 0.316231
7450.00000 0.312198
7460.00000 0.308191
7470.00000 0.304211
7480.00000 0.300256
7490.00000 0.296328
7500.00000 0.292424
7510.00000 0.288541
7520.00000 0.284677
7530.00000 0.280828
7540.00000 0.276992
7550.00000 0.273168
7560.00000 0.269352
7570.00000 0.265545
7580.00000 0.261746
7590.00000 0.257957
7600.00000 0.254179
7610.00000 0.250416
7620.00000 0.246668
7630.00000 0.242937
7640.00000 0.239221
7650.00000 0.235515
7660.00000 0.231814
7670.00000 0.22811
7680.00000 0.224396
7690.00000 0.220664
7700.00000 0.216914
7710.00000 0.213151
7720.00000 0.209384
7730.00000 0.20563
7740.00000 0.201908
7750.00000 0.198239
7760.00000 0.194638
7770.00000 0.191118
7780.00000 0.187687
7790.00000 0.184344
7800.00000 0.181088
7810.00000 0.177913
7820.00000 0.17481
7830.00000 0.171773
7840.00000 0.168793
7850.00000 0.165862
7860.00000 0.162975
7870.00000 0.160126
7880.00000 0.157311
7890.00000 0.154529
7900.00000 0.151782
7910.00000 0.14907
7920.00000 0.146397
7930.00000 0.143765
7940.00000 0.141176
7950.00000 0.138627
7960.00000 0.136117
7970.00000 0.133644
7980.00000 0.131204
7990.00000 0.128797
8000.00000 0.126425
8010.00000 0.124093
8020.00000 0.121804
8030.00000 0.119562
8040.00000 0.11737
8050.00000 0.115223
8060.00000 0.113117
8070.00000 0.11104
8080.00000 0.108982
8090.00000 0.106934
8100.00000 0.10489
8110.00000 0.102847
8120.00000 0.10081
8130.00000 0.0987825
8140.00000 0.0967727
8150.00000 0.0947872
8160.00000 0.0928314
8170.00000 0.0909085
8180.00000 0.0890191
8190.00000 0.0871616
8200.00000 0.0853329
8210.00000 0.0835288
8220.00000 0.0817454
8230.00000 0.0799802
8240.00000 0.078233
8250.00000 0.0765067
8260.00000 0.0748066
8270.00000 0.0731398
8280.00000 0.0715137
8290.00000 0.0699346
8300.00000 0.068407
8310.00000 0.0669331
8320.00000 0.0655129
8330.00000 0.0641447
8340.00000 0.0628256
8350.00000 0.0615517
8360.00000 0.0603182
8370.00000 0.0591198
8380.00000 0.057951
8390.00000 0.056807
8400.00000 0.0556838
8410.00000 0.0545793
8420.00000 0.053493
8430.00000 0.0524262
8440.00000 0.0513811
8450.00000 0.0503597
8460.00000 0.0493629
8470.00000 0.0483898
8480.00000 0.0474372
8490.00000 0.0465009
8500.00000 0.0455763
8510.00000 0.0446601
8520.00000 0.0437509
8530.00000 0.0428494
8540.00000 0.0419581
8550.00000 0.0410802
8560.00000 0.040219
8570.00000 0.0393772
8580.00000 0.0385559
8590.00000 0.0377549
8600.00000 0.0369724
8610.00000 0.0362056
8620.00000 0.0354518
8630.00000 0.0347084
8640.00000 0.0339746
8650.00000 0.0332513
8660.00000 0.0325411
8670.00000 0.0318479
8680.00000 0.0311764
8690.00000 0.0305303
8700.00000 0.0299126
8710.00000 0.0293244
8720.00000 0.0287649
8730.00000 0.0282321
8740.00000 0.0277226
8750.00000 0.0272326
8760.00000 0.0267582
8770.00000 0.0262956
8780.00000 0.0258411
8790.00000 0.0253914
8800.00000 0.0249433
9680.00000 0.0
