# %ECSV 0.9
# ---
# datatype:
# - {name: wavelength, unit: Angstrom, datatype: float32}
# - {name: response, datatype: float32}
# meta: !!omap
# - {band_name: f_5025_1023}
# - {group_name: CTIO}
wavelength response
4360.00000 0.0
4365.00000 0.001
4370.00000 0.001
4375.00000 0.002
4380.00000 0.002
4385.00000 0.004
4390.00000 0.005
4395.00000 0.008
4400.00000 0.011
4405.00000 0.015
4410.00000 0.021
4415.00000 0.028
4420.00000 0.036
4425.00000 0.047
4430.00000 0.059
4435.00000 0.074
4440.00000 0.091
4445.00000 0.109
4450.00000 0.129
4455.00000 0.151
4460.00000 0.174
4465.00000 0.197
4470.00000 0.222
4475.00000 0.248
4480.00000 0.274
4485.00000 0.3
4490.00000 0.327
4495.00000 0.352
4500.00000 0.379
4505.00000 0.404
4510.00000 0.428
4515.00000 0.453
4520.00000 0.476
4525.00000 0.498
4530.00000 0.52
4535.00000 0.541
4540.00000 0.56
4545.00000 0.578
4550.00000 0.596
4555.00000 0.613
4560.00000 0.629
4565.00000 0.644
4570.00000 0.658
4575.00000 0.672
4580.00000 0.684
4585.00000 0.696
4590.00000 0.707
4595.00000 0.718
4600.00000 0.728
4605.00000 0.736
4610.00000 0.744
4615.00000 0.752
4620.00000 0.76
4625.00000 0.767
4630.00000 0.774
4635.00000 0.781
4640.00000 0.787
4645.00000 0.793
4650.00000 0.798
4655.00000 0.804
4660.00000 0.809
4665.00000 0.813
4670.00000 0.818
4675.00000 0.822
4680.00000 0.826
4685.00000 0.829
4690.00000 0.833
4695.00000 0.836
4700.00000 0.839
4705.00000 0.842
4710.00000 0.845
4715.00000 0.847
4720.00000 0.85
4725.00000 0.852
4730.00000 0.854
4735.00000 0.856
4740.00000 0.858
4745.00000 0.86
4750.00000 0.862
4755.00000 0.863
4760.00000 0.865
4765.00000 0.867
4770.00000 0.868
4775.00000 0.869
4780.00000 0.871
4785.00000 0.872
4790.00000 0.873
4795.00000 0.874
4800.00000 0.875
4805.00000 0.876
4810.00000 0.877
4815.00000 0.878
4820.00000 0.879
4825.00000 0.879
4830.00000 0.88
4835.00000 0.881
4840.00000 0.881
4845.00000 0.882
4850.00000 0.883
4855.00000 0.883
4860.00000 0.883
4865.00000 0.884
4870.00000 0.884
4875.00000 0.885
4880.00000 0.885
4885.00000 0.885
4890.00000 0.885
4895.00000 0.886
4900.00000 0.886
4905.00000 0.886
4910.00000 0.886
4915.00000 0.886
4920.00000 0.886
4925.00000 0.886
4930.00000 0.886
4935.00000 0.886
4940.00000 0.886
4945.00000 0.885
4950.00000 0.885
4955.00000 0.885
4960.00000 0.884
4965.00000 0.884
4970.00000 0.884
4975.00000 0.883
4980.00000 0.883
4985.00000 0.882
4990.00000 0.881
4995.00000 0.881
5000.00000 0.88
5005.00000 0.88
5010.00000 0.879
5015.00000 0.878
5020.00000 0.877
5025.00000 0.877
5030.00000 0.875
5035.00000 0.874
5040.00000 0.874
5045.00000 0.873
5050.00000 0.871
5055.00000 0.87
5060.00000 0.869
5065.00000 0.868
5070.00000 0.867
5075.00000 0.865
5080.00000 0.864
5085.00000 0.862
5090.00000 0.86
5095.00000 0.859
5100.00000 0.857
5105.00000 0.855
5110.00000 0.854
5115.00000 0.852
5120.00000 0.85
5125.00000 0.848
5130.00000 0.846
5135.00000 0.844
5140.00000 0.842
5145.00000 0.84
5150.00000 0.837
5155.00000 0.835
5160.00000 0.833
5165.00000 0.83
5170.00000 0.828
5175.00000 0.825
5180.00000 0.822
5185.00000 0.819
5190.00000 0.816
5195.00000 0.814
5200.00000 0.811
5205.00000 0.808
5210.00000 0.805
5215.00000 0.801
5220.00000 0.798
5225.00000 0.795
5230.00000 0.792
5235.00000 0.788
5240.00000 0.784
5245.00000 0.781
5250.00000 0.777
5255.00000 0.774
5260.00000 0.77
5265.00000 0.766
5270.00000 0.762
5275.00000 0.758
5280.00000 0.754
5285.00000 0.75
5290.00000 0.745
5295.00000 0.741
5300.00000 0.736
5305.00000 0.731
5310.00000 0.727
5315.00000 0.722
5320.00000 0.717
5325.00000 0.712
5330.00000 0.707
5335.00000 0.702
5340.00000 0.697
5345.00000 0.691
5350.00000 0.686
5355.00000 0.681
5360.00000 0.675
5365.00000 0.67
5370.00000 0.664
5375.00000 0.658
5380.00000 0.653
5385.00000 0.647
5390.00000 0.641
5395.00000 0.635
5400.00000 0.629
5405.00000 0.623
5410.00000 0.617
5415.00000 0.61
5420.00000 0.604
5425.00000 0.598
5430.00000 0.591
5435.00000 0.585
5440.00000 0.578
5445.00000 0.572
5450.00000 0.565
5455.00000 0.558
5460.00000 0.552
5465.00000 0.545
5470.00000 0.539
5475.00000 0.533
5480.00000 0.526
5485.00000 0.519
5490.00000 0.512
5495.00000 0.505
5500.00000 0.498
5505.00000 0.491
5510.00000 0.483
5515.00000 0.476
5520.00000 0.468
5525.00000 0.461
5530.00000 0.454
5535.00000 0.446
5540.00000 0.439
5545.00000 0.432
5550.00000 0.425
5555.00000 0.417
5560.00000 0.41
5565.00000 0.403
5570.00000 0.396
5575.00000 0.388
5580.00000 0.381
5585.00000 0.374
5590.00000 0.366
5595.00000 0.359
5600.00000 0.352
5605.00000 0.345
5610.00000 0.338
5615.00000 0.331
5620.00000 0.324
5625.00000 0.317
5630.00000 0.31
5635.00000 0.303
5640.00000 0.296
5645.00000 0.29
5650.00000 0.283
5655.00000 0.276
5660.00000 0.27
5665.00000 0.263
5670.00000 0.256
5675.00000 0.25
5680.00000 0.244
5685.00000 0.238
5690.00000 0.232
5695.00000 0.226
5700.00000 0.22
5705.00000 0.214
5710.00000 0.208
5715.00000 0.203
5720.00000 0.197
5725.00000 0.191
5730.00000 0.185
5735.00000 0.18
5740.00000 0.174
5745.00000 0.168
5750.00000 0.163
5755.00000 0.158
5760.00000 0.153
5765.00000 0.148
5770.00000 0.143
5775.00000 0.139
5780.00000 0.134
5785.00000 0.129
5790.00000 0.125
5795.00000 0.121
5800.00000 0.117
5805.00000 0.112
5810.00000 0.108
5815.00000 0.104
5820.00000 0.101
5825.00000 0.097
5830.00000 0.093
5835.00000 0.09
5840.00000 0.086
5845.00000 0.083
5850.00000 0.08
5855.00000 0.077
5860.00000 0.073
5865.00000 0.071
5870.00000 0.068
5875.00000 0.065
5880.00000 0.062
5885.00000 0.06
5890.00000 0.057
5895.00000 0.055
5900.00000 0.053
5905.00000 0.05
5910.00000 0.048
5915.00000 0.046
5920.00000 0.044
5925.00000 0.042
5930.00000 0.04
5935.00000 0.038
5940.00000 0.036
5945.00000 0.035
5950.00000 0.033
5955.00000 0.031
5960.00000 0.03
5965.00000 0.028
5970.00000 0.027
5975.00000 0.025
5980.00000 0.024
5985.00000 0.023
5990.00000 0.022
5995.00000 0.02
6000.00000 0.019
6005.00000 0.018
6010.00000 0.017
6015.00000 0.016
6020.00000 0.016
6025.00000 0.015
6030.00000 0.014
6035.00000 0.013
6040.00000 0.012
6045.00000 0.012
6050.00000 0.011
6055.00000 0.01
6060.00000 0.01
6065.00000 0.009
6070.00000 0.009
6075.00000 0.008
6080.00000 0.008
6085.00000 0.007
6090.00000 0.007
6095.00000 0.006
6100.00000 0.006
6105.00000 0.005
6110.00000 0.005
6115.00000 0.005
6120.00000 0.005
6125.00000 0.004
6130.00000 0.004
6135.00000 0.004
6140.00000 0.003
6145.00000 0.003
6150.00000 0.003
6155.00000 0.003
6160.00000 0.003
6165.00000 0.002
6170.00000 0.002
6175.00000 0.002
6180.00000 0.002
6185.00000 0.002
6190.00000 0.002
6195.00000 0.002
6200.00000 0.001
6820.00000 0.0
