# %ECSV 0.9
# ---
# datatype:
# - {name: wavelength, unit: Angstrom, datatype: float32}
# - {name: response, datatype: float32}
# meta: !!omap
# - {band_name: f_5025_1020}
# - {group_name: CTIO}
wavelength response
3964.50000 0.0
4405.00000 0.007
4410.00000 0.011
4415.00000 0.015
4420.00000 0.021
4425.00000 0.029
4430.00000 0.038
4435.00000 0.049
4440.00000 0.063
4445.00000 0.078
4450.00000 0.095
4455.00000 0.114
4460.00000 0.134
4465.00000 0.155
4470.00000 0.179
4475.00000 0.203
4480.00000 0.227
4485.00000 0.253
4490.00000 0.278
4495.00000 0.303
4500.00000 0.329
4505.00000 0.354
4510.00000 0.378
4515.00000 0.403
4520.00000 0.426
4525.00000 0.449
4530.00000 0.47
4535.00000 0.491
4540.00000 0.511
4545.00000 0.529
4550.00000 0.548
4555.00000 0.565
4560.00000 0.58
4565.00000 0.596
4570.00000 0.61
4575.00000 0.624
4580.00000 0.636
4585.00000 0.648
4590.00000 0.659
4595.00000 0.67
4600.00000 0.679
4605.00000 0.688
4610.00000 0.696
4615.00000 0.704
4620.00000 0.711
4625.00000 0.719
4630.00000 0.726
4635.00000 0.732
4640.00000 0.738
4645.00000 0.744
4650.00000 0.749
4655.00000 0.755
4660.00000 0.759
4665.00000 0.764
4670.00000 0.768
4675.00000 0.772
4680.00000 0.775
4685.00000 0.779
4690.00000 0.782
4695.00000 0.785
4700.00000 0.788
4705.00000 0.79
4710.00000 0.793
4715.00000 0.795
4720.00000 0.798
4725.00000 0.8
4730.00000 0.802
4735.00000 0.804
4740.00000 0.805
4745.00000 0.807
4750.00000 0.809
4755.00000 0.81
4760.00000 0.812
4765.00000 0.813
4770.00000 0.814
4775.00000 0.815
4780.00000 0.816
4785.00000 0.818
4790.00000 0.818
4795.00000 0.82
4800.00000 0.82
4805.00000 0.821
4810.00000 0.822
4815.00000 0.823
4820.00000 0.823
4825.00000 0.824
4830.00000 0.825
4835.00000 0.825
4840.00000 0.826
4845.00000 0.826
4850.00000 0.826
4855.00000 0.827
4860.00000 0.827
4865.00000 0.827
4870.00000 0.828
4875.00000 0.828
4880.00000 0.828
4885.00000 0.828
4890.00000 0.828
4895.00000 0.829
4900.00000 0.829
4905.00000 0.829
4910.00000 0.829
4915.00000 0.829
4920.00000 0.829
4925.00000 0.829
4930.00000 0.828
4935.00000 0.828
4940.00000 0.828
4945.00000 0.828
4950.00000 0.827
4955.00000 0.827
4960.00000 0.827
4965.00000 0.826
4970.00000 0.826
4975.00000 0.825
4980.00000 0.825
4985.00000 0.824
4990.00000 0.824
4995.00000 0.823
5000.00000 0.822
5005.00000 0.822
5010.00000 0.821
5015.00000 0.82
5020.00000 0.819
5025.00000 0.818
5030.00000 0.817
5035.00000 0.816
5040.00000 0.816
5045.00000 0.815
5050.00000 0.813
5055.00000 0.812
5060.00000 0.811
5065.00000 0.81
5070.00000 0.809
5075.00000 0.807
5080.00000 0.806
5085.00000 0.804
5090.00000 0.803
5095.00000 0.801
5100.00000 0.8
5105.00000 0.798
5110.00000 0.796
5115.00000 0.794
5120.00000 0.793
5125.00000 0.791
5130.00000 0.789
5135.00000 0.787
5140.00000 0.785
5145.00000 0.783
5150.00000 0.781
5155.00000 0.778
5160.00000 0.776
5165.00000 0.774
5170.00000 0.771
5175.00000 0.769
5180.00000 0.766
5185.00000 0.764
5190.00000 0.761
5195.00000 0.758
5200.00000 0.755
5205.00000 0.752
5210.00000 0.75
5215.00000 0.747
5220.00000 0.743
5225.00000 0.74
5230.00000 0.737
5235.00000 0.734
5240.00000 0.73
5245.00000 0.727
5250.00000 0.724
5255.00000 0.721
5260.00000 0.717
5265.00000 0.713
5270.00000 0.71
5275.00000 0.706
5280.00000 0.702
5285.00000 0.698
5290.00000 0.694
5295.00000 0.69
5300.00000 0.685
5305.00000 0.681
5310.00000 0.676
5315.00000 0.672
5320.00000 0.667
5325.00000 0.663
5330.00000 0.658
5335.00000 0.653
5340.00000 0.648
5345.00000 0.643
5350.00000 0.639
5355.00000 0.633
5360.00000 0.628
5365.00000 0.623
5370.00000 0.618
5375.00000 0.613
5380.00000 0.607
5385.00000 0.602
5390.00000 0.596
5395.00000 0.591
5400.00000 0.585
5405.00000 0.58
5410.00000 0.574
5415.00000 0.568
5420.00000 0.562
5425.00000 0.556
5430.00000 0.55
5435.00000 0.544
5440.00000 0.538
5445.00000 0.532
5450.00000 0.526
5455.00000 0.52
5460.00000 0.514
5465.00000 0.508
5470.00000 0.502
5475.00000 0.496
5480.00000 0.489
5485.00000 0.483
5490.00000 0.477
5495.00000 0.47
5500.00000 0.464
5505.00000 0.457
5510.00000 0.45
5515.00000 0.444
5520.00000 0.437
5525.00000 0.43
5530.00000 0.423
5535.00000 0.416
5540.00000 0.409
5545.00000 0.403
5550.00000 0.396
5555.00000 0.389
5560.00000 0.382
5565.00000 0.376
5570.00000 0.369
5575.00000 0.362
5580.00000 0.355
5585.00000 0.349
5590.00000 0.342
5595.00000 0.336
5600.00000 0.329
5605.00000 0.323
5610.00000 0.316
5615.00000 0.309
5620.00000 0.303
5625.00000 0.297
5630.00000 0.29
5635.00000 0.284
5640.00000 0.278
5645.00000 0.271
5650.00000 0.265
5655.00000 0.259
5660.00000 0.253
5665.00000 0.247
5670.00000 0.241
5675.00000 0.235
5680.00000 0.229
5685.00000 0.224
5690.00000 0.219
5695.00000 0.213
5700.00000 0.207
5705.00000 0.202
5710.00000 0.196
5715.00000 0.191
5720.00000 0.185
5725.00000 0.18
5730.00000 0.175
5735.00000 0.169
5740.00000 0.164
5745.00000 0.159
5750.00000 0.154
5755.00000 0.15
5760.00000 0.145
5765.00000 0.14
5770.00000 0.136
5775.00000 0.132
5780.00000 0.127
5785.00000 0.123
5790.00000 0.119
5795.00000 0.115
5800.00000 0.111
5805.00000 0.107
5810.00000 0.103
5815.00000 0.1
5820.00000 0.096
5825.00000 0.093
5830.00000 0.089
5835.00000 0.086
5840.00000 0.083
5845.00000 0.08
5850.00000 0.077
5855.00000 0.074
5860.00000 0.071
5865.00000 0.068
5870.00000 0.065
5875.00000 0.063
5880.00000 0.06
5885.00000 0.058
5890.00000 0.055
5895.00000 0.053
5900.00000 0.051
5905.00000 0.049
5910.00000 0.047
5915.00000 0.045
5920.00000 0.043
5925.00000 0.041
5930.00000 0.039
5935.00000 0.037
5940.00000 0.036
5945.00000 0.034
5950.00000 0.032
5955.00000 0.031
5960.00000 0.029
5965.00000 0.028
5970.00000 0.026
5975.00000 0.025
5980.00000 0.024
5985.00000 0.023
5990.00000 0.021
5995.00000 0.02
6000.00000 0.019
6005.00000 0.018
6010.00000 0.017
6015.00000 0.016
6020.00000 0.015
6025.00000 0.015
6030.00000 0.014
6035.00000 0.013
6040.00000 0.012
6045.00000 0.012
6050.00000 0.011
6055.00000 0.01
6060.00000 0.01
6065.00000 0.009
6070.00000 0.009
6075.00000 0.008
6080.00000 0.008
6085.00000 0.007
6090.00000 0.007
6095.00000 0.006
6100.00000 0.006
6105.00000 0.006
6110.00000 0.005
6115.00000 0.005
6120.00000 0.005
6125.00000 0.004
6130.00000 0.004
6135.00000 0.004
6140.00000 0.004
6145.00000 0.003
6150.00000 0.003
6155.00000 0.003
6160.00000 0.003
6165.00000 0.003
6170.00000 0.002
6175.00000 0.002
6180.00000 0.002
6185.00000 0.002
6190.00000 0.002
6195.00000 0.002
6200.00000 0.002
6820.00000 0.0
