# %ECSV 0.9
# ---
# datatype:
# - {name: wavelength, unit: Angstrom, datatype: float32}
# - {name: response, datatype: float32}
# meta: !!omap
# - {band_name: VR}
# - {group_name: MosaicII}
wavelength response
4427.54980 0.0
4919.50000 0.0041
4925.60010 0.0052
4931.60010 0.0074
4937.60010 0.0093
4943.60010 0.0116
4949.60010 0.0145
4955.60010 0.0175
4961.60010 0.0222
4967.60010 0.0268
4973.60010 0.0325
4979.60010 0.0385
4985.60010 0.0461
4991.60010 0.0547
4997.60010 0.065
5003.70020 0.0758
5009.70020 0.0881
5015.70020 0.1013
5021.70020 0.1156
5027.70020 0.131
5033.70020 0.1473
5039.70020 0.1648
5045.70020 0.1832
5051.70020 0.203
5057.70020 0.2237
5063.70020 0.2455
5069.70020 0.267
5075.70020 0.2896
5081.70020 0.3127
5087.79980 0.3356
5093.79980 0.3588
5099.79980 0.3811
5105.79980 0.4036
5111.79980 0.4266
5117.79980 0.4488
5123.79980 0.4712
5129.79980 0.4933
5135.79980 0.5137
5141.79980 0.5341
5147.79980 0.5536
5153.79980 0.5718
5159.79980 0.5896
5165.89990 0.6078
5171.89990 0.624
5177.89990 0.6394
5183.89990 0.6538
5189.89990 0.6677
5195.89990 0.6813
5201.89990 0.6948
5207.89990 0.707
5213.89990 0.7185
5219.89990 0.7306
5225.89990 0.7412
5231.89990 0.7518
5237.89990 0.7617
5244.00000 0.7695
5250.00000 0.7774
5256.00000 0.7858
5262.00000 0.7941
5268.00000 0.8021
5274.00000 0.8088
5280.00000 0.8153
5286.00000 0.822
5292.00000 0.8282
5298.00000 0.834
5304.00000 0.84
5310.00000 0.8454
5316.00000 0.85
5322.00000 0.8552
5328.10010 0.8603
5334.10010 0.8648
5340.10010 0.8674
5346.10010 0.8709
5352.10010 0.8746
5358.10010 0.8772
5364.10010 0.8797
5370.10010 0.8839
5376.10010 0.8863
5382.10010 0.888
5388.10010 0.8902
5394.10010 0.8914
5400.10010 0.8922
5406.20020 0.8925
5412.20020 0.8941
5418.20020 0.8944
5424.20020 0.8945
5430.20020 0.8951
5436.20020 0.895
5442.20020 0.8962
5448.20020 0.8962
5454.20020 0.8953
5460.20020 0.8943
5466.20020 0.8944
5472.20020 0.8933
5478.20020 0.8924
5484.20020 0.8922
5490.29980 0.8919
5496.29980 0.891
5502.29980 0.8898
5508.29980 0.8886
5514.29980 0.8877
5520.29980 0.8868
5526.29980 0.8863
5532.29980 0.8846
5538.29980 0.8828
5544.29980 0.8816
5550.29980 0.88
5556.29980 0.8789
5562.29980 0.8782
5568.39990 0.8773
5574.39990 0.8755
5580.39990 0.8748
5586.39990 0.8739
5592.39990 0.8725
5598.39990 0.8732
5604.39990 0.8732
5610.39990 0.8729
5616.39990 0.872
5622.39990 0.8713
5628.39990 0.8727
5634.39990 0.8733
5640.39990 0.8726
5646.50000 0.8717
5652.50000 0.8738
5658.50000 0.8757
5664.50000 0.8763
5670.50000 0.8776
5676.50000 0.8779
5682.50000 0.8792
5688.50000 0.8808
5694.50000 0.8813
5700.50000 0.882
5706.50000 0.8828
5712.50000 0.8841
5718.50000 0.8857
5724.50000 0.8858
5730.60010 0.8864
5736.60010 0.8876
5742.60010 0.8884
5748.60010 0.8898
5754.60010 0.8902
5760.60010 0.8909
5766.60010 0.8917
5772.60010 0.8929
5778.60010 0.8947
5784.60010 0.8948
5790.60010 0.8944
5796.60010 0.8944
5802.60010 0.8942
5808.70020 0.895
5814.70020 0.8959
5820.70020 0.8962
5826.70020 0.8967
5832.70020 0.8975
5838.70020 0.8981
5844.70020 0.8992
5850.70020 0.8992
5856.70020 0.8999
5862.70020 0.9003
5868.70020 0.9014
5874.70020 0.9022
5880.70020 0.9032
5886.70020 0.9036
5892.79980 0.9045
5898.79980 0.9055
5904.79980 0.9064
5910.79980 0.9074
5916.79980 0.9075
5922.79980 0.909
5928.79980 0.9112
5934.79980 0.9115
5940.79980 0.912
5946.79980 0.9123
5952.79980 0.9125
5958.79980 0.9135
5964.79980 0.9144
5970.89990 0.9147
5976.89990 0.9149
5982.89990 0.9143
5988.89990 0.9141
5994.89990 0.9141
6000.89990 0.9137
6006.89990 0.9139
6012.89990 0.9132
6018.89990 0.9127
6024.89990 0.9109
6030.89990 0.9104
6036.89990 0.9095
6042.89990 0.9076
6049.00000 0.9068
6055.00000 0.9064
6061.00000 0.9047
6067.00000 0.9034
6073.00000 0.902
6079.00000 0.9009
6085.00000 0.8998
6091.00000 0.8997
6097.00000 0.8995
6103.00000 0.8987
6109.00000 0.8987
6115.00000 0.8991
6121.00000 0.8979
6127.00000 0.8973
6133.10010 0.8982
6139.10010 0.8983
6145.10010 0.8986
6151.10010 0.8986
6157.10010 0.8979
6163.10010 0.8985
6169.10010 0.8991
6175.10010 0.8993
6181.10010 0.901
6187.10010 0.9024
6193.10010 0.9023
6199.10010 0.9034
6205.10010 0.9046
6211.20020 0.9054
6217.20020 0.906
6223.20020 0.907
6229.20020 0.9081
6235.20020 0.9086
6241.20020 0.9077
6247.20020 0.904
6253.20020 0.9019
6259.20020 0.9034
6265.20020 0.9043
6271.20020 0.9047
6277.20020 0.9058
6283.20020 0.905
6289.29980 0.9042
6295.29980 0.9037
6301.29980 0.904
6307.29980 0.9035
6313.29980 0.9026
6319.29980 0.9013
6325.29980 0.9006
6331.29980 0.8996
6337.29980 0.898
6343.29980 0.8951
6349.29980 0.8927
6355.29980 0.8907
6361.29980 0.8891
6367.29980 0.8856
6373.39990 0.8831
6379.39990 0.8803
6385.39990 0.8777
6391.39990 0.876
6397.39990 0.8727
6403.39990 0.8689
6409.39990 0.8661
6415.39990 0.863
6421.39990 0.8596
6427.39990 0.8563
6433.39990 0.8523
6439.39990 0.8495
6445.39990 0.8461
6451.50000 0.8416
6457.50000 0.838
6463.50000 0.8346
6469.50000 0.8313
6475.50000 0.8273
6481.50000 0.8233
6487.50000 0.8202
6493.50000 0.8171
6499.50000 0.8134
6505.50000 0.8098
6511.50000 0.8066
6517.50000 0.8037
6523.50000 0.7999
6529.50000 0.797
6535.60010 0.794
6541.60010 0.7906
6547.60010 0.7872
6577.60010 0.7763
6583.60010 0.7742
6589.60010 0.7727
6595.60010 0.7707
6601.60010 0.7681
6607.60010 0.7665
6613.70020 0.7647
6619.70020 0.7633
6625.70020 0.7623
6631.70020 0.7616
6637.70020 0.7616
6643.70020 0.7621
6649.70020 0.7621
6655.70020 0.762
6661.70020 0.7622
6667.70020 0.7621
6673.70020 0.7627
6679.70020 0.7638
6685.70020 0.7649
6691.79980 0.766
6697.79980 0.7675
6703.79980 0.7689
6709.79980 0.7701
6715.79980 0.7721
6721.79980 0.7733
6727.79980 0.775
6733.79980 0.777
6739.79980 0.7798
6745.79980 0.7824
6751.79980 0.7851
6757.79980 0.7868
6763.79980 0.7885
6769.79980 0.7893
6775.89990 0.7904
6781.89990 0.7912
6787.89990 0.7917
6793.89990 0.7914
6799.89990 0.7916
6805.89990 0.7902
6811.89990 0.7892
6817.89990 0.7882
6823.89990 0.7854
6829.89990 0.7823
6835.89990 0.7798
6841.89990 0.7754
6847.89990 0.77
6854.00000 0.7648
6860.00000 0.7594
6866.00000 0.7539
6872.00000 0.7473
6878.00000 0.7393
6884.00000 0.7308
6890.00000 0.7224
6896.00000 0.7133
6902.00000 0.7037
6908.00000 0.6933
6914.00000 0.6838
6920.00000 0.6738
6926.00000 0.6636
6932.00000 0.6525
6938.10010 0.6421
6944.10010 0.6322
6950.10010 0.621
6956.10010 0.6097
6962.10010 0.5993
6968.10010 0.5868
6974.10010 0.576
6980.10010 0.5668
6986.10010 0.5569
6992.10010 0.548
6998.10010 0.5397
7004.10010 0.5309
7010.10010 0.5222
7016.20020 0.5141
7022.20020 0.5055
7028.20020 0.4981
7034.20020 0.492
7040.20020 0.4862
7046.20020 0.4806
7052.20020 0.4756
7058.20020 0.4712
7064.20020 0.4662
7070.20020 0.4617
7076.20020 0.4583
7082.20020 0.4554
7088.20020 0.4529
7094.29980 0.4513
7100.29980 0.4504
7106.29980 0.4494
7112.29980 0.449
7118.29980 0.4491
7124.29980 0.4502
7130.29980 0.4522
7136.29980 0.4541
7142.29980 0.4564
7148.29980 0.4596
7154.29980 0.4633
7160.29980 0.4673
7166.29980 0.472
7172.29980 0.4768
7178.39990 0.4823
7184.39990 0.4879
7190.39990 0.4935
7196.39990 0.4996
7202.39990 0.5056
7208.39990 0.5123
7214.39990 0.5178
7220.39990 0.5226
7226.39990 0.5276
7232.39990 0.5325
7238.39990 0.5359
7244.39990 0.5365
7250.39990 0.5355
7256.50000 0.5333
7262.50000 0.5286
7268.50000 0.5223
7274.50000 0.5124
7280.50000 0.4996
7286.50000 0.4844
7292.50000 0.4672
7298.50000 0.4489
7304.50000 0.4286
7310.50000 0.4064
7316.50000 0.3839
7322.50000 0.3612
7328.50000 0.3375
7334.60010 0.3139
7340.60010 0.291
7346.60010 0.269
7352.60010 0.2487
7358.60010 0.2297
7364.60010 0.211
7370.60010 0.1933
7376.60010 0.1776
7382.60010 0.1624
7388.60010 0.1473
7394.60010 0.1346
7400.60010 0.124
7406.60010 0.1143
7412.60010 0.1051
7418.70020 0.096
7424.70020 0.0878
7430.70020 0.0806
7436.70020 0.0747
7442.70020 0.0693
7448.70020 0.0634
7454.70020 0.0585
7460.70020 0.0541
7466.70020 0.0507
7472.70020 0.0475
7478.70020 0.0441
7484.70020 0.0407
7490.70020 0.0377
7496.79980 0.0351
7502.79980 0.0326
7508.79980 0.0303
7514.79980 0.0289
7520.79980 0.027
7526.79980 0.0259
7532.79980 0.0243
7538.79980 0.0227
7544.79980 0.0211
7550.79980 0.0198
7556.79980 0.0186
7562.79980 0.0174
7568.79980 0.0163
7574.79980 0.0153
7580.89990 0.0152
7586.89990 0.0138
7592.89990 0.0133
7598.89990 0.0132
7604.89990 0.0122
7610.89990 0.0114
7616.89990 0.0107
7622.89990 0.0107
7628.89990 0.0095
7634.89990 0.0099
7640.89990 0.0098
7646.89990 0.0087
7652.89990 0.0075
7659.00000 0.0073
7665.00000 0.0071
7671.00000 0.0073
7677.00000 0.0072
7683.00000 0.0069
7689.00000 0.0069
7695.00000 0.0068
7701.00000 0.0063
7707.00000 0.0063
7713.00000 0.0065
7719.00000 0.0069
7725.00000 0.0052
7731.00000 0.0056
7737.10010 0.0045
7743.10010 0.0047
7749.10010 0.0045
7755.10010 0.005
7761.10010 0.0049
7767.10010 0.005
7773.10010 0.0048
7779.10010 0.0053
7785.10010 0.0042
7791.10010 0.0043
7797.10010 0.0044
7803.10010 0.0043
8583.41016 0.0
