# %ECSV 0.9
# ---
# datatype:
# - {name: wavelength, unit: Angstrom, datatype: float32}
# - {name: response, datatype: float32}
# meta: !!omap
# - {band_name: Jlow}
# - {group_name: Flamingos2}
wavelength response
9198.00000 0.0
10220.00000 0.004
10225.00000 0.0046
10230.00000 0.005
10235.00000 0.0056
10240.00000 0.0062
10245.00000 0.0068
10250.00000 0.0075
10255.00000 0.0083
10260.00000 0.0092
10265.00000 0.0102
10270.00000 0.0112
10275.00000 0.0122
10280.00000 0.0135
10285.00000 0.0147
10290.00000 0.0161
10295.00000 0.0176
10300.00000 0.0192
10305.00000 0.0207
10310.00000 0.0224
10315.00000 0.0244
10320.00000 0.0264
10325.00000 0.0285
10330.00000 0.0309
10335.00000 0.0333
10340.00000 0.0359
10345.00000 0.0388
10350.00000 0.042
10355.00000 0.0454
10360.00000 0.0491
10365.00000 0.053
10370.00000 0.0572
10375.00000 0.062
10380.00000 0.0672
10385.00000 0.0729
10390.00000 0.0792
10395.00000 0.086
10400.00000 0.0935
10405.00000 0.1016
10410.00000 0.1109
10415.00000 0.1208
10420.00000 0.1318
10425.00000 0.1436
10430.00000 0.1558
10435.00000 0.1693
10440.00000 0.184
10445.00000 0.1991
10450.00000 0.2147
10455.00000 0.2314
10460.00000 0.2485
10465.00000 0.2655
10470.00000 0.2839
10475.00000 0.3015
10480.00000 0.319
10485.00000 0.3375
10490.00000 0.3553
10495.00000 0.3727
10500.00000 0.3895
10505.00000 0.4051
10510.00000 0.4192
10515.00000 0.4327
10520.00000 0.4449
10525.00000 0.4557
10530.00000 0.4662
10535.00000 0.4753
10540.00000 0.4834
10545.00000 0.4912
10550.00000 0.4984
10555.00000 0.5044
10560.00000 0.5096
10565.00000 0.5144
10570.00000 0.5185
10575.00000 0.5216
10580.00000 0.5243
10585.00000 0.5259
10590.00000 0.527
10595.00000 0.5273
10600.00000 0.5274
10605.00000 0.5265
10610.00000 0.5256
10615.00000 0.5239
10620.00000 0.5222
10625.00000 0.5203
10630.00000 0.5184
10635.00000 0.516
10640.00000 0.5139
10645.00000 0.5112
10650.00000 0.5084
10655.00000 0.5057
10660.00000 0.503
10665.00000 0.5001
10670.00000 0.4973
10675.00000 0.4946
10680.00000 0.4924
10685.00000 0.4919
10690.00000 0.4918
10695.00000 0.4918
10700.00000 0.4921
10705.00000 0.4915
10710.00000 0.4911
10715.00000 0.4909
10720.00000 0.491
10725.00000 0.4913
10730.00000 0.492
10735.00000 0.4929
10740.00000 0.4938
10745.00000 0.4964
10750.00000 0.4987
10755.00000 0.5017
10760.00000 0.5044
10765.00000 0.507
10770.00000 0.5095
10775.00000 0.5121
10780.00000 0.5147
10785.00000 0.5172
10790.00000 0.5196
10795.00000 0.5218
10800.00000 0.524
10805.00000 0.5262
10810.00000 0.5281
10815.00000 0.5302
10820.00000 0.5318
10825.00000 0.5336
10830.00000 0.5353
10835.00000 0.5369
10840.00000 0.5381
10845.00000 0.5412
10850.00000 0.5438
10855.00000 0.5466
10860.00000 0.549
10865.00000 0.5501
10870.00000 0.5509
10875.00000 0.552
10880.00000 0.5527
10885.00000 0.5533
10890.00000 0.5536
10895.00000 0.5542
10900.00000 0.5544
10905.00000 0.5549
10910.00000 0.5552
10915.00000 0.5558
10920.00000 0.556
10925.00000 0.5565
10930.00000 0.5566
10935.00000 0.557
10940.00000 0.5571
10945.00000 0.556
10950.00000 0.5546
10955.00000 0.5532
10960.00000 0.5517
10965.00000 0.5538
10970.00000 0.5556
10975.00000 0.5575
10980.00000 0.5593
10985.00000 0.5613
10990.00000 0.5633
10995.00000 0.565
11000.00000 0.5667
11005.00000 0.5654
11010.00000 0.5637
11015.00000 0.5621
11020.00000 0.5602
11025.00000 0.5595
11030.00000 0.5586
11035.00000 0.5578
11040.00000 0.5566
11045.00000 0.5564
11050.00000 0.5558
11055.00000 0.5554
11060.00000 0.5549
11065.00000 0.5549
11070.00000 0.5549
11075.00000 0.5547
11080.00000 0.5544
11085.00000 0.5542
11090.00000 0.5534
11095.00000 0.553
11100.00000 0.5525
11105.00000 0.5509
11110.00000 0.5493
11115.00000 0.548
11120.00000 0.5468
11125.00000 0.547
11130.00000 0.5474
11135.00000 0.5478
11140.00000 0.5484
11145.00000 0.5479
11150.00000 0.5476
11155.00000 0.5472
11160.00000 0.5471
11165.00000 0.545
11170.00000 0.5433
11175.00000 0.5414
11180.00000 0.54
11185.00000 0.5385
11190.00000 0.5373
11195.00000 0.5364
11200.00000 0.5355
11205.00000 0.5375
11210.00000 0.5399
11215.00000 0.5422
11220.00000 0.5449
11225.00000 0.5463
11230.00000 0.5483
11235.00000 0.5502
11240.00000 0.5523
11245.00000 0.5538
11250.00000 0.5555
11255.00000 0.557
11260.00000 0.5588
11265.00000 0.5623
11270.00000 0.5658
11275.00000 0.569
11280.00000 0.5727
11285.00000 0.5765
11290.00000 0.5806
11295.00000 0.5847
11300.00000 0.5889
11305.00000 0.5922
11310.00000 0.5959
11315.00000 0.5991
11320.00000 0.6025
11325.00000 0.6043
11330.00000 0.6061
11335.00000 0.6076
11340.00000 0.6092
11345.00000 0.6106
11350.00000 0.6122
11355.00000 0.6134
11360.00000 0.6148
11365.00000 0.6165
11370.00000 0.6183
11375.00000 0.6198
11380.00000 0.6215
11385.00000 0.6228
11390.00000 0.6242
11395.00000 0.6253
11400.00000 0.6267
11405.00000 0.6258
11410.00000 0.625
11415.00000 0.624
11420.00000 0.6232
11425.00000 0.6238
11430.00000 0.6248
11435.00000 0.6255
11440.00000 0.6263
11445.00000 0.6279
11450.00000 0.6296
11455.00000 0.6312
11460.00000 0.6328
11465.00000 0.6322
11470.00000 0.6318
11475.00000 0.6311
11480.00000 0.6305
11485.00000 0.6294
11490.00000 0.6285
11495.00000 0.6274
11500.00000 0.6262
11505.00000 0.6259
11510.00000 0.6258
11515.00000 0.6253
11520.00000 0.6248
11525.00000 0.6246
11530.00000 0.6244
11535.00000 0.6238
11540.00000 0.6237
11545.00000 0.6234
11550.00000 0.6231
11555.00000 0.6225
11560.00000 0.6221
11565.00000 0.6205
11570.00000 0.6191
11575.00000 0.6175
11580.00000 0.616
11585.00000 0.6143
11590.00000 0.6126
11595.00000 0.6106
11600.00000 0.609
11605.00000 0.6082
11610.00000 0.6074
11615.00000 0.6067
11620.00000 0.606
11625.00000 0.6047
11630.00000 0.6035
11635.00000 0.6024
11640.00000 0.6014
11645.00000 0.6
11650.00000 0.5988
11655.00000 0.5978
11660.00000 0.5967
11665.00000 0.5962
11670.00000 0.5957
11675.00000 0.5954
11680.00000 0.5949
11685.00000 0.5955
11690.00000 0.596
11695.00000 0.5966
11700.00000 0.5972
11705.00000 0.5973
11710.00000 0.5975
11715.00000 0.5977
11720.00000 0.598
11725.00000 0.5979
11730.00000 0.5976
11735.00000 0.5977
11740.00000 0.5976
11745.00000 0.5986
11750.00000 0.5995
11755.00000 0.6005
11760.00000 0.6015
11765.00000 0.6034
11770.00000 0.605
11775.00000 0.6071
11780.00000 0.6088
11785.00000 0.61
11790.00000 0.611
11795.00000 0.6123
11800.00000 0.6134
11805.00000 0.6142
11810.00000 0.6146
11815.00000 0.6152
11820.00000 0.6154
11825.00000 0.6163
11830.00000 0.6168
11835.00000 0.6169
11840.00000 0.6159
11845.00000 0.615
11850.00000 0.6127
11855.00000 0.609
11860.00000 0.6027
11865.00000 0.5937
11870.00000 0.5822
11875.00000 0.5678
11880.00000 0.5502
11885.00000 0.5295
11890.00000 0.5055
11895.00000 0.4775
11900.00000 0.447
11905.00000 0.4151
11910.00000 0.3823
11915.00000 0.3484
11920.00000 0.3131
11925.00000 0.28
11930.00000 0.248
11935.00000 0.2174
11940.00000 0.1901
11945.00000 0.1653
11950.00000 0.1433
11955.00000 0.1222
11960.00000 0.1051
11965.00000 0.0899
11970.00000 0.0766
11975.00000 0.0658
11980.00000 0.0562
11985.00000 0.0479
11990.00000 0.0406
11995.00000 0.0341
12000.00000 0.0298
12005.00000 0.0255
12010.00000 0.022
12015.00000 0.0189
12020.00000 0.0163
12025.00000 0.014
12030.00000 0.0121
12035.00000 0.0105
12040.00000 0.0091
12045.00000 0.0079
12050.00000 0.0069
12055.00000 0.006
12060.00000 0.0052
12065.00000 0.0045
12070.00000 0.004
13277.00000 0.0
