# %ECSV 0.9
# ---
# datatype:
# - {name: wavelength, unit: Angstrom, datatype: float32}
# - {name: response, datatype: float32}
# meta: !!omap
# - {band_name: Kshort}
# - {group_name: GSAOI}
wavelength response
16470.00000 0.0
18300.00000 0.000163
18302.50000 0.000185
18305.00000 0.00012
18307.50000 0.00015
18310.00000 0.000177
18312.50000 0.000166
18315.00000 0.000159
18317.50000 0.000126
18320.00000 0.000124
18322.50000 0.000116
18325.00000 0.000169
18327.50000 0.00016
18330.00000 0.000136
18332.50000 0.000165
18335.00000 0.000173
18337.50000 0.000183
18340.00000 0.0001
18342.50000 0.00021
18345.00000 0.000183
18347.50000 0.000185
18350.00000 0.000154
18352.50000 0.000145
18355.00000 0.000155
18357.50000 0.000118
18360.00000 0.000103
18362.50000 0.00015
18365.00000 0.000133
18367.50000 0.00019
18370.00000 0.000193
18372.50000 7.9e-05
18375.00000 0.000147
18377.50000 8.9e-05
18380.00000 0.00018
18382.50000 0.000154
18385.00000 0.000161
18387.50000 0.000164
18390.00000 0.000181
18392.50000 0.000175
18395.00000 0.000111
18397.50000 0.00012
18400.00000 0.00012
18402.50000 0.000135
18405.00000 0.000146
18407.50000 0.000135
18410.00000 0.000168
18412.50000 0.000215
18415.00000 0.000143
18417.50000 0.00016
18420.00000 0.000211
18422.50000 0.000163
18425.00000 0.000174
18427.50000 0.000178
18430.00000 0.000167
18432.50000 0.000152
18435.00000 0.000182
18437.50000 0.000151
18440.00000 0.000169
18442.50000 0.00018
18445.00000 0.000133
18447.50000 0.000103
18450.00000 0.00013
18452.50000 0.000198
18455.00000 0.000123
18457.50000 0.000228
18460.00000 0.000167
18462.50000 0.000194
18465.00000 0.00013
18467.50000 0.00017
18470.00000 0.000131
18472.50000 0.000124
18475.00000 0.000123
18477.50000 0.000108
18480.00000 0.00012
18482.50000 0.000154
18485.00000 0.000139
18487.50000 9.3e-05
18490.00000 0.000185
18492.50000 0.000137
18495.00000 0.000171
18497.50000 0.000195
18500.00000 0.000164
18502.50000 0.000198
18505.00000 0.000134
18507.50000 0.000123
18510.00000 0.000205
18512.50000 0.000171
18515.00000 0.000185
18517.50000 0.00017
18520.00000 0.000173
18522.50000 0.000157
18525.00000 9.7e-05
18527.50000 0.000137
18530.00000 0.000118
18532.50000 0.000125
18535.00000 0.000153
18537.50000 0.000136
18540.00000 0.000145
18542.50000 0.000134
18545.00000 0.000128
18547.50000 0.000175
18550.00000 0.000186
18552.50000 0.000108
18555.00000 0.000165
18557.50000 0.000161
18560.00000 0.000132
18562.50000 0.000104
18565.00000 0.000138
18567.50000 0.000205
18570.00000 0.000196
18572.50000 7.9e-05
18575.00000 0.000116
18577.50000 0.000139
18580.00000 0.00017
18582.50000 0.000201
18585.00000 0.000134
18587.50000 0.000145
18590.00000 0.000113
18592.50000 8.3e-05
18595.00000 3.1e-05
18597.50000 0.000146
18600.00000 0.000127
18602.50000 0.000114
18605.00000 0.000174
18607.50000 0.000108
18610.00000 0.000121
18612.50000 0.000126
18615.00000 0.000154
18617.50000 0.000161
18620.00000 0.000188
18622.50000 0.000139
18625.00000 0.00017
18627.50000 0.000124
18630.00000 0.000158
18632.50000 0.000148
18635.00000 0.00016
18637.50000 0.000186
18640.00000 0.000164
18642.50000 0.000105
18645.00000 0.000135
18647.50000 0.000101
18650.00000 0.000123
18652.50000 0.000205
18655.00000 0.000142
18657.50000 0.000152
18660.00000 0.000181
18662.50000 0.00015
18665.00000 7.2e-05
18667.50000 0.000104
18670.00000 0.00015
18672.50000 0.000144
18675.00000 0.000156
18677.50000 9.9e-05
18680.00000 0.000204
18682.50000 0.000174
18685.00000 0.000125
18687.50000 0.000162
18690.00000 0.000131
18692.50000 0.000169
18695.00000 0.000142
18697.50000 0.000149
18700.00000 7.8e-05
18702.50000 0.000116
18705.00000 0.00013
18707.50000 0.000136
18710.00000 0.00018
18712.50000 6.3e-05
18715.00000 0.000143
18717.50000 9.8e-05
18720.00000 0.000162
18722.50000 0.000254
18725.00000 0.000101
18727.50000 0.00017
18730.00000 0.000108
18732.50000 0.000173
18735.00000 0.000131
18737.50000 0.000157
18740.00000 0.000159
18742.50000 0.000128
18745.00000 0.000156
18747.50000 0.000131
18750.00000 0.000112
18752.50000 0.000169
18755.00000 0.000202
18757.50000 0.000179
18760.00000 0.000182
18762.50000 0.000248
18765.00000 0.000152
18767.50000 0.000132
18770.00000 0.000148
18772.50000 0.000155
18775.00000 0.000171
18777.50000 0.000157
18780.00000 0.000166
18782.50000 0.000163
18785.00000 0.000138
18787.50000 0.000109
18790.00000 0.000161
18792.50000 0.000192
18795.00000 0.000135
18797.50000 0.000172
18800.00000 0.000148
18802.50000 0.00012
18805.00000 0.000124
18807.50000 0.00014
18810.00000 0.000136
18812.50000 0.0001
18815.00000 0.000168
18817.50000 0.000168
18820.00000 0.000168
18822.50000 0.000201
18825.00000 0.000149
18827.50000 0.000171
18830.00000 0.000165
18832.50000 0.000179
18835.00000 9.4e-05
18837.50000 0.000137
18840.00000 0.000168
18842.50000 0.000239
18845.00000 0.000135
18847.50000 0.000136
18850.00000 0.000197
18852.50000 0.000165
18855.00000 0.00018
18857.50000 0.000144
18860.00000 0.000166
18862.50000 0.000137
18865.00000 0.000118
18867.50000 0.000178
18870.00000 0.000121
18872.50000 0.000189
18875.00000 0.000167
18877.50000 0.000223
18880.00000 0.000149
18882.50000 0.000185
18885.00000 0.000136
18887.50000 0.000171
18890.00000 0.000227
18892.50000 0.000155
18895.00000 0.000189
18897.50000 0.000139
18900.00000 0.000111
18902.50000 0.000116
18905.00000 0.000125
18907.50000 0.000193
18910.00000 0.000149
18912.50000 0.000213
18915.00000 0.000209
18917.50000 0.000181
18920.00000 0.000171
18922.50000 0.00011
18925.00000 0.000239
18927.50000 0.000177
18930.00000 0.000199
18932.50000 0.000186
18935.00000 0.000227
18937.50000 0.000175
18940.00000 0.000141
18942.50000 0.000165
18945.00000 0.000223
18947.50000 0.000185
18950.00000 0.000177
18952.50000 0.000177
18955.00000 0.000157
18957.50000 0.000192
18960.00000 0.000216
18962.50000 0.000208
18965.00000 0.000192
18967.50000 0.000141
18970.00000 0.000153
18972.50000 0.00011
18975.00000 0.000164
18977.50000 0.000246
18980.00000 0.000246
18982.50000 0.000191
18985.00000 0.000185
18987.50000 0.000189
18990.00000 0.000167
18992.50000 0.000229
18995.00000 0.000158
18997.50000 0.000203
19000.00000 0.000204
19002.50000 0.00025
19005.00000 0.000153
19007.50000 0.000169
19010.00000 0.000115
19012.50000 0.000193
19015.00000 0.000203
19017.50000 0.000216
19020.00000 0.000196
19022.50000 0.000157
19025.00000 0.000231
19027.50000 0.000169
19030.00000 0.00023
19032.50000 0.000237
19035.00000 0.000173
19037.50000 0.000189
19040.00000 0.000243
19042.50000 0.000217
19045.00000 0.00017
19047.50000 0.000196
19050.00000 0.000215
19052.50000 0.000216
19055.00000 0.000192
19057.50000 0.000154
19060.00000 0.000154
19062.50000 0.000231
19065.00000 0.000229
19067.50000 0.000182
19070.00000 0.000209
19072.50000 0.00024
19075.00000 0.000196
19077.50000 0.000249
19080.00000 0.000207
19082.50000 0.000189
19085.00000 0.000231
19087.50000 0.000213
19090.00000 0.000247
19092.50000 0.000216
19095.00000 0.000161
19097.50000 0.00021
19100.00000 0.000229
19102.50000 0.000224
19105.00000 0.000225
19107.50000 0.000165
19110.00000 0.000181
19112.50000 0.000264
19115.00000 0.000218
19117.50000 0.000226
19120.00000 0.000276
19122.50000 0.000229
19125.00000 0.000208
19127.50000 0.000204
19130.00000 0.000187
19132.50000 0.000268
19135.00000 0.000146
19137.50000 0.000235
19140.00000 0.000207
19142.50000 0.00023
19145.00000 0.000273
19147.50000 0.000245
19150.00000 0.00021
19152.50000 0.000215
19155.00000 0.000274
19157.50000 0.000324
19160.00000 0.000202
19162.50000 0.000263
19165.00000 0.000243
19167.50000 0.00025
19170.00000 0.000216
19172.50000 0.000267
19175.00000 0.000269
19177.50000 0.000322
19180.00000 0.000293
19182.50000 0.00029
19185.00000 0.000264
19187.50000 0.000279
19190.00000 0.00029
19192.50000 0.000274
19195.00000 0.000326
19197.50000 0.000281
19200.00000 0.000226
19202.50000 0.000263
19205.00000 0.00029
19207.50000 0.000292
19210.00000 0.000208
19212.50000 0.000276
19215.00000 0.00031
19217.50000 0.000356
19220.00000 0.000289
19222.50000 0.000312
19225.00000 0.000322
19227.50000 0.000282
19230.00000 0.000298
19232.50000 0.000292
19235.00000 0.00032
19237.50000 0.000375
19240.00000 0.000331
19242.50000 0.000283
19245.00000 0.00033
19247.50000 0.000344
19250.00000 0.000348
19252.50000 0.000348
19255.00000 0.000362
19257.50000 0.000379
19260.00000 0.000393
19262.50000 0.000419
19265.00000 0.000457
19267.50000 0.000392
19270.00000 0.000413
19272.50000 0.000376
19275.00000 0.000447
19277.50000 0.000403
19280.00000 0.000402
19282.50000 0.00048
19285.00000 0.000468
19287.50000 0.000422
19290.00000 0.000372
19292.50000 0.000452
19295.00000 0.000479
19297.50000 0.00052
19300.00000 0.000455
19302.50000 0.000452
19305.00000 0.000469
19307.50000 0.000527
19310.00000 0.00055
19312.50000 0.000511
19315.00000 0.000557
19317.50000 0.000521
19320.00000 0.000649
19322.50000 0.000532
19325.00000 0.000582
19327.50000 0.000649
19330.00000 0.000599
19332.50000 0.000584
19335.00000 0.00061
19337.50000 0.000632
19340.00000 0.000737
19342.50000 0.000664
19345.00000 0.000731
19347.50000 0.000757
19350.00000 0.000725
19352.50000 0.000737
19355.00000 0.000739
19357.50000 0.000745
19360.00000 0.000803
19362.50000 0.000769
19365.00000 0.000866
19367.50000 0.000861
19370.00000 0.000877
19372.50000 0.000874
19375.00000 0.000915
19377.50000 0.000921
19380.00000 0.000825
19382.50000 0.000949
19385.00000 0.000958
19387.50000 0.000964
19390.00000 0.000962
19392.50000 0.001029
19395.00000 0.001051
19397.50000 0.001104
19400.00000 0.001092
19402.50000 0.001088
19405.00000 0.00114
19407.50000 0.001149
19410.00000 0.001199
19412.50000 0.001243
19415.00000 0.001271
19417.50000 0.001383
19420.00000 0.001249
19422.50000 0.001379
19425.00000 0.001391
19427.50000 0.001372
19430.00000 0.001445
19432.50000 0.00144
19435.00000 0.001544
19437.50000 0.001537
19440.00000 0.001581
19442.50000 0.001574
19445.00000 0.001695
19447.50000 0.00172
19450.00000 0.001725
19452.50000 0.00178
19455.00000 0.001771
19457.50000 0.001885
19460.00000 0.00186
19462.50000 0.001915
19465.00000 0.002073
19467.50000 0.002024
19470.00000 0.002071
19472.50000 0.002054
19475.00000 0.002173
19477.50000 0.002228
19480.00000 0.002255
19482.50000 0.002301
19485.00000 0.002361
19487.50000 0.002444
19490.00000 0.002495
19492.50000 0.002525
19495.00000 0.002587
19497.50000 0.002706
19500.00000 0.002712
19502.50000 0.002829
19505.00000 0.00292
19507.50000 0.00289
19510.00000 0.002971
19512.50000 0.003025
19515.00000 0.003115
19517.50000 0.003147
19520.00000 0.003263
19522.50000 0.003363
19525.00000 0.003426
19527.50000 0.0035
19530.00000 0.003568
19532.50000 0.00367
19535.00000 0.003827
19537.50000 0.003838
19540.00000 0.003964
19542.50000 0.004032
19545.00000 0.004139
19547.50000 0.004234
19550.00000 0.004334
19552.50000 0.00444
19555.00000 0.004562
19557.50000 0.00473
19560.00000 0.004805
19562.50000 0.004912
19565.00000 0.005071
19567.50000 0.005172
19570.00000 0.005335
19572.50000 0.00547
19575.00000 0.005587
19577.50000 0.005762
19580.00000 0.005844
19582.50000 0.005983
19585.00000 0.006212
19587.50000 0.006355
19590.00000 0.006563
19592.50000 0.006716
19595.00000 0.006953
19597.50000 0.007108
19600.00000 0.007268
19602.50000 0.007497
19605.00000 0.00773
19607.50000 0.00802
19610.00000 0.008143
19612.50000 0.008409
19615.00000 0.00861
19617.50000 0.00888
19620.00000 0.009165
19622.50000 0.009468
19625.00000 0.009755
19627.50000 0.010029
19630.00000 0.010324
19632.50000 0.010552
19635.00000 0.011004
19637.50000 0.011303
19640.00000 0.011643
19642.50000 0.012049
19645.00000 0.012374
19647.50000 0.012808
19650.00000 0.013154
19652.50000 0.013585
19655.00000 0.014056
19657.50000 0.014449
19660.00000 0.015053
19662.50000 0.015428
19665.00000 0.015957
19667.50000 0.016477
19670.00000 0.01704
19672.50000 0.01765
19675.00000 0.018226
19677.50000 0.018839
19680.00000 0.019455
19682.50000 0.020126
19685.00000 0.020848
19687.50000 0.021462
19690.00000 0.022395
19692.50000 0.022892
19695.00000 0.023931
19697.50000 0.024629
19700.00000 0.02549
19702.50000 0.026608
19705.00000 0.027457
19707.50000 0.028467
19710.00000 0.029446
19712.50000 0.03055
19715.00000 0.031706
19717.50000 0.03273
19720.00000 0.034178
19722.50000 0.03538
19725.00000 0.036741
19727.50000 0.037964
19730.00000 0.039386
19732.50000 0.041023
19735.00000 0.042281
19737.50000 0.044185
19740.00000 0.045675
19742.50000 0.047538
19745.00000 0.049223
19747.50000 0.05098
19750.00000 0.053278
19752.50000 0.054894
19755.00000 0.057362
19757.50000 0.059273
19760.00000 0.061788
19762.50000 0.063948
19765.00000 0.066113
19767.50000 0.069334
19770.00000 0.071692
19772.50000 0.074734
19775.00000 0.077356
19777.50000 0.080443
19780.00000 0.083513
19782.50000 0.086408
19785.00000 0.090233
19787.50000 0.093263
19790.00000 0.09734
19792.50000 0.100837
19795.00000 0.104613
19797.50000 0.109103
19800.00000 0.112493
19802.50000 0.117241
19805.00000 0.121142
19807.50000 0.126429
19810.00000 0.13095
19812.50000 0.135437
19815.00000 0.141319
19817.50000 0.145515
19820.00000 0.151334
19822.50000 0.156564
19825.00000 0.162777
19827.50000 0.168211
19830.00000 0.173867
19832.50000 0.180755
19835.00000 0.18655
19837.50000 0.193794
19840.00000 0.200236
19842.50000 0.206987
19845.00000 0.214841
19847.50000 0.22131
19850.00000 0.229072
19852.50000 0.236123
19855.00000 0.244077
19857.50000 0.253006
19860.00000 0.260484
19862.50000 0.26928
19865.00000 0.276773
19867.50000 0.286195
19870.00000 0.294217
19872.50000 0.30317
19875.00000 0.313057
19877.50000 0.321293
19880.00000 0.332012
19882.50000 0.339554
19885.00000 0.350096
19887.50000 0.359086
19890.00000 0.368749
19892.50000 0.37937
19895.00000 0.387899
19897.50000 0.399769
19900.00000 0.408809
19902.50000 0.420023
19905.00000 0.42849
19907.50000 0.438586
19910.00000 0.450423
19912.50000 0.459577
19915.00000 0.471292
19917.50000 0.480836
19920.00000 0.492113
19922.50000 0.501675
19925.00000 0.511184
19927.50000 0.523614
19930.00000 0.532842
19932.50000 0.544392
19935.00000 0.554071
19937.50000 0.563993
19940.00000 0.575018
19942.50000 0.58479
19945.00000 0.596334
19947.50000 0.605565
19950.00000 0.616712
19952.50000 0.626202
19955.00000 0.635531
19957.50000 0.646728
19960.00000 0.655245
19962.50000 0.666662
19965.00000 0.675372
19967.50000 0.685291
19970.00000 0.694087
19972.50000 0.702659
19975.00000 0.71337
19977.50000 0.721072
19980.00000 0.730333
19982.50000 0.739903
19985.00000 0.747568
19987.50000 0.756318
19990.00000 0.763281
19992.50000 0.772195
19995.00000 0.781745
19997.50000 0.786921
20000.00000 0.794671
20002.50000 0.801182
20005.00000 0.809783
20007.50000 0.815408
20010.00000 0.823095
20012.50000 0.829202
20015.00000 0.835729
20017.50000 0.841718
20020.00000 0.847341
20022.50000 0.854447
20025.00000 0.859436
20027.50000 0.865371
20030.00000 0.869792
20032.50000 0.875053
20035.00000 0.880612
20037.50000 0.884329
20040.00000 0.889625
20042.50000 0.893184
20045.00000 0.898007
20047.50000 0.901155
20050.00000 0.904965
20052.50000 0.908949
20055.00000 0.911803
20057.50000 0.915582
20060.00000 0.918305
20062.50000 0.921121
20065.00000 0.92349
20067.50000 0.925882
20070.00000 0.928643
20072.50000 0.930384
20075.00000 0.93282
20077.50000 0.934539
20080.00000 0.936612
20082.50000 0.938227
20085.00000 0.939618
20087.50000 0.941118
20090.00000 0.942307
20092.50000 0.943627
20095.00000 0.944535
20097.50000 0.945417
20100.00000 0.946424
20102.50000 0.946999
20105.00000 0.947833
20107.50000 0.94842
20110.00000 0.949089
20112.50000 0.949613
20115.00000 0.949819
20117.50000 0.95022
20120.00000 0.950683
20122.50000 0.950936
20125.00000 0.950953
20127.50000 0.950947
20130.00000 0.951287
20132.50000 0.950897
20135.00000 0.951212
20137.50000 0.951165
20140.00000 0.951244
20142.50000 0.951414
20145.00000 0.951215
20147.50000 0.951161
20150.00000 0.951067
20152.50000 0.950927
20155.00000 0.950858
20157.50000 0.950556
20160.00000 0.950681
20162.50000 0.950477
20165.00000 0.950184
20167.50000 0.950312
20170.00000 0.949985
20172.50000 0.950213
20175.00000 0.950075
20177.50000 0.950048
20180.00000 0.950091
20182.50000 0.949972
20185.00000 0.950106
20187.50000 0.949734
20190.00000 0.949969
20192.50000 0.950056
20195.00000 0.950028
20197.50000 0.95017
20200.00000 0.950319
20202.50000 0.950513
20205.00000 0.950683
20207.50000 0.95104
20210.00000 0.951134
20212.50000 0.951466
20215.00000 0.951358
20217.50000 0.951607
20220.00000 0.95186
20222.50000 0.952141
20225.00000 0.952663
20227.50000 0.952983
20230.00000 0.953371
20232.50000 0.953766
20235.00000 0.953948
20237.50000 0.954254
20240.00000 0.954709
20242.50000 0.955319
20245.00000 0.955633
20247.50000 0.956098
20250.00000 0.956441
20252.50000 0.957186
20255.00000 0.957289
20257.50000 0.958214
20260.00000 0.958845
20262.50000 0.959222
20265.00000 0.959885
20267.50000 0.960256
20270.00000 0.960799
20272.50000 0.961441
20275.00000 0.961586
20277.50000 0.962491
20280.00000 0.963002
20282.50000 0.963642
20285.00000 0.964343
20287.50000 0.96482
20290.00000 0.965492
20292.50000 0.965907
20295.00000 0.966593
20297.50000 0.966951
20300.00000 0.96757
20302.50000 0.968073
20305.00000 0.968686
20307.50000 0.969359
20310.00000 0.969714
20312.50000 0.970228
20315.00000 0.970991
20317.50000 0.971349
20320.00000 0.972181
20322.50000 0.972536
20325.00000 0.973207
20327.50000 0.973571
20330.00000 0.973898
20332.50000 0.974433
20335.00000 0.974718
20337.50000 0.975151
20340.00000 0.975389
20342.50000 0.976102
20345.00000 0.97647
20347.50000 0.976893
20350.00000 0.977214
20352.50000 0.977637
20355.00000 0.977982
20357.50000 0.978401
20360.00000 0.978775
20362.50000 0.978929
20365.00000 0.979047
20367.50000 0.979418
20370.00000 0.979596
20372.50000 0.980072
20375.00000 0.980079
20377.50000 0.980546
20380.00000 0.980579
20382.50000 0.980878
20385.00000 0.981102
20387.50000 0.981287
20390.00000 0.981578
20392.50000 0.981607
20395.00000 0.981605
20397.50000 0.981695
20400.00000 0.981796
20402.50000 0.982097
20405.00000 0.982058
20407.50000 0.982152
20410.00000 0.982325
20412.50000 0.982401
20415.00000 0.982616
20417.50000 0.982471
20420.00000 0.982578
20422.50000 0.982511
20425.00000 0.982413
20427.50000 0.982398
20430.00000 0.982583
20432.50000 0.982587
20435.00000 0.982523
20437.50000 0.982425
20440.00000 0.982566
20442.50000 0.982586
20445.00000 0.982481
20447.50000 0.982296
20450.00000 0.982288
20452.50000 0.982152
20455.00000 0.98196
20457.50000 0.98201
20460.00000 0.982011
20462.50000 0.981875
20465.00000 0.98205
20467.50000 0.981978
20470.00000 0.98192
20472.50000 0.981929
20475.00000 0.981946
20477.50000 0.981734
20480.00000 0.981639
20482.50000 0.981562
20485.00000 0.98147
20487.50000 0.981479
20490.00000 0.981309
20492.50000 0.981172
20495.00000 0.981264
20497.50000 0.981153
20500.00000 0.981216
20502.50000 0.981097
20505.00000 0.980997
20507.50000 0.981017
20510.00000 0.980988
20512.50000 0.980963
20515.00000 0.980894
20517.50000 0.981055
20520.00000 0.980877
20522.50000 0.980923
20525.00000 0.980822
20527.50000 0.980835
20530.00000 0.980568
20532.50000 0.980622
20535.00000 0.980608
20537.50000 0.980622
20540.00000 0.980613
20542.50000 0.980549
20545.00000 0.980417
20547.50000 0.980423
20550.00000 0.980516
20552.50000 0.980416
20555.00000 0.980556
20557.50000 0.980435
20560.00000 0.980533
20562.50000 0.980597
20565.00000 0.980634
20567.50000 0.98072
20570.00000 0.9807
20572.50000 0.980569
20575.00000 0.98072
20577.50000 0.980595
20580.00000 0.980584
20582.50000 0.980714
20585.00000 0.9807
20587.50000 0.980911
20590.00000 0.981002
20592.50000 0.980989
20595.00000 0.981238
20597.50000 0.98109
20600.00000 0.981163
20602.50000 0.981392
20605.00000 0.981394
20607.50000 0.981183
20610.00000 0.981588
20612.50000 0.981434
20615.00000 0.981573
20617.50000 0.981807
20620.00000 0.98171
20622.50000 0.982023
20625.00000 0.981958
20627.50000 0.982111
20630.00000 0.982108
20632.50000 0.982222
20635.00000 0.982244
20637.50000 0.98216
20640.00000 0.982332
20642.50000 0.982511
20645.00000 0.982559
20647.50000 0.982854
20650.00000 0.983002
20652.50000 0.982913
20655.00000 0.982878
20657.50000 0.982922
20660.00000 0.982953
20662.50000 0.982998
20665.00000 0.983157
20667.50000 0.983261
20670.00000 0.983421
20672.50000 0.983473
20675.00000 0.983487
20677.50000 0.983637
20680.00000 0.983791
20682.50000 0.983707
20685.00000 0.983926
20687.50000 0.983923
20690.00000 0.984114
20692.50000 0.983954
20695.00000 0.983923
20697.50000 0.984301
20700.00000 0.984238
20702.50000 0.984262
20705.00000 0.984333
20707.50000 0.984291
20710.00000 0.984404
20712.50000 0.984505
20715.00000 0.984574
20717.50000 0.984438
20720.00000 0.984644
20722.50000 0.984596
20725.00000 0.98469
20727.50000 0.984557
20730.00000 0.984684
20732.50000 0.984687
20735.00000 0.984696
20737.50000 0.98472
20740.00000 0.984727
20742.50000 0.98473
20745.00000 0.984831
20747.50000 0.984796
20750.00000 0.984722
20752.50000 0.984747
20755.00000 0.984697
20757.50000 0.984752
20760.00000 0.984651
20762.50000 0.984537
20765.00000 0.984687
20767.50000 0.984537
20770.00000 0.984681
20772.50000 0.984638
20775.00000 0.984484
20777.50000 0.984729
20780.00000 0.984514
20782.50000 0.984189
20785.00000 0.984324
20787.50000 0.984302
20790.00000 0.98406
20792.50000 0.984181
20795.00000 0.98407
20797.50000 0.984172
20800.00000 0.984065
20802.50000 0.984049
20805.00000 0.983832
20807.50000 0.983742
20810.00000 0.983544
20812.50000 0.983335
20815.00000 0.983215
20817.50000 0.983314
20820.00000 0.983256
20822.50000 0.98308
20825.00000 0.982986
20827.50000 0.98293
20830.00000 0.982876
20832.50000 0.982808
20835.00000 0.982561
20837.50000 0.982298
20840.00000 0.982364
20842.50000 0.982117
20845.00000 0.98201
20847.50000 0.981865
20850.00000 0.981855
20852.50000 0.981821
20855.00000 0.981608
20857.50000 0.981324
20860.00000 0.981203
20862.50000 0.981016
20865.00000 0.98084
20867.50000 0.980937
20870.00000 0.980852
20872.50000 0.980467
20875.00000 0.980496
20877.50000 0.980307
20880.00000 0.980219
20882.50000 0.980165
20885.00000 0.979845
20887.50000 0.979863
20890.00000 0.97972
20892.50000 0.979424
20895.00000 0.979243
20897.50000 0.979014
20900.00000 0.978938
20902.50000 0.978662
20905.00000 0.978625
20907.50000 0.978463
20910.00000 0.978407
20912.50000 0.97834
20915.00000 0.978191
20917.50000 0.978036
20920.00000 0.978184
20922.50000 0.978127
20925.00000 0.977727
20927.50000 0.977573
20930.00000 0.977457
20932.50000 0.977144
20935.00000 0.977236
20937.50000 0.976915
20940.00000 0.977091
20942.50000 0.976981
20945.00000 0.976843
20947.50000 0.976605
20950.00000 0.976853
20952.50000 0.976631
20955.00000 0.976563
20957.50000 0.97649
20960.00000 0.976124
20962.50000 0.976152
20965.00000 0.975969
20967.50000 0.976096
20970.00000 0.975966
20972.50000 0.9758
20975.00000 0.975908
20977.50000 0.975824
20980.00000 0.975605
20982.50000 0.975538
20985.00000 0.975626
20987.50000 0.97543
20990.00000 0.97543
20992.50000 0.975315
20995.00000 0.975309
20997.50000 0.975209
21000.00000 0.975137
21002.50000 0.975282
21005.00000 0.975434
21007.50000 0.975348
21010.00000 0.975205
21012.50000 0.975111
21015.00000 0.975363
21017.50000 0.975147
21020.00000 0.975328
21022.50000 0.975129
21025.00000 0.975167
21027.50000 0.975409
21030.00000 0.975393
21032.50000 0.975422
21035.00000 0.975462
21037.50000 0.975661
21040.00000 0.975458
21042.50000 0.97558
21045.00000 0.975652
21047.50000 0.975579
21050.00000 0.975433
21052.50000 0.975662
21055.00000 0.975671
21057.50000 0.975838
21060.00000 0.975634
21062.50000 0.975882
21065.00000 0.975881
21067.50000 0.976146
21070.00000 0.976188
21072.50000 0.976215
21075.00000 0.976271
21077.50000 0.976311
21080.00000 0.976227
21082.50000 0.976292
21085.00000 0.976863
21087.50000 0.976589
21090.00000 0.976953
21092.50000 0.976993
21095.00000 0.977098
21097.50000 0.977004
21100.00000 0.977073
21102.50000 0.977446
21105.00000 0.977482
21107.50000 0.977335
21110.00000 0.977799
21112.50000 0.977729
21115.00000 0.977752
21117.50000 0.977853
21120.00000 0.978192
21122.50000 0.978047
21125.00000 0.978142
21127.50000 0.978458
21130.00000 0.978594
21132.50000 0.978464
21135.00000 0.978644
21137.50000 0.978786
21140.00000 0.978806
21142.50000 0.97906
21145.00000 0.978884
21147.50000 0.979203
21150.00000 0.979603
21152.50000 0.979664
21155.00000 0.979585
21157.50000 0.979845
21160.00000 0.979685
21162.50000 0.979919
21165.00000 0.9799
21167.50000 0.980108
21170.00000 0.980351
21172.50000 0.980181
21175.00000 0.980519
21177.50000 0.980362
21180.00000 0.980572
21182.50000 0.980853
21185.00000 0.980763
21187.50000 0.980924
21190.00000 0.981139
21192.50000 0.981084
21195.00000 0.981047
21197.50000 0.981057
21200.00000 0.981086
21202.50000 0.981076
21205.00000 0.981505
21207.50000 0.981358
21210.00000 0.981602
21212.50000 0.981736
21215.00000 0.981774
21217.50000 0.981656
21220.00000 0.981774
21222.50000 0.981699
21225.00000 0.9819
21227.50000 0.981782
21230.00000 0.982014
21232.50000 0.982198
21235.00000 0.98233
21237.50000 0.982274
21240.00000 0.982542
21242.50000 0.982529
21245.00000 0.98235
21247.50000 0.982343
21250.00000 0.982369
21252.50000 0.982439
21255.00000 0.982235
21257.50000 0.982296
21260.00000 0.982569
21262.50000 0.982511
21265.00000 0.982612
21267.50000 0.982529
21270.00000 0.982566
21272.50000 0.982761
21275.00000 0.982522
21277.50000 0.982597
21280.00000 0.982658
21282.50000 0.982457
21285.00000 0.982684
21287.50000 0.982896
21290.00000 0.983052
21292.50000 0.98298
21295.00000 0.983035
21297.50000 0.982927
21300.00000 0.983008
21302.50000 0.982677
21305.00000 0.982741
21307.50000 0.982665
21310.00000 0.982733
21312.50000 0.98284
21315.00000 0.982739
21317.50000 0.9827
21320.00000 0.982913
21322.50000 0.982942
21325.00000 0.982877
21327.50000 0.982946
21330.00000 0.983087
21332.50000 0.983031
21335.00000 0.98305
21337.50000 0.98286
21340.00000 0.983184
21342.50000 0.982892
21345.00000 0.983047
21347.50000 0.982879
21350.00000 0.982907
21352.50000 0.983089
21355.00000 0.98296
21357.50000 0.983116
21360.00000 0.982898
21362.50000 0.983029
21365.00000 0.983067
21367.50000 0.983253
21370.00000 0.983153
21372.50000 0.983256
21375.00000 0.983299
21377.50000 0.983199
21380.00000 0.983244
21382.50000 0.98311
21385.00000 0.983266
21387.50000 0.983291
21390.00000 0.983328
21392.50000 0.98347
21395.00000 0.983487
21397.50000 0.983269
21400.00000 0.983517
21402.50000 0.983384
21405.00000 0.983541
21407.50000 0.983697
21410.00000 0.983558
21412.50000 0.983819
21415.00000 0.983697
21417.50000 0.983514
21420.00000 0.983588
21422.50000 0.983708
21425.00000 0.983699
21427.50000 0.983523
21430.00000 0.983639
21432.50000 0.983855
21435.00000 0.983786
21437.50000 0.983662
21440.00000 0.983846
21442.50000 0.983714
21445.00000 0.98382
21447.50000 0.98402
21450.00000 0.983691
21452.50000 0.983812
21455.00000 0.98412
21457.50000 0.984028
21460.00000 0.983703
21462.50000 0.984172
21465.00000 0.983835
21467.50000 0.984045
21470.00000 0.984038
21472.50000 0.984126
21475.00000 0.984229
21477.50000 0.984213
21480.00000 0.983943
21482.50000 0.984093
21485.00000 0.983977
21487.50000 0.984093
21490.00000 0.984287
21492.50000 0.98414
21495.00000 0.984243
21497.50000 0.984365
21500.00000 0.984098
21502.50000 0.984182
21505.00000 0.984051
21507.50000 0.984214
21510.00000 0.984168
21512.50000 0.983985
21515.00000 0.984199
21517.50000 0.984095
21520.00000 0.984055
21522.50000 0.984043
21525.00000 0.983915
21527.50000 0.983991
21530.00000 0.984029
21532.50000 0.983926
21535.00000 0.983998
21537.50000 0.983798
21540.00000 0.983696
21542.50000 0.983685
21545.00000 0.98378
21547.50000 0.983566
21550.00000 0.983488
21552.50000 0.983641
21555.00000 0.983494
21557.50000 0.983403
21560.00000 0.983413
21562.50000 0.983231
21565.00000 0.983234
21567.50000 0.983435
21570.00000 0.98315
21572.50000 0.983007
21575.00000 0.982859
21577.50000 0.982679
21580.00000 0.982699
21582.50000 0.982585
21585.00000 0.98257
21587.50000 0.982401
21590.00000 0.982245
21592.50000 0.982402
21595.00000 0.982493
21597.50000 0.982346
21600.00000 0.982102
21602.50000 0.981808
21605.00000 0.981648
21607.50000 0.981591
21610.00000 0.981677
21612.50000 0.981479
21615.00000 0.981467
21617.50000 0.981301
21620.00000 0.981127
21622.50000 0.981162
21625.00000 0.980981
21627.50000 0.980843
21630.00000 0.980689
21632.50000 0.980549
21635.00000 0.980389
21637.50000 0.98033
21640.00000 0.980238
21642.50000 0.980143
21645.00000 0.980041
21647.50000 0.980096
21650.00000 0.97988
21652.50000 0.979963
21655.00000 0.979621
21657.50000 0.979546
21660.00000 0.979254
21662.50000 0.979279
21665.00000 0.979292
21667.50000 0.979236
21670.00000 0.979039
21672.50000 0.978887
21675.00000 0.979012
21677.50000 0.978918
21680.00000 0.978716
21682.50000 0.978789
21685.00000 0.978634
21687.50000 0.978506
21690.00000 0.978463
21692.50000 0.97839
21695.00000 0.977979
21697.50000 0.977973
21700.00000 0.97786
21702.50000 0.977927
21705.00000 0.977745
21707.50000 0.977566
21710.00000 0.977555
21712.50000 0.977412
21715.00000 0.977443
21717.50000 0.97757
21720.00000 0.977129
21722.50000 0.977167
21725.00000 0.977163
21727.50000 0.977205
21730.00000 0.97709
21732.50000 0.976997
21735.00000 0.976986
21737.50000 0.977012
21740.00000 0.976899
21742.50000 0.977035
21745.00000 0.976722
21747.50000 0.976661
21750.00000 0.976474
21752.50000 0.976599
21755.00000 0.976771
21757.50000 0.976598
21760.00000 0.976642
21762.50000 0.976361
21765.00000 0.976633
21767.50000 0.976558
21770.00000 0.976604
21772.50000 0.976613
21775.00000 0.976502
21777.50000 0.976484
21780.00000 0.97646
21782.50000 0.976481
21785.00000 0.976295
21787.50000 0.976166
21790.00000 0.976258
21792.50000 0.976376
21795.00000 0.976357
21797.50000 0.976284
21800.00000 0.976475
21802.50000 0.976245
21805.00000 0.976084
21807.50000 0.976121
21810.00000 0.975926
21812.50000 0.976097
21815.00000 0.976049
21817.50000 0.976137
21820.00000 0.976268
21822.50000 0.976205
21825.00000 0.976184
21827.50000 0.976135
21830.00000 0.975982
21832.50000 0.975991
21835.00000 0.975824
21837.50000 0.975811
21840.00000 0.975625
21842.50000 0.97562
21845.00000 0.975429
21847.50000 0.975652
21850.00000 0.975298
21852.50000 0.975675
21855.00000 0.975517
21857.50000 0.975592
21860.00000 0.975487
21862.50000 0.975359
21865.00000 0.975206
21867.50000 0.975151
21870.00000 0.974837
21872.50000 0.974814
21875.00000 0.974895
21877.50000 0.974829
21880.00000 0.974807
21882.50000 0.974442
21885.00000 0.974626
21887.50000 0.974516
21890.00000 0.974437
21892.50000 0.974076
21895.00000 0.973781
21897.50000 0.973863
21900.00000 0.973674
21902.50000 0.973496
21905.00000 0.973265
21907.50000 0.973381
21910.00000 0.973122
21912.50000 0.97301
21915.00000 0.972986
21917.50000 0.972742
21920.00000 0.972487
21922.50000 0.972229
21925.00000 0.972256
21927.50000 0.971864
21930.00000 0.971642
21932.50000 0.971377
21935.00000 0.971318
21937.50000 0.971196
21940.00000 0.970952
21942.50000 0.970784
21945.00000 0.970675
21947.50000 0.970179
21950.00000 0.97017
21952.50000 0.969784
21955.00000 0.969537
21957.50000 0.969216
21960.00000 0.968981
21962.50000 0.968806
21965.00000 0.968518
21967.50000 0.968265
21970.00000 0.968373
21972.50000 0.968018
21975.00000 0.967812
21977.50000 0.967449
21980.00000 0.967157
21982.50000 0.967045
21985.00000 0.966773
21987.50000 0.966262
21990.00000 0.966162
21992.50000 0.965843
21995.00000 0.965854
21997.50000 0.965486
22000.00000 0.9651
22002.50000 0.964999
22005.00000 0.964681
22007.50000 0.964452
22010.00000 0.964262
22012.50000 0.963972
22015.00000 0.963592
22017.50000 0.963349
22020.00000 0.963286
22022.50000 0.963047
22025.00000 0.96263
22027.50000 0.962826
22030.00000 0.962291
22032.50000 0.962172
22035.00000 0.961949
22037.50000 0.961789
22040.00000 0.961654
22042.50000 0.961212
22045.00000 0.961121
22047.50000 0.960871
22050.00000 0.960788
22052.50000 0.960594
22055.00000 0.960467
22057.50000 0.960427
22060.00000 0.960247
22062.50000 0.960068
22065.00000 0.959846
22067.50000 0.959604
22070.00000 0.959328
22072.50000 0.959144
22075.00000 0.959255
22077.50000 0.958912
22080.00000 0.958931
22082.50000 0.958904
22085.00000 0.958716
22087.50000 0.958693
22090.00000 0.958542
22092.50000 0.958551
22095.00000 0.958475
22097.50000 0.958326
22100.00000 0.958113
22102.50000 0.958197
22105.00000 0.95812
22107.50000 0.958123
22110.00000 0.957923
22112.50000 0.957932
22115.00000 0.95793
22117.50000 0.958104
22120.00000 0.957997
22122.50000 0.958075
22125.00000 0.957855
22127.50000 0.95799
22130.00000 0.957922
22132.50000 0.957792
22135.00000 0.957881
22137.50000 0.957956
22140.00000 0.958095
22142.50000 0.95799
22145.00000 0.958262
22147.50000 0.958157
22150.00000 0.958228
22152.50000 0.958291
22155.00000 0.958367
22157.50000 0.958256
22160.00000 0.958217
22162.50000 0.958198
22165.00000 0.958402
22167.50000 0.958534
22170.00000 0.958642
22172.50000 0.958814
22175.00000 0.959087
22177.50000 0.959189
22180.00000 0.959193
22182.50000 0.959077
22185.00000 0.959317
22187.50000 0.959408
22190.00000 0.959374
22192.50000 0.959506
22195.00000 0.959629
22197.50000 0.959574
22200.00000 0.95968
22202.50000 0.959822
22205.00000 0.959844
22207.50000 0.960136
22210.00000 0.960318
22212.50000 0.960369
22215.00000 0.960367
22217.50000 0.960357
22220.00000 0.960362
22222.50000 0.960525
22225.00000 0.960601
22227.50000 0.960635
22230.00000 0.960801
22232.50000 0.961016
22235.00000 0.961094
22237.50000 0.961212
22240.00000 0.961195
22242.50000 0.961352
22245.00000 0.961176
22247.50000 0.961509
22250.00000 0.961386
22252.50000 0.961584
22255.00000 0.961419
22257.50000 0.961552
22260.00000 0.961571
22262.50000 0.961543
22265.00000 0.961861
22267.50000 0.961861
22270.00000 0.962
22272.50000 0.962006
22275.00000 0.961987
22277.50000 0.961993
22280.00000 0.961899
22282.50000 0.962042
22285.00000 0.961975
22287.50000 0.96195
22290.00000 0.962073
22292.50000 0.962166
22295.00000 0.962361
22297.50000 0.962106
22300.00000 0.962331
22302.50000 0.962226
22305.00000 0.962106
22307.50000 0.962116
22310.00000 0.961971
22312.50000 0.961957
22315.00000 0.96181
22317.50000 0.961852
22320.00000 0.96161
22322.50000 0.961943
22325.00000 0.961782
22327.50000 0.961802
22330.00000 0.961872
22332.50000 0.961571
22335.00000 0.961738
22337.50000 0.961347
22340.00000 0.961438
22342.50000 0.961303
22345.00000 0.961115
22347.50000 0.961366
22350.00000 0.961045
22352.50000 0.961103
22355.00000 0.960921
22357.50000 0.961116
22360.00000 0.961113
22362.50000 0.960681
22365.00000 0.960733
22367.50000 0.960631
22370.00000 0.960469
22372.50000 0.960413
22375.00000 0.960493
22377.50000 0.960285
22380.00000 0.960437
22382.50000 0.960158
22385.00000 0.960269
22387.50000 0.960235
22390.00000 0.960165
22392.50000 0.960004
22395.00000 0.960175
22397.50000 0.95996
22400.00000 0.95982
22402.50000 0.959787
22405.00000 0.959818
22407.50000 0.959626
22410.00000 0.960019
22412.50000 0.959628
22415.00000 0.959675
22417.50000 0.959973
22420.00000 0.95985
22422.50000 0.95986
22425.00000 0.959834
22427.50000 0.959668
22430.00000 0.959755
22432.50000 0.959612
22435.00000 0.959638
22437.50000 0.959723
22440.00000 0.959807
22442.50000 0.959949
22445.00000 0.959973
22447.50000 0.960063
22450.00000 0.960012
22452.50000 0.96019
22455.00000 0.96008
22457.50000 0.960044
22460.00000 0.960219
22462.50000 0.960147
22465.00000 0.960259
22467.50000 0.960302
22470.00000 0.960344
22472.50000 0.960576
22475.00000 0.960815
22477.50000 0.960841
22480.00000 0.961057
22482.50000 0.960922
22485.00000 0.961133
22487.50000 0.961059
22490.00000 0.961135
22492.50000 0.961581
22495.00000 0.961505
22497.50000 0.961666
22500.00000 0.961942
22502.50000 0.961977
22505.00000 0.962304
22507.50000 0.962467
22510.00000 0.96265
22512.50000 0.962865
22515.00000 0.962946
22517.50000 0.963066
22520.00000 0.963048
22522.50000 0.963492
22525.00000 0.963694
22527.50000 0.963787
22530.00000 0.964126
22532.50000 0.964097
22535.00000 0.964589
22537.50000 0.964651
22540.00000 0.964962
22542.50000 0.965242
22545.00000 0.965463
22547.50000 0.965538
22550.00000 0.965452
22552.50000 0.965802
22555.00000 0.965996
22557.50000 0.966237
22560.00000 0.966372
22562.50000 0.966685
22565.00000 0.96698
22567.50000 0.967212
22570.00000 0.96728
22572.50000 0.967501
22575.00000 0.967805
22577.50000 0.967776
22580.00000 0.968204
22582.50000 0.968176
22585.00000 0.968651
22587.50000 0.968398
22590.00000 0.968933
22592.50000 0.969233
22595.00000 0.969455
22597.50000 0.969588
22600.00000 0.969996
22602.50000 0.969638
22605.00000 0.970245
22607.50000 0.970554
22610.00000 0.970682
22612.50000 0.970608
22615.00000 0.970763
22617.50000 0.971041
22620.00000 0.971255
22622.50000 0.971553
22625.00000 0.971563
22627.50000 0.971876
22630.00000 0.971995
22632.50000 0.97185
22635.00000 0.972127
22637.50000 0.972234
22640.00000 0.972442
22642.50000 0.972519
22645.00000 0.97262
22647.50000 0.972752
22650.00000 0.972943
22652.50000 0.972981
22655.00000 0.973052
22657.50000 0.973252
22660.00000 0.973288
22662.50000 0.973499
22665.00000 0.973365
22667.50000 0.973533
22670.00000 0.973341
22672.50000 0.973409
22675.00000 0.973499
22677.50000 0.973537
22680.00000 0.973373
22682.50000 0.97344
22685.00000 0.973543
22687.50000 0.973504
22690.00000 0.973324
22692.50000 0.97329
22695.00000 0.97333
22697.50000 0.973333
22700.00000 0.973018
22702.50000 0.973122
22705.00000 0.972928
22707.50000 0.972875
22710.00000 0.972699
22712.50000 0.972869
22715.00000 0.97264
22717.50000 0.972432
22720.00000 0.972144
22722.50000 0.97216
22725.00000 0.971898
22727.50000 0.971549
22730.00000 0.971269
22732.50000 0.971113
22735.00000 0.970509
22737.50000 0.970615
22740.00000 0.970294
22742.50000 0.970052
22745.00000 0.969709
22747.50000 0.969527
22750.00000 0.969027
22752.50000 0.968737
22755.00000 0.968088
22757.50000 0.967699
22760.00000 0.967177
22762.50000 0.966556
22765.00000 0.966153
22767.50000 0.96564
22770.00000 0.965212
22772.50000 0.964383
22775.00000 0.964018
22777.50000 0.963242
22780.00000 0.962499
22782.50000 0.961673
22785.00000 0.961128
22787.50000 0.960397
22790.00000 0.959258
22792.50000 0.95873
22795.00000 0.957461
22797.50000 0.956412
22800.00000 0.955759
22802.50000 0.954561
22805.00000 0.954028
22807.50000 0.952281
22810.00000 0.951338
22812.50000 0.950032
22815.00000 0.948682
22817.50000 0.947632
22820.00000 0.946072
22822.50000 0.944911
22825.00000 0.942857
22827.50000 0.941449
22830.00000 0.939925
22832.50000 0.937976
22835.00000 0.936772
22837.50000 0.934673
22840.00000 0.933364
22842.50000 0.930901
22845.00000 0.928734
22847.50000 0.926742
22850.00000 0.924367
22852.50000 0.922602
22855.00000 0.919743
22857.50000 0.917531
22860.00000 0.915058
22862.50000 0.912324
22865.00000 0.910234
22867.50000 0.906635
22870.00000 0.904516
22872.50000 0.901282
22875.00000 0.898136
22877.50000 0.895117
22880.00000 0.891463
22882.50000 0.88901
22885.00000 0.88455
22887.50000 0.881544
22890.00000 0.877572
22892.50000 0.873785
22895.00000 0.870152
22897.50000 0.865718
22900.00000 0.862455
22902.50000 0.857329
22905.00000 0.853575
22907.50000 0.848609
22910.00000 0.844314
22912.50000 0.839775
22915.00000 0.834048
22917.50000 0.830073
22920.00000 0.824088
22922.50000 0.819291
22925.00000 0.814028
22927.50000 0.808479
22930.00000 0.803827
22932.50000 0.796573
22935.00000 0.791824
22937.50000 0.78542
22940.00000 0.779146
22942.50000 0.773022
22945.00000 0.765942
22947.50000 0.760801
22950.00000 0.752264
22952.50000 0.746347
22955.00000 0.7395
22957.50000 0.732446
22960.00000 0.725584
22962.50000 0.717153
22965.00000 0.71087
22967.50000 0.702088
22970.00000 0.695022
22972.50000 0.686629
22975.00000 0.679029
22977.50000 0.671513
22980.00000 0.661958
22982.50000 0.654813
22985.00000 0.645786
22987.50000 0.637566
22990.00000 0.628637
22992.50000 0.620276
22995.00000 0.612517
22997.50000 0.602384
23000.00000 0.59422
23002.50000 0.584229
23005.00000 0.575785
23007.50000 0.566568
23010.00000 0.557108
23012.50000 0.549398
23015.00000 0.53863
23017.50000 0.529882
23020.00000 0.52039
23022.50000 0.510928
23025.00000 0.502486
23027.50000 0.491603
23030.00000 0.483959
23032.50000 0.473234
23035.00000 0.464289
23037.50000 0.454554
23040.00000 0.445411
23042.50000 0.437505
23045.00000 0.426438
23047.50000 0.418136
23050.00000 0.408049
23052.50000 0.399464
23055.00000 0.390237
23057.50000 0.381298
23060.00000 0.373614
23062.50000 0.362892
23065.00000 0.355236
23067.50000 0.345609
23070.00000 0.337645
23072.50000 0.329631
23075.00000 0.320433
23077.50000 0.313417
23080.00000 0.303918
23082.50000 0.296596
23085.00000 0.28842
23087.50000 0.280819
23090.00000 0.273831
23092.50000 0.265041
23095.00000 0.258765
23097.50000 0.250694
23100.00000 0.244048
23102.50000 0.237763
23105.00000 0.229313
23107.50000 0.22423
23110.00000 0.216507
23112.50000 0.210914
23115.00000 0.204779
23117.50000 0.198171
23120.00000 0.192878
23122.50000 0.186213
23125.00000 0.181458
23127.50000 0.175225
23130.00000 0.170356
23132.50000 0.165288
23135.00000 0.159731
23137.50000 0.155474
23140.00000 0.149775
23142.50000 0.145665
23145.00000 0.141055
23147.50000 0.136336
23150.00000 0.132598
23152.50000 0.127685
23155.00000 0.123944
23157.50000 0.119569
23160.00000 0.116113
23162.50000 0.112599
23165.00000 0.108424
23167.50000 0.105543
23170.00000 0.101449
23172.50000 0.098662
23175.00000 0.095154
23177.50000 0.091964
23180.00000 0.089437
23182.50000 0.086061
23185.00000 0.083769
23187.50000 0.080428
23190.00000 0.078186
23192.50000 0.075558
23195.00000 0.07305
23197.50000 0.071042
23200.00000 0.068194
23202.50000 0.066326
23205.00000 0.064016
23207.50000 0.062043
23210.00000 0.06009
23212.50000 0.057895
23215.00000 0.056347
23217.50000 0.054323
23220.00000 0.052803
23222.50000 0.050867
23225.00000 0.049275
23227.50000 0.047838
23230.00000 0.046115
23232.50000 0.04485
23235.00000 0.043229
23237.50000 0.042064
23240.00000 0.040584
23242.50000 0.039139
23245.00000 0.038098
23247.50000 0.036769
23250.00000 0.035794
23252.50000 0.034537
23255.00000 0.033548
23257.50000 0.032504
23260.00000 0.031389
23262.50000 0.030585
23265.00000 0.029438
23267.50000 0.028785
23270.00000 0.027803
23272.50000 0.026848
23275.00000 0.026153
23277.50000 0.025229
23280.00000 0.024509
23282.50000 0.023709
23285.00000 0.023128
23287.50000 0.022421
23290.00000 0.021678
23292.50000 0.021112
23295.00000 0.020391
23297.50000 0.019853
23300.00000 0.019202
23302.50000 0.01876
23305.00000 0.018177
23307.50000 0.017602
23310.00000 0.017153
23312.50000 0.016493
23315.00000 0.01619
23317.50000 0.015643
23320.00000 0.015182
23322.50000 0.0148
23325.00000 0.01427
23327.50000 0.013941
23330.00000 0.013508
23332.50000 0.013174
23335.00000 0.012899
23337.50000 0.012389
23340.00000 0.012147
23342.50000 0.01174
23345.00000 0.01148
23347.50000 0.011063
23350.00000 0.01087
23352.50000 0.010629
23355.00000 0.010259
23357.50000 0.010072
23360.00000 0.009735
23362.50000 0.009492
23365.00000 0.009181
23367.50000 0.009033
23370.00000 0.008775
23372.50000 0.008542
23375.00000 0.008297
23377.50000 0.008062
23380.00000 0.007895
23382.50000 0.007664
23385.00000 0.007466
23387.50000 0.007234
23390.00000 0.0071
23392.50000 0.006974
23395.00000 0.006777
23397.50000 0.006636
23400.00000 0.00646
23402.50000 0.006257
23405.00000 0.006095
23407.50000 0.005974
23410.00000 0.005828
23412.50000 0.005689
23415.00000 0.005617
23417.50000 0.005439
23420.00000 0.005356
23422.50000 0.005237
23425.00000 0.005007
23427.50000 0.004966
23430.00000 0.004842
23432.50000 0.004718
23435.00000 0.004628
23437.50000 0.004489
23440.00000 0.00445
23442.50000 0.004334
23445.00000 0.004204
23447.50000 0.004139
23450.00000 0.004102
23452.50000 0.003977
23455.00000 0.003845
23457.50000 0.003767
23460.00000 0.003659
23462.50000 0.003588
23465.00000 0.003548
23467.50000 0.003488
23470.00000 0.003418
23472.50000 0.003259
23475.00000 0.003234
23477.50000 0.003178
23480.00000 0.003096
23482.50000 0.003095
23485.00000 0.003029
23487.50000 0.002936
23490.00000 0.002876
23492.50000 0.002826
23495.00000 0.00278
23497.50000 0.002645
23500.00000 0.002661
23502.50000 0.002614
23505.00000 0.002612
23507.50000 0.002491
23510.00000 0.002404
23512.50000 0.00232
23515.00000 0.002343
23517.50000 0.002338
23520.00000 0.002282
23522.50000 0.002223
23525.00000 0.002217
23527.50000 0.002166
23530.00000 0.002092
23532.50000 0.002029
23535.00000 0.00204
23537.50000 0.002022
23540.00000 0.002002
23542.50000 0.001924
23545.00000 0.001919
23547.50000 0.001851
23550.00000 0.00178
23552.50000 0.00174
23555.00000 0.001704
23557.50000 0.001666
23560.00000 0.001691
23562.50000 0.001683
23565.00000 0.001632
23567.50000 0.001615
23570.00000 0.001598
23572.50000 0.001534
23575.00000 0.001535
23577.50000 0.001486
23580.00000 0.001484
23582.50000 0.001502
23585.00000 0.001363
23587.50000 0.001373
23590.00000 0.001375
23592.50000 0.001364
23595.00000 0.001395
23597.50000 0.001278
23600.00000 0.001234
23602.50000 0.001267
23605.00000 0.001235
23607.50000 0.001247
23610.00000 0.001229
23612.50000 0.001216
23615.00000 0.001155
23617.50000 0.001122
23620.00000 0.001127
23622.50000 0.001083
23625.00000 0.001086
23627.50000 0.001097
23630.00000 0.0011
23632.50000 0.001104
23635.00000 0.001066
23637.50000 0.000975
23640.00000 0.000983
23642.50000 0.001037
23645.00000 0.000957
23647.50000 0.000949
23650.00000 0.000887
23652.50000 0.000945
23655.00000 0.000904
23657.50000 0.000991
23660.00000 0.000909
23662.50000 0.000934
23665.00000 0.000831
23667.50000 0.000812
23670.00000 0.000869
23672.50000 0.000879
23675.00000 0.000846
23677.50000 0.000843
23680.00000 0.000789
23682.50000 0.000848
23685.00000 0.000823
23687.50000 0.000762
23690.00000 0.000738
23692.50000 0.000794
23695.00000 0.000756
23697.50000 0.000772
23700.00000 0.000692
23702.50000 0.000696
23705.00000 0.000714
23707.50000 0.000653
23710.00000 0.000638
23712.50000 0.000692
23715.00000 0.000698
23717.50000 0.000663
23720.00000 0.000661
23722.50000 0.000663
23725.00000 0.00063
23727.50000 0.00061
23730.00000 0.000623
23732.50000 0.000589
23735.00000 0.000597
23737.50000 0.00057
23740.00000 0.000528
23742.50000 0.000557
23745.00000 0.000577
23747.50000 0.000602
23750.00000 0.000532
23752.50000 0.000541
23755.00000 0.000524
23757.50000 0.000572
23760.00000 0.0005
23762.50000 0.000499
23765.00000 0.000528
23767.50000 0.000556
23770.00000 0.000492
23772.50000 0.000479
23775.00000 0.000501
23777.50000 0.00052
23780.00000 0.000463
23782.50000 0.000505
23785.00000 0.000432
23787.50000 0.000515
23790.00000 0.000491
23792.50000 0.000468
23795.00000 0.000475
23797.50000 0.000432
23800.00000 0.000471
23802.50000 0.000447
23805.00000 0.000444
23807.50000 0.000428
23810.00000 0.000401
23812.50000 0.000371
23815.00000 0.000394
23817.50000 0.000423
23820.00000 0.000375
23822.50000 0.000384
23825.00000 0.000408
23827.50000 0.000428
23830.00000 0.000447
23832.50000 0.00037
23835.00000 0.000372
23837.50000 0.000334
23840.00000 0.000286
23842.50000 0.000386
23845.00000 0.000338
23847.50000 0.000386
23850.00000 0.000326
23852.50000 0.000323
23855.00000 0.000335
23857.50000 0.000397
23860.00000 0.000374
23862.50000 0.000316
23865.00000 0.000342
23867.50000 0.000305
23870.00000 0.000324
23872.50000 0.000304
23875.00000 0.000302
23877.50000 0.000324
23880.00000 0.000298
23882.50000 0.000318
23885.00000 0.000304
23887.50000 0.000272
23890.00000 0.00026
23892.50000 0.000288
23895.00000 0.000306
23897.50000 0.000319
23900.00000 0.000341
23902.50000 0.000266
23905.00000 0.000304
23907.50000 0.000308
23910.00000 0.000322
23912.50000 0.000305
23915.00000 0.000315
23917.50000 0.000312
23920.00000 0.000264
23922.50000 0.000288
23925.00000 0.000299
23927.50000 0.000256
23930.00000 0.000225
23932.50000 0.00028
23935.00000 0.000288
23937.50000 0.000261
23940.00000 0.000293
23942.50000 0.000269
23945.00000 0.00026
23947.50000 0.000326
23950.00000 0.000278
23952.50000 0.000261
23955.00000 0.000221
23957.50000 0.000267
23960.00000 0.000262
23962.50000 0.000242
23965.00000 0.000259
23967.50000 0.000203
23970.00000 0.000213
23972.50000 0.00026
23975.00000 0.000231
23977.50000 0.000254
23980.00000 0.000206
23982.50000 0.000177
23985.00000 0.000233
23987.50000 0.000276
23990.00000 0.000233
23992.50000 0.000197
23995.00000 0.000265
23997.50000 0.000232
24000.00000 0.000214
24002.50000 0.00021
24005.00000 0.000191
24007.50000 0.000199
24010.00000 0.000225
24012.50000 0.00023
24015.00000 0.00021
24017.50000 0.000228
24020.00000 0.000169
24022.50000 0.000202
24025.00000 0.00027
24027.50000 0.000203
24030.00000 0.000229
24032.50000 0.000183
24035.00000 0.00024
24037.50000 0.000198
24040.00000 0.000259
24042.50000 0.000238
24045.00000 0.000195
24047.50000 0.000168
24050.00000 0.000206
24052.50000 0.000185
24055.00000 0.000229
24057.50000 0.000268
24060.00000 0.000187
24062.50000 0.000179
24065.00000 0.000179
24067.50000 0.000168
24070.00000 0.000171
24072.50000 0.000164
24075.00000 0.000202
24077.50000 0.000168
24080.00000 0.000187
24082.50000 0.000151
24085.00000 0.000143
24087.50000 0.000144
24090.00000 0.000242
24092.50000 0.000159
24095.00000 0.00016
24097.50000 0.000214
24100.00000 0.000239
24102.50000 0.000172
24105.00000 0.000244
24107.50000 0.000223
24110.00000 0.000147
24112.50000 0.000163
24115.00000 0.000193
24117.50000 0.000113
24120.00000 0.000195
24122.50000 0.000222
24125.00000 0.000112
24127.50000 0.000194
24130.00000 0.000157
24132.50000 0.000203
24135.00000 0.000191
24137.50000 0.000207
24140.00000 0.000124
24142.50000 0.000174
24145.00000 0.000168
24147.50000 0.000214
24150.00000 0.000191
24152.50000 0.000128
24155.00000 0.000179
24157.50000 0.000156
24160.00000 0.000151
24162.50000 0.000156
24165.00000 0.000195
24167.50000 0.000223
24170.00000 0.000162
24172.50000 0.000129
24175.00000 0.000233
24177.50000 0.000129
24180.00000 0.000154
24182.50000 0.00021
24185.00000 0.000206
24187.50000 9.1e-05
24190.00000 0.00017
24192.50000 0.000118
24195.00000 0.000194
24197.50000 0.000219
24200.00000 0.000156
24202.50000 0.000199
24205.00000 0.000194
24207.50000 0.000143
24210.00000 0.000109
24212.50000 0.000191
24215.00000 0.000231
24217.50000 0.000205
24220.00000 0.000141
24222.50000 0.000144
24225.00000 0.000164
24227.50000 0.000149
24230.00000 0.000105
24232.50000 0.000196
24235.00000 0.00014
24237.50000 0.000145
24240.00000 0.000179
24242.50000 0.000152
24245.00000 0.000195
24247.50000 0.00012
24250.00000 0.000135
24252.50000 0.000248
24255.00000 0.000169
24257.50000 0.000144
24260.00000 0.000173
24262.50000 0.000151
24265.00000 0.00013
24267.50000 0.000153
24270.00000 0.000121
24272.50000 0.000157
24275.00000 0.000143
24277.50000 0.000142
24280.00000 0.00014
24282.50000 9.8e-05
24285.00000 0.000201
24287.50000 0.000141
24290.00000 0.000189
24292.50000 0.000153
24295.00000 0.000109
24297.50000 0.000147
24300.00000 0.000199
24302.50000 0.000125
24305.00000 0.000136
24307.50000 0.000171
24310.00000 0.000153
24312.50000 0.000124
24315.00000 0.000141
24317.50000 0.000172
24320.00000 0.00016
24322.50000 0.000144
24325.00000 0.000209
24327.50000 0.000117
24330.00000 0.000129
24332.50000 0.000151
24335.00000 0.000165
24337.50000 0.00016
24340.00000 0.000117
24342.50000 9.8e-05
24345.00000 0.000124
24347.50000 0.00016
24350.00000 0.00014
24352.50000 0.000174
24355.00000 0.000208
24357.50000 0.000198
24360.00000 9.8e-05
24362.50000 0.000167
24365.00000 0.000118
24367.50000 0.000175
24370.00000 0.000176
24372.50000 5.8e-05
24375.00000 8.3e-05
24377.50000 0.000121
24380.00000 0.00014
24382.50000 0.000154
24385.00000 0.000168
24387.50000 0.000175
24390.00000 9.8e-05
24392.50000 9.7e-05
24395.00000 0.000172
24397.50000 0.000133
24400.00000 0.000129
24402.50000 0.000132
24405.00000 0.000125
24407.50000 0.000137
24410.00000 0.000109
24412.50000 0.000145
24415.00000 0.000108
24417.50000 0.000164
24420.00000 0.000112
24422.50000 0.00014
24425.00000 9.6e-05
24427.50000 0.000132
24430.00000 0.000136
24432.50000 9.9e-05
24435.00000 0.000131
24437.50000 0.000122
24440.00000 0.000144
24442.50000 0.000115
24445.00000 0.00014
24447.50000 0.000113
24450.00000 0.000152
24452.50000 0.000129
24455.00000 7.7e-05
24457.50000 0.000141
24460.00000 0.000141
24462.50000 0.000125
24465.00000 0.00014
24467.50000 0.000126
24470.00000 0.000109
24472.50000 0.000141
24475.00000 9.8e-05
24477.50000 0.000133
24480.00000 0.000129
24482.50000 0.000129
24485.00000 0.00014
24487.50000 0.000129
24490.00000 0.000127
24492.50000 0.000161
24495.00000 0.000159
24497.50000 0.000199
24500.00000 0.000171
24502.50000 8.3e-05
24505.00000 0.000123
24507.50000 0.000127
24510.00000 0.000148
24512.50000 0.000153
24515.00000 0.00015
24517.50000 0.000118
24520.00000 0.000207
24522.50000 0.000129
24525.00000 0.000157
24527.50000 0.000112
24530.00000 0.000128
24532.50000 0.000165
24535.00000 0.000128
24537.50000 9.9e-05
24540.00000 0.000161
24542.50000 0.000116
24545.00000 0.000184
24547.50000 0.000137
24550.00000 0.00011
24552.50000 0.00011
24555.00000 5.9e-05
24557.50000 7.9e-05
24560.00000 0.00018
24562.50000 0.000144
24565.00000 0.000176
24567.50000 0.000223
24570.00000 0.000137
24572.50000 0.000109
24575.00000 0.000145
24577.50000 0.000173
24580.00000 0.000144
24582.50000 0.000141
24585.00000 9.8e-05
24587.50000 8.2e-05
24590.00000 0.000121
24592.50000 0.000141
24595.00000 0.000182
24597.50000 0.00017
24600.00000 0.000113
24602.50000 0.000126
24605.00000 9.2e-05
24607.50000 7.5e-05
24610.00000 0.000113
24612.50000 0.000122
24615.00000 0.000108
24617.50000 0.000149
24620.00000 0.000149
24622.50000 0.000126
24625.00000 0.000164
24627.50000 0.000136
24630.00000 0.000141
24632.50000 0.000101
24635.00000 0.000118
24637.50000 6.6e-05
24640.00000 0.000173
24642.50000 0.00013
24645.00000 6.7e-05
24647.50000 0.000216
24650.00000 0.00015
24652.50000 0.000121
24655.00000 0.000146
24657.50000 0.000161
24660.00000 0.00013
24662.50000 0.00016
24665.00000 0.000185
24667.50000 0.000157
24670.00000 0.00011
24672.50000 0.000137
24675.00000 0.00013
24677.50000 8.6e-05
24680.00000 9.7e-05
24682.50000 0.000133
24685.00000 0.000102
24687.50000 9.1e-05
24690.00000 0.00012
24692.50000 6.4e-05
24695.00000 0.000124
24697.50000 0.000106
24700.00000 0.000186
27170.00000 0.0
