# %ECSV 0.9
# ---
# datatype:
# - {name: wavelength, unit: Angstrom, datatype: float32}
# - {name: response, datatype: float32}
# meta: !!omap
# - {band_name: H2O}
# - {group_name: GSAOI}
wavelength response
17100.00000 0.0
19000.00000 0.000859
19001.00000 0.000833
19002.00000 0.000827
19003.00000 0.000886
19004.00000 0.000972
19005.00000 0.000869
19006.00000 0.000878
19007.00000 0.000832
19008.00000 0.000911
19009.00000 0.000873
19010.00000 0.000938
19011.00000 0.000923
19012.00000 0.000889
19013.00000 0.000851
19014.00000 0.000859
19015.00000 0.000922
19016.00000 0.00094
19017.00000 0.000931
19018.00000 0.000923
19019.00000 0.000951
19020.00000 0.000901
19021.00000 0.000941
19022.00000 0.000928
19023.00000 0.00094
19024.00000 0.000968
19025.00000 0.000986
19026.00000 0.000957
19027.00000 0.000911
19028.00000 0.001034
19029.00000 0.000989
19030.00000 0.000963
19031.00000 0.000972
19032.00000 0.00098
19033.00000 0.000973
19034.00000 0.000987
19035.00000 0.001035
19036.00000 0.001043
19037.00000 0.001035
19038.00000 0.000994
19039.00000 0.001032
19040.00000 0.001039
19041.00000 0.001076
19042.00000 0.001014
19043.00000 0.001058
19044.00000 0.001097
19045.00000 0.001049
19046.00000 0.001128
19047.00000 0.001101
19048.00000 0.001094
19049.00000 0.001119
19050.00000 0.001051
19051.00000 0.001092
19052.00000 0.001103
19053.00000 0.001131
19054.00000 0.001166
19055.00000 0.001162
19056.00000 0.001142
19057.00000 0.00108
19058.00000 0.001118
19059.00000 0.001091
19060.00000 0.001154
19061.00000 0.001088
19062.00000 0.001157
19063.00000 0.001155
19064.00000 0.001244
19065.00000 0.001239
19066.00000 0.001236
19067.00000 0.001242
19068.00000 0.001207
19069.00000 0.001236
19070.00000 0.001269
19071.00000 0.001272
19072.00000 0.001244
19073.00000 0.001289
19074.00000 0.00126
19075.00000 0.001274
19076.00000 0.001324
19077.00000 0.001239
19078.00000 0.001337
19079.00000 0.001339
19080.00000 0.001328
19081.00000 0.001271
19082.00000 0.001311
19083.00000 0.001343
19084.00000 0.001349
19085.00000 0.001337
19086.00000 0.00138
19087.00000 0.00139
19088.00000 0.001404
19089.00000 0.001372
19090.00000 0.001355
19091.00000 0.001367
19092.00000 0.001371
19093.00000 0.001332
19094.00000 0.001419
19095.00000 0.001426
19096.00000 0.001445
19097.00000 0.001453
19098.00000 0.001451
19099.00000 0.001414
19100.00000 0.001482
19101.00000 0.001496
19102.00000 0.001445
19103.00000 0.001469
19104.00000 0.001462
19105.00000 0.00155
19106.00000 0.0015
19107.00000 0.001506
19108.00000 0.001485
19109.00000 0.001522
19110.00000 0.001548
19111.00000 0.001524
19112.00000 0.001589
19113.00000 0.001559
19114.00000 0.001579
19115.00000 0.001583
19116.00000 0.001629
19117.00000 0.001604
19118.00000 0.001625
19119.00000 0.001667
19120.00000 0.001646
19121.00000 0.001604
19122.00000 0.00171
19123.00000 0.001695
19124.00000 0.001727
19125.00000 0.00167
19126.00000 0.001666
19127.00000 0.001731
19128.00000 0.001731
19129.00000 0.001777
19130.00000 0.001776
19131.00000 0.001737
19132.00000 0.001784
19133.00000 0.001808
19134.00000 0.001809
19135.00000 0.001797
19136.00000 0.001808
19137.00000 0.001784
19138.00000 0.001923
19139.00000 0.001828
19140.00000 0.001865
19141.00000 0.001924
19142.00000 0.001863
19143.00000 0.001909
19144.00000 0.001931
19145.00000 0.001926
19146.00000 0.001906
19147.00000 0.002017
19148.00000 0.001922
19149.00000 0.001987
19150.00000 0.001979
19151.00000 0.00203
19152.00000 0.001987
19153.00000 0.001987
19154.00000 0.002048
19155.00000 0.002026
19156.00000 0.002073
19157.00000 0.002094
19158.00000 0.00209
19159.00000 0.002065
19160.00000 0.002132
19161.00000 0.002122
19162.00000 0.002195
19163.00000 0.002169
19164.00000 0.002127
19165.00000 0.002185
19166.00000 0.002174
19167.00000 0.002235
19168.00000 0.002223
19169.00000 0.002313
19170.00000 0.002254
19171.00000 0.002277
19172.00000 0.00224
19173.00000 0.002327
19174.00000 0.002359
19175.00000 0.002274
19176.00000 0.002321
19177.00000 0.002347
19178.00000 0.002344
19179.00000 0.00238
19180.00000 0.002389
19181.00000 0.002423
19182.00000 0.002425
19183.00000 0.002451
19184.00000 0.002406
19185.00000 0.002454
19186.00000 0.002414
19187.00000 0.002462
19188.00000 0.002459
19189.00000 0.002528
19190.00000 0.002489
19191.00000 0.002569
19192.00000 0.002587
19193.00000 0.002632
19194.00000 0.002647
19195.00000 0.002645
19196.00000 0.00263
19197.00000 0.002693
19198.00000 0.002664
19199.00000 0.002689
19200.00000 0.00272
19201.00000 0.002771
19202.00000 0.002736
19203.00000 0.002793
19204.00000 0.002839
19205.00000 0.002802
19206.00000 0.002896
19207.00000 0.00289
19208.00000 0.002981
19209.00000 0.002894
19210.00000 0.002911
19211.00000 0.003012
19212.00000 0.002995
19213.00000 0.003003
19214.00000 0.003013
19215.00000 0.003029
19216.00000 0.003038
19217.00000 0.003048
19218.00000 0.00308
19219.00000 0.00314
19220.00000 0.003161
19221.00000 0.003129
19222.00000 0.00318
19223.00000 0.003237
19224.00000 0.003281
19225.00000 0.00325
19226.00000 0.003255
19227.00000 0.003243
19228.00000 0.003293
19229.00000 0.003336
19230.00000 0.003318
19231.00000 0.003378
19232.00000 0.003409
19233.00000 0.003403
19234.00000 0.003401
19235.00000 0.003477
19236.00000 0.003484
19237.00000 0.003542
19238.00000 0.003501
19239.00000 0.003574
19240.00000 0.003626
19241.00000 0.003578
19242.00000 0.003647
19243.00000 0.003675
19244.00000 0.003655
19245.00000 0.003742
19246.00000 0.003794
19247.00000 0.003722
19248.00000 0.003817
19249.00000 0.003779
19250.00000 0.00384
19251.00000 0.003883
19252.00000 0.003896
19253.00000 0.003904
19254.00000 0.004015
19255.00000 0.00408
19256.00000 0.00403
19257.00000 0.004054
19258.00000 0.004084
19259.00000 0.004165
19260.00000 0.004194
19261.00000 0.004177
19262.00000 0.004188
19263.00000 0.004271
19264.00000 0.00428
19265.00000 0.004269
19266.00000 0.004331
19267.00000 0.00432
19268.00000 0.004358
19269.00000 0.004387
19270.00000 0.004501
19271.00000 0.004497
19272.00000 0.004512
19273.00000 0.004576
19274.00000 0.004615
19275.00000 0.004563
19276.00000 0.004693
19277.00000 0.004676
19278.00000 0.004741
19279.00000 0.004765
19280.00000 0.004824
19281.00000 0.004832
19282.00000 0.004948
19283.00000 0.004973
19284.00000 0.004975
19285.00000 0.005002
19286.00000 0.005092
19287.00000 0.005045
19288.00000 0.005152
19289.00000 0.005172
19290.00000 0.005216
19291.00000 0.005197
19292.00000 0.005244
19293.00000 0.005349
19294.00000 0.005368
19295.00000 0.005406
19296.00000 0.005377
19297.00000 0.005523
19298.00000 0.005503
19299.00000 0.005572
19300.00000 0.005602
19301.00000 0.005722
19302.00000 0.00574
19303.00000 0.005773
19304.00000 0.005753
19305.00000 0.00582
19306.00000 0.005803
19307.00000 0.005916
19308.00000 0.005994
19309.00000 0.005992
19310.00000 0.006026
19311.00000 0.006089
19312.00000 0.006157
19313.00000 0.006187
19314.00000 0.006251
19315.00000 0.006255
19316.00000 0.006315
19317.00000 0.006439
19318.00000 0.006394
19319.00000 0.006475
19320.00000 0.006568
19321.00000 0.006606
19322.00000 0.006647
19323.00000 0.00667
19324.00000 0.006722
19325.00000 0.006776
19326.00000 0.006918
19327.00000 0.006871
19328.00000 0.006987
19329.00000 0.00702
19330.00000 0.00714
19331.00000 0.007157
19332.00000 0.007153
19333.00000 0.007288
19334.00000 0.007297
19335.00000 0.007342
19336.00000 0.007432
19337.00000 0.00745
19338.00000 0.007576
19339.00000 0.007596
19340.00000 0.007692
19341.00000 0.007755
19342.00000 0.007832
19343.00000 0.007864
19344.00000 0.007914
19345.00000 0.008039
19346.00000 0.008071
19347.00000 0.008122
19348.00000 0.008179
19349.00000 0.008232
19350.00000 0.008365
19351.00000 0.008356
19352.00000 0.008476
19353.00000 0.008546
19354.00000 0.008617
19355.00000 0.008639
19356.00000 0.008797
19357.00000 0.00882
19358.00000 0.008888
19359.00000 0.00904
19360.00000 0.009064
19361.00000 0.009167
19362.00000 0.00921
19363.00000 0.009299
19364.00000 0.009338
19365.00000 0.009463
19366.00000 0.009486
19367.00000 0.009657
19368.00000 0.009643
19369.00000 0.009775
19370.00000 0.00987
19371.00000 0.009828
19372.00000 0.010025
19373.00000 0.010102
19374.00000 0.010176
19375.00000 0.01029
19376.00000 0.010401
19377.00000 0.01048
19378.00000 0.010567
19379.00000 0.010662
19380.00000 0.010773
19381.00000 0.010845
19382.00000 0.010968
19383.00000 0.011007
19384.00000 0.011091
19385.00000 0.011196
19386.00000 0.011294
19387.00000 0.011443
19388.00000 0.011574
19389.00000 0.011615
19390.00000 0.011754
19391.00000 0.011853
19392.00000 0.011939
19393.00000 0.012076
19394.00000 0.012152
19395.00000 0.012305
19396.00000 0.012354
19397.00000 0.012464
19398.00000 0.012559
19399.00000 0.01271
19400.00000 0.012886
19401.00000 0.012927
19402.00000 0.013021
19403.00000 0.013213
19404.00000 0.013343
19405.00000 0.013457
19406.00000 0.013556
19407.00000 0.01366
19408.00000 0.013777
19409.00000 0.013942
19410.00000 0.014048
19411.00000 0.014155
19412.00000 0.014333
19413.00000 0.014434
19414.00000 0.014561
19415.00000 0.014638
19416.00000 0.014825
19417.00000 0.014964
19418.00000 0.015106
19419.00000 0.015202
19420.00000 0.015333
19421.00000 0.01549
19422.00000 0.015671
19423.00000 0.015776
19424.00000 0.015908
19425.00000 0.016108
19426.00000 0.016223
19427.00000 0.016366
19428.00000 0.016531
19429.00000 0.016644
19430.00000 0.016875
19431.00000 0.016928
19432.00000 0.017119
19433.00000 0.017397
19434.00000 0.017529
19435.00000 0.017643
19436.00000 0.01781
19437.00000 0.017952
19438.00000 0.018166
19439.00000 0.018329
19440.00000 0.018481
19441.00000 0.018678
19442.00000 0.018858
19443.00000 0.019046
19444.00000 0.019247
19445.00000 0.019429
19446.00000 0.019695
19447.00000 0.019875
19448.00000 0.020051
19449.00000 0.020215
19450.00000 0.020406
19451.00000 0.020626
19452.00000 0.020806
19453.00000 0.021026
19454.00000 0.021245
19455.00000 0.021441
19456.00000 0.021636
19457.00000 0.02187
19458.00000 0.021965
19459.00000 0.022277
19460.00000 0.022493
19461.00000 0.022668
19462.00000 0.02292
19463.00000 0.02318
19464.00000 0.023352
19465.00000 0.023641
19466.00000 0.02382
19467.00000 0.024004
19468.00000 0.024422
19469.00000 0.024595
19470.00000 0.024754
19471.00000 0.025
19472.00000 0.025244
19473.00000 0.02565
19474.00000 0.02573
19475.00000 0.026035
19476.00000 0.026321
19477.00000 0.026644
19478.00000 0.026867
19479.00000 0.027139
19480.00000 0.027451
19481.00000 0.027697
19482.00000 0.027999
19483.00000 0.028306
19484.00000 0.028521
19485.00000 0.028903
19486.00000 0.029094
19487.00000 0.02952
19488.00000 0.029736
19489.00000 0.029996
19490.00000 0.030393
19491.00000 0.030647
19492.00000 0.030894
19493.00000 0.0313
19494.00000 0.031599
19495.00000 0.032039
19496.00000 0.032214
19497.00000 0.032638
19498.00000 0.032872
19499.00000 0.033334
19500.00000 0.033607
19501.00000 0.033893
19502.00000 0.03435
19503.00000 0.03463
19504.00000 0.035002
19505.00000 0.035311
19506.00000 0.035694
19507.00000 0.036166
19508.00000 0.036507
19509.00000 0.036824
19510.00000 0.037245
19511.00000 0.037634
19512.00000 0.038067
19513.00000 0.038376
19514.00000 0.038815
19515.00000 0.039256
19516.00000 0.039722
19517.00000 0.040104
19518.00000 0.040537
19519.00000 0.04102
19520.00000 0.041345
19521.00000 0.041823
19522.00000 0.042219
19523.00000 0.042682
19524.00000 0.04317
19525.00000 0.043625
19526.00000 0.044124
19527.00000 0.044657
19528.00000 0.045088
19529.00000 0.045715
19530.00000 0.046117
19531.00000 0.04657
19532.00000 0.047091
19533.00000 0.047711
19534.00000 0.048202
19535.00000 0.048687
19536.00000 0.049253
19537.00000 0.049855
19538.00000 0.050401
19539.00000 0.050931
19540.00000 0.051349
19541.00000 0.052057
19542.00000 0.052666
19543.00000 0.053221
19544.00000 0.053669
19545.00000 0.054255
19546.00000 0.055018
19547.00000 0.055616
19548.00000 0.056118
19549.00000 0.056784
19550.00000 0.057523
19551.00000 0.058182
19552.00000 0.058705
19553.00000 0.059421
19554.00000 0.060056
19555.00000 0.060788
19556.00000 0.061361
19557.00000 0.062064
19558.00000 0.062792
19559.00000 0.063551
19560.00000 0.064228
19561.00000 0.064776
19562.00000 0.065573
19563.00000 0.06646
19564.00000 0.067226
19565.00000 0.067897
19566.00000 0.068749
19567.00000 0.069501
19568.00000 0.070372
19569.00000 0.071107
19570.00000 0.071847
19571.00000 0.072671
19572.00000 0.073598
19573.00000 0.074368
19574.00000 0.075068
19575.00000 0.076118
19576.00000 0.07706
19577.00000 0.077928
19578.00000 0.078725
19579.00000 0.079624
19580.00000 0.080637
19581.00000 0.08168
19582.00000 0.08261
19583.00000 0.083322
19584.00000 0.084459
19585.00000 0.085572
19586.00000 0.086464
19587.00000 0.087299
19588.00000 0.088295
19589.00000 0.089529
19590.00000 0.090585
19591.00000 0.091527
19592.00000 0.092701
19593.00000 0.09376
19594.00000 0.094908
19595.00000 0.095979
19596.00000 0.096979
19597.00000 0.098118
19598.00000 0.099581
19599.00000 0.100642
19600.00000 0.101773
19601.00000 0.102962
19602.00000 0.104311
19603.00000 0.105469
19604.00000 0.106594
19605.00000 0.107861
19606.00000 0.109333
19607.00000 0.110566
19608.00000 0.111839
19609.00000 0.11314
19610.00000 0.114483
19611.00000 0.116049
19612.00000 0.117236
19613.00000 0.118724
19614.00000 0.120182
19615.00000 0.121921
19616.00000 0.123135
19617.00000 0.124673
19618.00000 0.126251
19619.00000 0.127772
19620.00000 0.129359
19621.00000 0.130741
19622.00000 0.132363
19623.00000 0.134037
19624.00000 0.135722
19625.00000 0.137406
19626.00000 0.138794
19627.00000 0.140619
19628.00000 0.142442
19629.00000 0.144171
19630.00000 0.145816
19631.00000 0.147619
19632.00000 0.149743
19633.00000 0.151513
19634.00000 0.153218
19635.00000 0.155079
19636.00000 0.156971
19637.00000 0.159015
19638.00000 0.160738
19639.00000 0.162592
19640.00000 0.164697
19641.00000 0.166712
19642.00000 0.168797
19643.00000 0.170662
19644.00000 0.172677
19645.00000 0.174826
19646.00000 0.177115
19647.00000 0.179092
19648.00000 0.181109
19649.00000 0.183761
19650.00000 0.185876
19651.00000 0.188096
19652.00000 0.190384
19653.00000 0.192699
19654.00000 0.195212
19655.00000 0.197335
19656.00000 0.199515
19657.00000 0.202198
19658.00000 0.204464
19659.00000 0.206889
19660.00000 0.209278
19661.00000 0.211537
19662.00000 0.214234
19663.00000 0.217112
19664.00000 0.219473
19665.00000 0.222343
19666.00000 0.225165
19667.00000 0.227776
19668.00000 0.230478
19669.00000 0.233257
19670.00000 0.236071
19671.00000 0.238996
19672.00000 0.24171
19673.00000 0.244286
19674.00000 0.247257
19675.00000 0.250126
19676.00000 0.253401
19677.00000 0.256065
19678.00000 0.259139
19679.00000 0.262233
19680.00000 0.26564
19681.00000 0.268448
19682.00000 0.271282
19683.00000 0.275062
19684.00000 0.278248
19685.00000 0.281577
19686.00000 0.284745
19687.00000 0.288112
19688.00000 0.291711
19689.00000 0.294729
19690.00000 0.298085
19691.00000 0.30168
19692.00000 0.305015
19693.00000 0.30853
19694.00000 0.312205
19695.00000 0.315189
19696.00000 0.319031
19697.00000 0.322807
19698.00000 0.326252
19699.00000 0.330009
19700.00000 0.33419
19701.00000 0.337828
19702.00000 0.341964
19703.00000 0.345394
19704.00000 0.349577
19705.00000 0.353544
19706.00000 0.357211
19707.00000 0.360989
19708.00000 0.36482
19709.00000 0.369187
19710.00000 0.372976
19711.00000 0.377294
19712.00000 0.380912
19713.00000 0.38489
19714.00000 0.389532
19715.00000 0.393687
19716.00000 0.397749
19717.00000 0.401842
19718.00000 0.406126
19719.00000 0.410944
19720.00000 0.414955
19721.00000 0.419142
19722.00000 0.424015
19723.00000 0.428202
19724.00000 0.432485
19725.00000 0.436648
19726.00000 0.441525
19727.00000 0.445952
19728.00000 0.450232
19729.00000 0.454797
19730.00000 0.458871
19731.00000 0.463873
19732.00000 0.468337
19733.00000 0.473057
19734.00000 0.477111
19735.00000 0.482001
19736.00000 0.487239
19737.00000 0.4915
19738.00000 0.496139
19739.00000 0.501027
19740.00000 0.505641
19741.00000 0.510157
19742.00000 0.514664
19743.00000 0.519018
19744.00000 0.524073
19745.00000 0.529005
19746.00000 0.533332
19747.00000 0.537907
19748.00000 0.54251
19749.00000 0.54776
19750.00000 0.552769
19751.00000 0.556457
19752.00000 0.561787
19753.00000 0.567083
19754.00000 0.571576
19755.00000 0.57599
19756.00000 0.58129
19757.00000 0.585941
19758.00000 0.59105
19759.00000 0.594907
19760.00000 0.599579
19761.00000 0.604547
19762.00000 0.609657
19763.00000 0.613767
19764.00000 0.617732
19765.00000 0.622764
19766.00000 0.627712
19767.00000 0.632566
19768.00000 0.636313
19769.00000 0.641044
19770.00000 0.646669
19771.00000 0.651119
19772.00000 0.655299
19773.00000 0.660117
19774.00000 0.664812
19775.00000 0.66956
19776.00000 0.673621
19777.00000 0.67706
19778.00000 0.68231
19779.00000 0.686682
19780.00000 0.691241
19781.00000 0.69463
19782.00000 0.69904
19783.00000 0.703851
19784.00000 0.708392
19785.00000 0.712045
19786.00000 0.716007
19787.00000 0.720666
19788.00000 0.724748
19789.00000 0.729081
19790.00000 0.732707
19791.00000 0.73675
19792.00000 0.741107
19793.00000 0.745368
19794.00000 0.748765
19795.00000 0.752461
19796.00000 0.756715
19797.00000 0.760267
19798.00000 0.763541
19799.00000 0.767123
19800.00000 0.770887
19801.00000 0.774937
19802.00000 0.778198
19803.00000 0.781221
19804.00000 0.785261
19805.00000 0.789027
19806.00000 0.792201
19807.00000 0.795307
19808.00000 0.799111
19809.00000 0.80217
19810.00000 0.805527
19811.00000 0.808477
19812.00000 0.811527
19813.00000 0.814403
19814.00000 0.817498
19815.00000 0.820388
19816.00000 0.82278
19817.00000 0.825533
19818.00000 0.828897
19819.00000 0.831741
19820.00000 0.834225
19821.00000 0.836966
19822.00000 0.839701
19823.00000 0.84247
19824.00000 0.844791
19825.00000 0.847136
19826.00000 0.849689
19827.00000 0.852241
19828.00000 0.85418
19829.00000 0.856626
19830.00000 0.858922
19831.00000 0.861283
19832.00000 0.863314
19833.00000 0.865631
19834.00000 0.867271
19835.00000 0.869814
19836.00000 0.87144
19837.00000 0.873014
19838.00000 0.875079
19839.00000 0.876675
19840.00000 0.879109
19841.00000 0.880748
19842.00000 0.882065
19843.00000 0.883758
19844.00000 0.88568
19845.00000 0.886987
19846.00000 0.888452
19847.00000 0.889927
19848.00000 0.891551
19849.00000 0.892915
19850.00000 0.893994
19851.00000 0.895514
19852.00000 0.896995
19853.00000 0.897911
19854.00000 0.899044
19855.00000 0.900216
19856.00000 0.901156
19857.00000 0.902579
19858.00000 0.903646
19859.00000 0.904322
19860.00000 0.905538
19861.00000 0.906411
19862.00000 0.907343
19863.00000 0.908096
19864.00000 0.908879
19865.00000 0.909905
19866.00000 0.910627
19867.00000 0.911103
19868.00000 0.912022
19869.00000 0.912656
19870.00000 0.913402
19871.00000 0.913785
19872.00000 0.914267
19873.00000 0.914766
19874.00000 0.915522
19875.00000 0.916106
19876.00000 0.916325
19877.00000 0.91697
19878.00000 0.917414
19879.00000 0.917787
19880.00000 0.918212
19881.00000 0.91863
19882.00000 0.918855
19883.00000 0.919141
19884.00000 0.91951
19885.00000 0.919666
19886.00000 0.919716
19887.00000 0.920042
19888.00000 0.920205
19889.00000 0.920325
19890.00000 0.920659
19891.00000 0.920773
19892.00000 0.920717
19893.00000 0.920805
19894.00000 0.920813
19895.00000 0.920928
19896.00000 0.920798
19897.00000 0.920933
19898.00000 0.921176
19899.00000 0.921064
19900.00000 0.921061
19901.00000 0.921062
19902.00000 0.920951
19903.00000 0.920796
19904.00000 0.920987
19905.00000 0.920788
19906.00000 0.92081
19907.00000 0.920792
19908.00000 0.920471
19909.00000 0.920471
19910.00000 0.920382
19911.00000 0.919993
19912.00000 0.919815
19913.00000 0.919691
19914.00000 0.919632
19915.00000 0.919284
19916.00000 0.919161
19917.00000 0.918871
19918.00000 0.918696
19919.00000 0.91848
19920.00000 0.918394
19921.00000 0.91816
19922.00000 0.91773
19923.00000 0.91777
19924.00000 0.917446
19925.00000 0.917084
19926.00000 0.916725
19927.00000 0.916544
19928.00000 0.916242
19929.00000 0.915977
19930.00000 0.915706
19931.00000 0.915335
19932.00000 0.915087
19933.00000 0.914794
19934.00000 0.914639
19935.00000 0.914198
19936.00000 0.913932
19937.00000 0.913624
19938.00000 0.9135
19939.00000 0.912884
19940.00000 0.912767
19941.00000 0.912451
19942.00000 0.912211
19943.00000 0.911764
19944.00000 0.911539
19945.00000 0.911168
19946.00000 0.910834
19947.00000 0.910538
19948.00000 0.910176
19949.00000 0.909883
19950.00000 0.909655
19951.00000 0.909195
19952.00000 0.909141
19953.00000 0.908593
19954.00000 0.908367
19955.00000 0.908181
19956.00000 0.907664
19957.00000 0.90732
19958.00000 0.907067
19959.00000 0.906871
19960.00000 0.906246
19961.00000 0.905882
19962.00000 0.905628
19963.00000 0.905181
19964.00000 0.905012
19965.00000 0.904568
19966.00000 0.90436
19967.00000 0.903902
19968.00000 0.903717
19969.00000 0.903457
19970.00000 0.903196
19971.00000 0.902831
19972.00000 0.902494
19973.00000 0.9023
19974.00000 0.901917
19975.00000 0.901521
19976.00000 0.901273
19977.00000 0.901167
19978.00000 0.900978
19979.00000 0.900556
19980.00000 0.900504
19981.00000 0.900148
19982.00000 0.899562
19983.00000 0.89935
19984.00000 0.899101
19985.00000 0.898569
19986.00000 0.898307
19987.00000 0.89817
19988.00000 0.897886
19989.00000 0.897817
19990.00000 0.897586
19991.00000 0.897159
19992.00000 0.896993
19993.00000 0.89652
19994.00000 0.896368
19995.00000 0.896088
19996.00000 0.895708
19997.00000 0.895672
19998.00000 0.895516
19999.00000 0.894871
20000.00000 0.894784
20001.00000 0.894418
20002.00000 0.894253
20003.00000 0.89403
20004.00000 0.893828
20005.00000 0.893597
20006.00000 0.893396
20007.00000 0.893231
20008.00000 0.89316
20009.00000 0.8931
20010.00000 0.892938
20011.00000 0.892634
20012.00000 0.892361
20013.00000 0.892065
20014.00000 0.891828
20015.00000 0.891695
20016.00000 0.891392
20017.00000 0.891473
20018.00000 0.89107
20019.00000 0.890933
20020.00000 0.890853
20021.00000 0.890585
20022.00000 0.890523
20023.00000 0.890368
20024.00000 0.89019
20025.00000 0.889986
20026.00000 0.889861
20027.00000 0.889696
20028.00000 0.889695
20029.00000 0.889416
20030.00000 0.889217
20031.00000 0.889156
20032.00000 0.888896
20033.00000 0.888643
20034.00000 0.888519
20035.00000 0.888229
20036.00000 0.888092
20037.00000 0.887972
20038.00000 0.887822
20039.00000 0.887791
20040.00000 0.887591
20041.00000 0.887458
20042.00000 0.887434
20043.00000 0.887223
20044.00000 0.887138
20045.00000 0.887115
20046.00000 0.887026
20047.00000 0.886824
20048.00000 0.886711
20049.00000 0.886536
20050.00000 0.886426
20051.00000 0.886275
20052.00000 0.886385
20053.00000 0.88615
20054.00000 0.885788
20055.00000 0.885693
20056.00000 0.88555
20057.00000 0.885705
20058.00000 0.885565
20059.00000 0.885479
20060.00000 0.885405
20061.00000 0.885335
20062.00000 0.885311
20063.00000 0.885241
20064.00000 0.885048
20065.00000 0.884875
20066.00000 0.88487
20067.00000 0.884689
20068.00000 0.884517
20069.00000 0.884553
20070.00000 0.884511
20071.00000 0.884437
20072.00000 0.884092
20073.00000 0.884146
20074.00000 0.884127
20075.00000 0.884066
20076.00000 0.883954
20077.00000 0.883982
20078.00000 0.884195
20079.00000 0.883695
20080.00000 0.883848
20081.00000 0.883714
20082.00000 0.883741
20083.00000 0.883818
20084.00000 0.883664
20085.00000 0.883643
20086.00000 0.883556
20087.00000 0.883448
20088.00000 0.883446
20089.00000 0.883326
20090.00000 0.883182
20091.00000 0.882993
20092.00000 0.88303
20093.00000 0.882838
20094.00000 0.883063
20095.00000 0.882949
20096.00000 0.88326
20097.00000 0.883216
20098.00000 0.883226
20099.00000 0.883074
20100.00000 0.883149
20101.00000 0.882999
20102.00000 0.883089
20103.00000 0.882973
20104.00000 0.882755
20105.00000 0.882686
20106.00000 0.882771
20107.00000 0.882912
20108.00000 0.882763
20109.00000 0.882694
20110.00000 0.882936
20111.00000 0.882874
20112.00000 0.882822
20113.00000 0.882822
20114.00000 0.882791
20115.00000 0.88281
20116.00000 0.882812
20117.00000 0.882638
20118.00000 0.882764
20119.00000 0.882852
20120.00000 0.882849
20121.00000 0.882913
20122.00000 0.882697
20123.00000 0.88285
20124.00000 0.882863
20125.00000 0.882854
20126.00000 0.882734
20127.00000 0.882685
20128.00000 0.882778
20129.00000 0.882865
20130.00000 0.882859
20131.00000 0.882857
20132.00000 0.883007
20133.00000 0.882977
20134.00000 0.882903
20135.00000 0.882971
20136.00000 0.883207
20137.00000 0.883197
20138.00000 0.883161
20139.00000 0.883189
20140.00000 0.883286
20141.00000 0.883182
20142.00000 0.883469
20143.00000 0.8834
20144.00000 0.883334
20145.00000 0.883417
20146.00000 0.883754
20147.00000 0.88345
20148.00000 0.883685
20149.00000 0.883856
20150.00000 0.883962
20151.00000 0.883827
20152.00000 0.883874
20153.00000 0.883994
20154.00000 0.883922
20155.00000 0.884002
20156.00000 0.884146
20157.00000 0.884495
20158.00000 0.884625
20159.00000 0.8843
20160.00000 0.884388
20161.00000 0.884759
20162.00000 0.884687
20163.00000 0.88455
20164.00000 0.884774
20165.00000 0.884869
20166.00000 0.88495
20167.00000 0.884965
20168.00000 0.885132
20169.00000 0.885499
20170.00000 0.885536
20171.00000 0.88577
20172.00000 0.886114
20173.00000 0.886015
20174.00000 0.886054
20175.00000 0.886339
20176.00000 0.88645
20177.00000 0.886669
20178.00000 0.886588
20179.00000 0.88677
20180.00000 0.886876
20181.00000 0.886918
20182.00000 0.887032
20183.00000 0.887135
20184.00000 0.887188
20185.00000 0.887309
20186.00000 0.887439
20187.00000 0.887713
20188.00000 0.887893
20189.00000 0.888
20190.00000 0.888229
20191.00000 0.888198
20192.00000 0.888473
20193.00000 0.88881
20194.00000 0.888901
20195.00000 0.889173
20196.00000 0.88918
20197.00000 0.889524
20198.00000 0.889844
20199.00000 0.889858
20200.00000 0.889939
20201.00000 0.89018
20202.00000 0.889986
20203.00000 0.89022
20204.00000 0.890684
20205.00000 0.890779
20206.00000 0.891062
20207.00000 0.891235
20208.00000 0.891402
20209.00000 0.89185
20210.00000 0.891923
20211.00000 0.892298
20212.00000 0.892343
20213.00000 0.892511
20214.00000 0.892695
20215.00000 0.893009
20216.00000 0.893185
20217.00000 0.893424
20218.00000 0.89364
20219.00000 0.893655
20220.00000 0.893884
20221.00000 0.894028
20222.00000 0.894257
20223.00000 0.894415
20224.00000 0.894625
20225.00000 0.894887
20226.00000 0.895183
20227.00000 0.89521
20228.00000 0.895583
20229.00000 0.895822
20230.00000 0.895927
20231.00000 0.896312
20232.00000 0.896403
20233.00000 0.896494
20234.00000 0.89686
20235.00000 0.896721
20236.00000 0.897171
20237.00000 0.897535
20238.00000 0.897674
20239.00000 0.897827
20240.00000 0.898207
20241.00000 0.898453
20242.00000 0.898609
20243.00000 0.898854
20244.00000 0.898947
20245.00000 0.899346
20246.00000 0.899303
20247.00000 0.899611
20248.00000 0.899791
20249.00000 0.899957
20250.00000 0.90008
20251.00000 0.900247
20252.00000 0.900285
20253.00000 0.900648
20254.00000 0.900786
20255.00000 0.900961
20256.00000 0.901158
20257.00000 0.901134
20258.00000 0.901582
20259.00000 0.901588
20260.00000 0.901681
20261.00000 0.901885
20262.00000 0.902184
20263.00000 0.902197
20264.00000 0.902334
20265.00000 0.902491
20266.00000 0.902574
20267.00000 0.902577
20268.00000 0.902489
20269.00000 0.902763
20270.00000 0.902826
20271.00000 0.90262
20272.00000 0.903031
20273.00000 0.903131
20274.00000 0.903165
20275.00000 0.903377
20276.00000 0.903284
20277.00000 0.903407
20278.00000 0.903243
20279.00000 0.903138
20280.00000 0.903186
20281.00000 0.903136
20282.00000 0.903
20283.00000 0.903106
20284.00000 0.902915
20285.00000 0.902932
20286.00000 0.902968
20287.00000 0.902912
20288.00000 0.902879
20289.00000 0.902592
20290.00000 0.902566
20291.00000 0.902505
20292.00000 0.902265
20293.00000 0.901877
20294.00000 0.901814
20295.00000 0.901525
20296.00000 0.90142
20297.00000 0.901153
20298.00000 0.901027
20299.00000 0.900831
20300.00000 0.900492
20301.00000 0.899986
20302.00000 0.899679
20303.00000 0.8995
20304.00000 0.89889
20305.00000 0.898587
20306.00000 0.898103
20307.00000 0.897535
20308.00000 0.897273
20309.00000 0.896834
20310.00000 0.896416
20311.00000 0.89605
20312.00000 0.895412
20313.00000 0.894824
20314.00000 0.894213
20315.00000 0.893564
20316.00000 0.892981
20317.00000 0.892221
20318.00000 0.89148
20319.00000 0.891029
20320.00000 0.890274
20321.00000 0.889655
20322.00000 0.888945
20323.00000 0.887958
20324.00000 0.887164
20325.00000 0.886298
20326.00000 0.885099
20327.00000 0.884341
20328.00000 0.883374
20329.00000 0.882346
20330.00000 0.881539
20331.00000 0.880158
20332.00000 0.879325
20333.00000 0.878314
20334.00000 0.877326
20335.00000 0.876199
20336.00000 0.874832
20337.00000 0.873659
20338.00000 0.872669
20339.00000 0.871165
20340.00000 0.869823
20341.00000 0.868361
20342.00000 0.867196
20343.00000 0.865835
20344.00000 0.864435
20345.00000 0.862639
20346.00000 0.861198
20347.00000 0.859457
20348.00000 0.857662
20349.00000 0.856017
20350.00000 0.854342
20351.00000 0.852655
20352.00000 0.851129
20353.00000 0.849276
20354.00000 0.847368
20355.00000 0.84564
20356.00000 0.843905
20357.00000 0.842106
20358.00000 0.839735
20359.00000 0.837738
20360.00000 0.8358
20361.00000 0.833965
20362.00000 0.831402
20363.00000 0.829191
20364.00000 0.827141
20365.00000 0.824911
20366.00000 0.822409
20367.00000 0.820101
20368.00000 0.817904
20369.00000 0.815686
20370.00000 0.812982
20371.00000 0.810392
20372.00000 0.807831
20373.00000 0.8055
20374.00000 0.803057
20375.00000 0.799919
20376.00000 0.797424
20377.00000 0.794915
20378.00000 0.792139
20379.00000 0.789169
20380.00000 0.786058
20381.00000 0.783413
20382.00000 0.780856
20383.00000 0.777525
20384.00000 0.774564
20385.00000 0.771597
20386.00000 0.768717
20387.00000 0.76591
20388.00000 0.762375
20389.00000 0.759149
20390.00000 0.75632
20391.00000 0.752978
20392.00000 0.74942
20393.00000 0.746027
20394.00000 0.742737
20395.00000 0.739694
20396.00000 0.735942
20397.00000 0.73191
20398.00000 0.728635
20399.00000 0.72557
20400.00000 0.721907
20401.00000 0.718242
20402.00000 0.71466
20403.00000 0.711477
20404.00000 0.707844
20405.00000 0.703633
20406.00000 0.699839
20407.00000 0.696739
20408.00000 0.692636
20409.00000 0.689115
20410.00000 0.684686
20411.00000 0.680855
20412.00000 0.677751
20413.00000 0.673466
20414.00000 0.668955
20415.00000 0.665334
20416.00000 0.66178
20417.00000 0.657644
20418.00000 0.653375
20419.00000 0.649497
20420.00000 0.645797
20421.00000 0.642174
20422.00000 0.637115
20423.00000 0.633265
20424.00000 0.629413
20425.00000 0.625192
20426.00000 0.621235
20427.00000 0.61648
20428.00000 0.612441
20429.00000 0.609037
20430.00000 0.604792
20431.00000 0.599943
20432.00000 0.596139
20433.00000 0.591905
20434.00000 0.58795
20435.00000 0.583239
20436.00000 0.579079
20437.00000 0.57494
20438.00000 0.571114
20439.00000 0.566166
20440.00000 0.562267
20441.00000 0.558499
20442.00000 0.554738
20443.00000 0.550383
20444.00000 0.545085
20445.00000 0.541175
20446.00000 0.537183
20447.00000 0.533123
20448.00000 0.528198
20449.00000 0.524111
20450.00000 0.520709
20451.00000 0.516553
20452.00000 0.512203
20453.00000 0.50732
20454.00000 0.503318
20455.00000 0.499693
20456.00000 0.495034
20457.00000 0.490634
20458.00000 0.486409
20459.00000 0.482731
20460.00000 0.478746
20461.00000 0.473807
20462.00000 0.469766
20463.00000 0.466096
20464.00000 0.462144
20465.00000 0.457497
20466.00000 0.453288
20467.00000 0.449655
20468.00000 0.445844
20469.00000 0.442048
20470.00000 0.437191
20471.00000 0.433374
20472.00000 0.430191
20473.00000 0.425974
20474.00000 0.421533
20475.00000 0.417619
20476.00000 0.413983
20477.00000 0.410504
20478.00000 0.405944
20479.00000 0.401756
20480.00000 0.398154
20481.00000 0.394787
20482.00000 0.390517
20483.00000 0.386596
20484.00000 0.383137
20485.00000 0.380262
20486.00000 0.37621
20487.00000 0.372137
20488.00000 0.368563
20489.00000 0.365191
20490.00000 0.36181
20491.00000 0.358098
20492.00000 0.354004
20493.00000 0.350861
20494.00000 0.347447
20495.00000 0.343625
20496.00000 0.339634
20497.00000 0.336577
20498.00000 0.333822
20499.00000 0.330024
20500.00000 0.326471
20501.00000 0.323164
20502.00000 0.320257
20503.00000 0.31728
20504.00000 0.313483
20505.00000 0.310368
20506.00000 0.307305
20507.00000 0.304273
20508.00000 0.301074
20509.00000 0.297748
20510.00000 0.294727
20511.00000 0.29189
20512.00000 0.288627
20513.00000 0.285446
20514.00000 0.282468
20515.00000 0.279606
20516.00000 0.27691
20517.00000 0.273818
20518.00000 0.270738
20519.00000 0.268371
20520.00000 0.265607
20521.00000 0.262717
20522.00000 0.25975
20523.00000 0.257216
20524.00000 0.254779
20525.00000 0.25199
20526.00000 0.249105
20527.00000 0.246316
20528.00000 0.243842
20529.00000 0.241345
20530.00000 0.238397
20531.00000 0.235826
20532.00000 0.233392
20533.00000 0.231315
20534.00000 0.228511
20535.00000 0.22593
20536.00000 0.223774
20537.00000 0.221489
20538.00000 0.218902
20539.00000 0.216619
20540.00000 0.214359
20541.00000 0.212243
20542.00000 0.209857
20543.00000 0.207543
20544.00000 0.205316
20545.00000 0.20347
20546.00000 0.200936
20547.00000 0.198564
20548.00000 0.196464
20549.00000 0.194503
20550.00000 0.192328
20551.00000 0.190361
20552.00000 0.188269
20553.00000 0.186295
20554.00000 0.184512
20555.00000 0.182329
20556.00000 0.180411
20557.00000 0.178463
20558.00000 0.17662
20559.00000 0.174801
20560.00000 0.173009
20561.00000 0.17087
20562.00000 0.169066
20563.00000 0.167366
20564.00000 0.165393
20565.00000 0.163631
20566.00000 0.161765
20567.00000 0.160197
20568.00000 0.158582
20569.00000 0.156778
20570.00000 0.155103
20571.00000 0.153477
20572.00000 0.151928
20573.00000 0.150349
20574.00000 0.148672
20575.00000 0.147088
20576.00000 0.145661
20577.00000 0.144178
20578.00000 0.142294
20579.00000 0.140878
20580.00000 0.139437
20581.00000 0.138029
20582.00000 0.136421
20583.00000 0.134868
20584.00000 0.133646
20585.00000 0.132141
20586.00000 0.130686
20587.00000 0.129291
20588.00000 0.128003
20589.00000 0.126773
20590.00000 0.125367
20591.00000 0.12395
20592.00000 0.122595
20593.00000 0.121597
20594.00000 0.120233
20595.00000 0.118817
20596.00000 0.117597
20597.00000 0.116409
20598.00000 0.115232
20599.00000 0.113982
20600.00000 0.112705
20601.00000 0.1115
20602.00000 0.110346
20603.00000 0.10914
20604.00000 0.108031
20605.00000 0.106982
20606.00000 0.105894
20607.00000 0.104724
20608.00000 0.10356
20609.00000 0.102556
20610.00000 0.101491
20611.00000 0.10053
20612.00000 0.099373
20613.00000 0.098398
20614.00000 0.097421
20615.00000 0.09638
20616.00000 0.095366
20617.00000 0.094269
20618.00000 0.093303
20619.00000 0.092367
20620.00000 0.091296
20621.00000 0.090394
20622.00000 0.089473
20623.00000 0.088574
20624.00000 0.087794
20625.00000 0.086833
20626.00000 0.085897
20627.00000 0.085225
20628.00000 0.084353
20629.00000 0.083394
20630.00000 0.082508
20631.00000 0.081639
20632.00000 0.080937
20633.00000 0.080009
20634.00000 0.079145
20635.00000 0.078267
20636.00000 0.07756
20637.00000 0.076762
20638.00000 0.07604
20639.00000 0.07521
20640.00000 0.074476
20641.00000 0.073876
20642.00000 0.072978
20643.00000 0.072285
20644.00000 0.071499
20645.00000 0.070871
20646.00000 0.07021
20647.00000 0.069456
20648.00000 0.068692
20649.00000 0.068143
20650.00000 0.067411
20651.00000 0.066656
20652.00000 0.066069
20653.00000 0.065337
20654.00000 0.064669
20655.00000 0.063967
20656.00000 0.063371
20657.00000 0.062775
20658.00000 0.062217
20659.00000 0.061584
20660.00000 0.060963
20661.00000 0.060405
20662.00000 0.059761
20663.00000 0.059277
20664.00000 0.058676
20665.00000 0.058082
20666.00000 0.057476
20667.00000 0.05699
20668.00000 0.056415
20669.00000 0.055818
20670.00000 0.055265
20671.00000 0.054689
20672.00000 0.054207
20673.00000 0.053627
20674.00000 0.053112
20675.00000 0.052625
20676.00000 0.052132
20677.00000 0.051515
20678.00000 0.051131
20679.00000 0.05069
20680.00000 0.050157
20681.00000 0.049748
20682.00000 0.049161
20683.00000 0.048729
20684.00000 0.048375
20685.00000 0.047861
20686.00000 0.047383
20687.00000 0.046875
20688.00000 0.046545
20689.00000 0.046028
20690.00000 0.045539
20691.00000 0.045087
20692.00000 0.044799
20693.00000 0.044295
20694.00000 0.043898
20695.00000 0.043467
20696.00000 0.043167
20697.00000 0.042678
20698.00000 0.042375
20699.00000 0.041871
20700.00000 0.041498
20701.00000 0.041145
20702.00000 0.040769
20703.00000 0.040346
20704.00000 0.04002
20705.00000 0.039595
20706.00000 0.03915
20707.00000 0.03887
20708.00000 0.038513
20709.00000 0.038155
20710.00000 0.037791
20711.00000 0.037513
20712.00000 0.03711
20713.00000 0.036736
20714.00000 0.036427
20715.00000 0.036093
20716.00000 0.035827
20717.00000 0.035457
20718.00000 0.035121
20719.00000 0.034852
20720.00000 0.034497
20721.00000 0.034224
20722.00000 0.0339
20723.00000 0.0336
20724.00000 0.033342
20725.00000 0.032897
20726.00000 0.032655
20727.00000 0.032366
20728.00000 0.032041
20729.00000 0.031824
20730.00000 0.031485
20731.00000 0.031314
20732.00000 0.030974
20733.00000 0.03068
20734.00000 0.030451
20735.00000 0.0302
20736.00000 0.029877
20737.00000 0.029605
20738.00000 0.029347
20739.00000 0.029134
20740.00000 0.028903
20741.00000 0.028605
20742.00000 0.0283
20743.00000 0.028084
20744.00000 0.027848
20745.00000 0.0276
20746.00000 0.02737
20747.00000 0.027069
20748.00000 0.026868
20749.00000 0.026675
20750.00000 0.026406
20751.00000 0.026197
20752.00000 0.025946
20753.00000 0.025842
20754.00000 0.025561
20755.00000 0.025312
20756.00000 0.025125
20757.00000 0.024953
20758.00000 0.024658
20759.00000 0.024449
20760.00000 0.02427
20761.00000 0.024037
20762.00000 0.023845
20763.00000 0.023673
20764.00000 0.02339
20765.00000 0.023256
20766.00000 0.023093
20767.00000 0.022815
20768.00000 0.022676
20769.00000 0.022453
20770.00000 0.022286
20771.00000 0.022177
20772.00000 0.02187
20773.00000 0.021726
20774.00000 0.02153
20775.00000 0.021422
20776.00000 0.021137
20777.00000 0.021065
20778.00000 0.020864
20779.00000 0.020687
20780.00000 0.020522
20781.00000 0.020305
20782.00000 0.020096
20783.00000 0.01997
20784.00000 0.019833
20785.00000 0.019707
20786.00000 0.019515
20787.00000 0.019351
20788.00000 0.019234
20789.00000 0.018954
20790.00000 0.018888
20791.00000 0.018741
20792.00000 0.01852
20793.00000 0.018451
20794.00000 0.0182
20795.00000 0.0181
20796.00000 0.017954
20797.00000 0.017785
20798.00000 0.017716
20799.00000 0.017567
20800.00000 0.017388
20801.00000 0.017241
20802.00000 0.017118
20803.00000 0.016947
20804.00000 0.016837
20805.00000 0.016711
20806.00000 0.016552
20807.00000 0.016445
20808.00000 0.016305
20809.00000 0.016224
20810.00000 0.016081
20811.00000 0.015877
20812.00000 0.015817
20813.00000 0.015699
20814.00000 0.015627
20815.00000 0.015396
20816.00000 0.015354
20817.00000 0.015203
20818.00000 0.015107
20819.00000 0.014972
20820.00000 0.014901
20821.00000 0.014733
20822.00000 0.014653
20823.00000 0.01447
20824.00000 0.014417
20825.00000 0.014302
20826.00000 0.014225
20827.00000 0.014061
20828.00000 0.013962
20829.00000 0.01382
20830.00000 0.013755
20831.00000 0.013637
20832.00000 0.013512
20833.00000 0.013436
20834.00000 0.013298
20835.00000 0.013197
20836.00000 0.01315
20837.00000 0.013012
20838.00000 0.012918
20839.00000 0.012875
20840.00000 0.012736
20841.00000 0.012631
20842.00000 0.012547
20843.00000 0.012415
20844.00000 0.012334
20845.00000 0.012341
20846.00000 0.012167
20847.00000 0.012058
20848.00000 0.011993
20849.00000 0.011956
20850.00000 0.011774
20851.00000 0.011792
20852.00000 0.011626
20853.00000 0.011569
20854.00000 0.011457
20855.00000 0.011395
20856.00000 0.011374
20857.00000 0.011208
20858.00000 0.01113
20859.00000 0.011023
20860.00000 0.010961
20861.00000 0.010875
20862.00000 0.010855
20863.00000 0.010737
20864.00000 0.01066
20865.00000 0.01061
20866.00000 0.010451
20867.00000 0.010395
20868.00000 0.010343
20869.00000 0.010282
20870.00000 0.010214
20871.00000 0.010141
20872.00000 0.01009
20873.00000 0.009989
20874.00000 0.009958
20875.00000 0.009857
20876.00000 0.009751
20877.00000 0.009679
20878.00000 0.009611
20879.00000 0.009564
20880.00000 0.009537
20881.00000 0.009405
20882.00000 0.009345
20883.00000 0.009257
20884.00000 0.009208
20885.00000 0.00919
20886.00000 0.009086
20887.00000 0.009048
20888.00000 0.008932
20889.00000 0.008931
20890.00000 0.008843
20891.00000 0.008751
20892.00000 0.008704
20893.00000 0.008659
20894.00000 0.008583
20895.00000 0.008507
20896.00000 0.008444
20897.00000 0.008455
20898.00000 0.008384
20899.00000 0.008301
20900.00000 0.008199
20901.00000 0.008228
20902.00000 0.008166
20903.00000 0.008094
20904.00000 0.008006
20905.00000 0.007982
20906.00000 0.007944
20907.00000 0.007907
20908.00000 0.00782
20909.00000 0.007728
20910.00000 0.007745
20911.00000 0.007649
20912.00000 0.007618
20913.00000 0.00755
20914.00000 0.007478
20915.00000 0.007463
20916.00000 0.007448
20917.00000 0.007381
20918.00000 0.007334
20919.00000 0.007218
20920.00000 0.007219
20921.00000 0.007158
20922.00000 0.007094
20923.00000 0.007073
20924.00000 0.00702
20925.00000 0.00695
20926.00000 0.006878
20927.00000 0.006848
20928.00000 0.006839
20929.00000 0.00674
20930.00000 0.006771
20931.00000 0.006731
20932.00000 0.006601
20933.00000 0.006548
20934.00000 0.00653
20935.00000 0.006499
20936.00000 0.006458
20937.00000 0.006429
20938.00000 0.006403
20939.00000 0.006354
20940.00000 0.006293
20941.00000 0.006273
20942.00000 0.006281
20943.00000 0.00623
20944.00000 0.006123
20945.00000 0.006053
20946.00000 0.006078
20947.00000 0.006058
20948.00000 0.006025
20949.00000 0.005971
20950.00000 0.005927
20951.00000 0.005808
20952.00000 0.005873
20953.00000 0.005812
20954.00000 0.005804
20955.00000 0.005731
20956.00000 0.005673
20957.00000 0.00567
20958.00000 0.005654
20959.00000 0.005628
20960.00000 0.005543
20961.00000 0.00553
20962.00000 0.005455
20963.00000 0.005444
20964.00000 0.005385
20965.00000 0.005369
20966.00000 0.005354
20967.00000 0.005327
20968.00000 0.005255
20969.00000 0.005161
20970.00000 0.005213
20971.00000 0.005142
20972.00000 0.005149
20973.00000 0.005068
20974.00000 0.005091
20975.00000 0.005023
20976.00000 0.005006
20977.00000 0.004988
20978.00000 0.004944
20979.00000 0.004906
20980.00000 0.004866
20981.00000 0.004848
20982.00000 0.004793
20983.00000 0.004788
20984.00000 0.004768
20985.00000 0.004757
20986.00000 0.004741
20987.00000 0.004733
20988.00000 0.004621
20989.00000 0.00464
20990.00000 0.004613
20991.00000 0.004545
20992.00000 0.004551
20993.00000 0.004512
20994.00000 0.004452
20995.00000 0.004448
20996.00000 0.004399
20997.00000 0.004433
20998.00000 0.004329
20999.00000 0.004305
21000.00000 0.004291
23100.00000 0.0
