# %ECSV 0.9
# ---
# datatype:
# - {name: wavelength, unit: Angstrom, datatype: float32}
# - {name: response, datatype: float32}
# meta: !!omap
# - {band_name: H2Oice2045_G0242w}
# - {group_name: NIRI}
wavelength response
17192.25000 0.0
19102.50000 0.00403
19105.00000 0.00419
19107.50000 0.00428
19110.00000 0.00432
19112.50000 0.00442
19115.00000 0.00467
19117.50000 0.00474
19120.00000 0.0049
19122.50000 0.00504
19125.00000 0.00527
19127.50000 0.00534
19130.00000 0.00553
19132.50000 0.00575
19135.00000 0.00593
19137.50000 0.00614
19140.00000 0.00628
19142.50000 0.00645
19145.00000 0.00664
19147.50000 0.00688
19150.00000 0.00715
19152.50000 0.00724
19155.00000 0.00756
19157.50000 0.00778
19160.00000 0.008
19162.50000 0.00828
19165.00000 0.00844
19167.50000 0.00877
19170.00000 0.00898
19172.50000 0.00927
19175.00000 0.00953
19177.50000 0.00977
19180.00000 0.0101
19182.50000 0.01028
19185.00000 0.01064
19187.50000 0.0109
19190.00000 0.01125
19192.50000 0.01169
19195.00000 0.012
19197.50000 0.01259
19200.00000 0.01287
19202.50000 0.01344
19205.00000 0.01393
19207.50000 0.01434
19210.00000 0.0149
19212.50000 0.01531
19215.00000 0.01593
19217.50000 0.01626
19220.00000 0.01666
19222.50000 0.01718
19225.00000 0.01763
19227.50000 0.01826
19230.00000 0.01865
19232.50000 0.01931
19235.00000 0.01978
19237.50000 0.02036
19240.00000 0.02105
19242.50000 0.02163
19245.00000 0.02255
19247.50000 0.02305
19250.00000 0.02378
19252.50000 0.02437
19255.00000 0.02508
19257.50000 0.02595
19260.00000 0.02652
19262.50000 0.02748
19265.00000 0.02806
19267.50000 0.02892
19270.00000 0.02967
19272.50000 0.03059
19275.00000 0.03171
19277.50000 0.03256
19280.00000 0.0337
19282.50000 0.03454
19285.00000 0.03562
19287.50000 0.03668
19290.00000 0.0377
19292.50000 0.03909
19295.00000 0.04016
19297.50000 0.0413
19300.00000 0.04234
19302.50000 0.04361
19305.00000 0.04481
19307.50000 0.04611
19310.00000 0.04754
19312.50000 0.0487
19315.00000 0.05008
19317.50000 0.05134
19320.00000 0.05289
19322.50000 0.05453
19325.00000 0.05593
19327.50000 0.05776
19330.00000 0.05916
19332.50000 0.06087
19335.00000 0.06268
19337.50000 0.06439
19340.00000 0.06633
19342.50000 0.06804
19345.00000 0.07011
19347.50000 0.07198
19350.00000 0.07395
19352.50000 0.07613
19355.00000 0.07835
19357.50000 0.08039
19360.00000 0.0826
19362.50000 0.08504
19365.00000 0.0874
19367.50000 0.08988
19370.00000 0.09237
19372.50000 0.09505
19375.00000 0.09761
19377.50000 0.10042
19380.00000 0.10342
19382.50000 0.10639
19385.00000 0.1095
19387.50000 0.11241
19390.00000 0.11576
19392.50000 0.11879
19395.00000 0.12263
19397.50000 0.12635
19400.00000 0.12973
19402.50000 0.13368
19405.00000 0.13722
19407.50000 0.14135
19410.00000 0.145
19412.50000 0.14942
19415.00000 0.15399
19417.50000 0.15779
19420.00000 0.1627
19422.50000 0.16697
19425.00000 0.17183
19427.50000 0.17643
19430.00000 0.18186
19432.50000 0.18743
19435.00000 0.19212
19437.50000 0.19819
19440.00000 0.20364
19442.50000 0.20988
19445.00000 0.21593
19447.50000 0.22239
19450.00000 0.22939
19452.50000 0.23588
19455.00000 0.24237
19457.50000 0.24937
19460.00000 0.25636
19462.50000 0.26405
19465.00000 0.27149
19467.50000 0.2796
19470.00000 0.28702
19472.50000 0.29483
19475.00000 0.30373
19477.50000 0.31236
19480.00000 0.32109
19482.50000 0.3314
19485.00000 0.33971
19487.50000 0.34866
19490.00000 0.35914
19492.50000 0.36871
19495.00000 0.3796
19497.50000 0.38921
19500.00000 0.39982
19502.50000 0.41019
19505.00000 0.41988
19507.50000 0.4317
19510.00000 0.44283
19512.50000 0.45471
19515.00000 0.46512
19517.50000 0.47712
19520.00000 0.48811
19522.50000 0.4994
19525.00000 0.51284
19527.50000 0.52432
19530.00000 0.53785
19532.50000 0.54835
19535.00000 0.56091
19537.50000 0.57379
19540.00000 0.58482
19542.50000 0.59952
19545.00000 0.61074
19547.50000 0.62358
19550.00000 0.63528
19552.50000 0.64656
19555.00000 0.65948
19557.50000 0.67017
19560.00000 0.68281
19562.50000 0.69394
19565.00000 0.70455
19567.50000 0.71623
19570.00000 0.72679
19572.50000 0.7386
19575.00000 0.74751
19577.50000 0.75923
19580.00000 0.76793
19582.50000 0.77708
19585.00000 0.78743
19587.50000 0.79566
19590.00000 0.80558
19592.50000 0.81283
19595.00000 0.82116
19597.50000 0.82927
19600.00000 0.83573
19602.50000 0.84359
19605.00000 0.85011
19607.50000 0.85653
19610.00000 0.8624
19612.50000 0.86782
19615.00000 0.87322
19617.50000 0.87852
19620.00000 0.88314
19622.50000 0.88764
19625.00000 0.89215
19627.50000 0.89531
19630.00000 0.89921
19632.50000 0.90249
19635.00000 0.90522
19637.50000 0.90844
19640.00000 0.91051
19642.50000 0.91312
19645.00000 0.91492
19647.50000 0.91644
19650.00000 0.91853
19652.50000 0.91995
19655.00000 0.92088
19657.50000 0.92242
19660.00000 0.9229
19662.50000 0.92363
19665.00000 0.92482
19667.50000 0.92478
19670.00000 0.92535
19672.50000 0.92598
19675.00000 0.92572
19677.50000 0.92626
19680.00000 0.9264
19682.50000 0.92625
19685.00000 0.9268
19687.50000 0.92609
19690.00000 0.92607
19692.50000 0.92605
19695.00000 0.92561
19697.50000 0.92573
19700.00000 0.9251
19702.50000 0.92489
19705.00000 0.92494
19707.50000 0.92457
19710.00000 0.92431
19712.50000 0.92424
19715.00000 0.9238
19717.50000 0.92388
19720.00000 0.9235
19722.50000 0.9229
19725.00000 0.92331
19727.50000 0.92258
19730.00000 0.92226
19732.50000 0.92282
19735.00000 0.92208
19737.50000 0.92206
19740.00000 0.92255
19742.50000 0.92215
19745.00000 0.92229
19747.50000 0.9221
19750.00000 0.92215
19752.50000 0.92264
19755.00000 0.92214
19757.50000 0.92207
19760.00000 0.92315
19762.50000 0.92255
19765.00000 0.92304
19767.50000 0.92336
19770.00000 0.92336
19772.50000 0.92415
19775.00000 0.9239
19777.50000 0.92419
19780.00000 0.92537
19782.50000 0.92477
19785.00000 0.92534
19787.50000 0.92548
19790.00000 0.92595
19792.50000 0.92697
19795.00000 0.92691
19797.50000 0.92694
19800.00000 0.92813
19802.50000 0.92799
19805.00000 0.9284
19807.50000 0.92928
19810.00000 0.9291
19812.50000 0.92966
19815.00000 0.92985
19817.50000 0.93022
19820.00000 0.93089
19822.50000 0.93104
19825.00000 0.93167
19827.50000 0.9322
19830.00000 0.93215
19832.50000 0.93277
19835.00000 0.93331
19837.50000 0.9332
19840.00000 0.93389
19842.50000 0.93378
19845.00000 0.93428
19847.50000 0.93465
19850.00000 0.93492
19852.50000 0.93502
19855.00000 0.93544
19857.50000 0.93536
19860.00000 0.93601
19862.50000 0.93588
19865.00000 0.93562
19867.50000 0.93636
19870.00000 0.9359
19872.50000 0.93598
19875.00000 0.93634
19877.50000 0.9359
19880.00000 0.93657
19882.50000 0.93627
19885.00000 0.9363
19887.50000 0.93669
19890.00000 0.93619
19892.50000 0.936
19895.00000 0.93611
19897.50000 0.93554
19900.00000 0.936
19902.50000 0.93578
19905.00000 0.9354
19907.50000 0.93563
19910.00000 0.93509
19912.50000 0.93476
19915.00000 0.9351
19917.50000 0.93445
19920.00000 0.93453
19922.50000 0.93412
19925.00000 0.93345
19927.50000 0.93374
19930.00000 0.93327
19932.50000 0.93274
19935.00000 0.93295
19937.50000 0.93244
19940.00000 0.93218
19942.50000 0.93196
19945.00000 0.93118
19947.50000 0.9313
19950.00000 0.93106
19952.50000 0.9301
19955.00000 0.93027
19957.50000 0.92967
19960.00000 0.92936
19962.50000 0.92955
19965.00000 0.92847
19967.50000 0.9288
19970.00000 0.92828
19972.50000 0.92768
19975.00000 0.92797
19977.50000 0.92738
19980.00000 0.92706
19982.50000 0.92713
19985.00000 0.92623
19987.50000 0.92623
19990.00000 0.92619
19992.50000 0.92548
19995.00000 0.92559
19997.50000 0.92545
20000.00000 0.92461
20002.50000 0.92487
20005.00000 0.92464
20007.50000 0.92451
20010.00000 0.92466
20012.50000 0.92422
20015.00000 0.92433
20017.50000 0.92396
20020.00000 0.92358
20022.50000 0.92396
20025.00000 0.9237
20027.50000 0.92317
20030.00000 0.92339
20032.50000 0.92367
20035.00000 0.92338
20037.50000 0.92373
20040.00000 0.92327
20042.50000 0.92376
20045.00000 0.92367
20047.50000 0.92356
20050.00000 0.92392
20052.50000 0.92353
20055.00000 0.9232
20057.50000 0.92415
20060.00000 0.92375
20062.50000 0.92424
20065.00000 0.92461
20067.50000 0.92443
20070.00000 0.92478
20072.50000 0.9249
20075.00000 0.9247
20077.50000 0.92554
20080.00000 0.92489
20082.50000 0.92553
20085.00000 0.92559
20087.50000 0.92584
20090.00000 0.9261
20092.50000 0.92681
20095.00000 0.9266
20097.50000 0.92734
20100.00000 0.92748
20102.50000 0.92776
20105.00000 0.92831
20107.50000 0.92798
20110.00000 0.92821
20112.50000 0.92916
20115.00000 0.9287
20117.50000 0.92952
20120.00000 0.92977
20122.50000 0.92994
20125.00000 0.93045
20127.50000 0.9307
20130.00000 0.93123
20132.50000 0.93161
20135.00000 0.93159
20137.50000 0.93219
20140.00000 0.93237
20142.50000 0.93239
20145.00000 0.93312
20147.50000 0.93303
20150.00000 0.93363
20152.50000 0.93433
20155.00000 0.93418
20157.50000 0.93442
20160.00000 0.93515
20162.50000 0.93505
20165.00000 0.93603
20167.50000 0.93612
20170.00000 0.93586
20172.50000 0.9368
20175.00000 0.93603
20177.50000 0.93691
20180.00000 0.93744
20182.50000 0.93725
20185.00000 0.93791
20187.50000 0.93781
20190.00000 0.93825
20192.50000 0.9387
20195.00000 0.93857
20197.50000 0.93892
20200.00000 0.93928
20202.50000 0.93866
20205.00000 0.93938
20207.50000 0.93965
20210.00000 0.93914
20212.50000 0.93998
20215.00000 0.93955
20217.50000 0.93999
20220.00000 0.94027
20222.50000 0.93986
20225.00000 0.94036
20227.50000 0.94034
20230.00000 0.94028
20232.50000 0.94052
20235.00000 0.94059
20237.50000 0.94041
20240.00000 0.94077
20242.50000 0.94036
20245.00000 0.94083
20247.50000 0.94093
20250.00000 0.94054
20252.50000 0.94096
20255.00000 0.94066
20257.50000 0.93994
20260.00000 0.94057
20262.50000 0.94019
20265.00000 0.94026
20267.50000 0.9403
20270.00000 0.93985
20272.50000 0.94021
20275.00000 0.93991
20277.50000 0.93928
20280.00000 0.94002
20282.50000 0.93918
20285.00000 0.93904
20287.50000 0.93968
20290.00000 0.93874
20292.50000 0.93906
20295.00000 0.93881
20297.50000 0.93832
20300.00000 0.93842
20302.50000 0.938
20305.00000 0.93803
20307.50000 0.93796
20310.00000 0.93738
20312.50000 0.93749
20315.00000 0.93731
20317.50000 0.93655
20320.00000 0.93671
20322.50000 0.93628
20325.00000 0.93618
20327.50000 0.93614
20330.00000 0.9356
20332.50000 0.93534
20335.00000 0.93546
20337.50000 0.93472
20340.00000 0.93486
20342.50000 0.93439
20345.00000 0.93364
20347.50000 0.9342
20350.00000 0.93366
20352.50000 0.93333
20355.00000 0.93354
20357.50000 0.9327
20360.00000 0.93296
20362.50000 0.93247
20365.00000 0.93194
20367.50000 0.9322
20370.00000 0.93164
20372.50000 0.93119
20375.00000 0.93148
20377.50000 0.93072
20380.00000 0.93075
20382.50000 0.93099
20385.00000 0.93008
20387.50000 0.93049
20390.00000 0.92984
20392.50000 0.92951
20395.00000 0.92987
20397.50000 0.929
20400.00000 0.92923
20402.50000 0.92916
20405.00000 0.92842
20407.50000 0.92896
20410.00000 0.92842
20412.50000 0.92827
20415.00000 0.9282
20417.50000 0.92775
20420.00000 0.92761
20422.50000 0.92791
20425.00000 0.9276
20427.50000 0.92725
20430.00000 0.92732
20432.50000 0.92682
20435.00000 0.92716
20437.50000 0.92704
20440.00000 0.92681
20442.50000 0.92713
20445.00000 0.92651
20447.50000 0.92674
20450.00000 0.92681
20452.50000 0.92645
20455.00000 0.92639
20457.50000 0.92648
20460.00000 0.92624
20462.50000 0.92642
20465.00000 0.92606
20467.50000 0.92634
20470.00000 0.92641
20472.50000 0.92589
20475.00000 0.92623
20477.50000 0.92614
20480.00000 0.92602
20482.50000 0.92656
20485.00000 0.92618
20487.50000 0.92634
20490.00000 0.92638
20492.50000 0.9261
20495.00000 0.92637
20497.50000 0.92659
20500.00000 0.92636
20502.50000 0.92675
20505.00000 0.92651
20507.50000 0.92654
20510.00000 0.92685
20512.50000 0.92632
20515.00000 0.92676
20517.50000 0.92683
20520.00000 0.92659
20522.50000 0.92722
20525.00000 0.9271
20527.50000 0.9271
20530.00000 0.92735
20532.50000 0.92734
20535.00000 0.92744
20537.50000 0.92796
20540.00000 0.92746
20542.50000 0.92751
20545.00000 0.92781
20547.50000 0.92748
20550.00000 0.9279
20552.50000 0.92768
20555.00000 0.92783
20557.50000 0.92814
20560.00000 0.92799
20562.50000 0.92822
20565.00000 0.92821
20567.50000 0.92782
20570.00000 0.92851
20572.50000 0.9284
20575.00000 0.9285
20577.50000 0.92882
20580.00000 0.92835
20582.50000 0.92869
20585.00000 0.92858
20587.50000 0.92836
20590.00000 0.92858
20592.50000 0.92859
20595.00000 0.92852
20597.50000 0.92876
20600.00000 0.92847
20602.50000 0.92823
20605.00000 0.92856
20607.50000 0.92844
20610.00000 0.92872
20612.50000 0.92861
20615.00000 0.92815
20617.50000 0.92838
20620.00000 0.92807
20622.50000 0.92805
20625.00000 0.92794
20627.50000 0.92743
20630.00000 0.92746
20632.50000 0.92736
20635.00000 0.92713
20637.50000 0.9274
20640.00000 0.92716
20642.50000 0.92628
20645.00000 0.92658
20647.50000 0.92613
20650.00000 0.9259
20652.50000 0.92594
20655.00000 0.92547
20657.50000 0.92554
20660.00000 0.92477
20662.50000 0.92427
20665.00000 0.92464
20667.50000 0.92404
20670.00000 0.92347
20672.50000 0.92343
20675.00000 0.92283
20677.50000 0.92277
20680.00000 0.92234
20682.50000 0.92152
20685.00000 0.9214
20687.50000 0.92091
20690.00000 0.92027
20692.50000 0.92009
20695.00000 0.91938
20697.50000 0.91927
20700.00000 0.91861
20702.50000 0.91791
20705.00000 0.9175
20707.50000 0.91686
20710.00000 0.91614
20712.50000 0.91593
20715.00000 0.91534
20717.50000 0.91438
20720.00000 0.91395
20722.50000 0.91303
20725.00000 0.91242
20727.50000 0.91226
20730.00000 0.91132
20732.50000 0.91111
20735.00000 0.90997
20737.50000 0.90918
20740.00000 0.90894
20742.50000 0.90751
20745.00000 0.90733
20747.50000 0.90649
20750.00000 0.90597
20752.50000 0.90564
20755.00000 0.9045
20757.50000 0.9039
20760.00000 0.90372
20762.50000 0.90234
20765.00000 0.90182
20767.50000 0.90135
20770.00000 0.90024
20772.50000 0.89991
20775.00000 0.89899
20777.50000 0.89836
20780.00000 0.89786
20782.50000 0.8972
20785.00000 0.89646
20787.50000 0.89587
20790.00000 0.89505
20792.50000 0.89446
20795.00000 0.89382
20797.50000 0.89301
20800.00000 0.89261
20802.50000 0.89181
20805.00000 0.89098
20807.50000 0.89077
20810.00000 0.88986
20812.50000 0.88976
20815.00000 0.8888
20817.50000 0.88836
20820.00000 0.88779
20822.50000 0.88729
20825.00000 0.88691
20827.50000 0.88658
20830.00000 0.88603
20832.50000 0.8854
20835.00000 0.88502
20837.50000 0.88438
20840.00000 0.88432
20842.50000 0.88389
20845.00000 0.88325
20847.50000 0.8834
20850.00000 0.88264
20852.50000 0.88268
20855.00000 0.88248
20857.50000 0.88197
20860.00000 0.88211
20862.50000 0.88166
20865.00000 0.88166
20867.50000 0.88149
20870.00000 0.88139
20872.50000 0.88122
20875.00000 0.88137
20877.50000 0.88116
20880.00000 0.88145
20882.50000 0.88172
20885.00000 0.88156
20887.50000 0.88183
20890.00000 0.88162
20892.50000 0.88193
20895.00000 0.88223
20897.50000 0.88235
20900.00000 0.88276
20902.50000 0.88326
20905.00000 0.88332
20907.50000 0.88389
20910.00000 0.88438
20912.50000 0.88438
20915.00000 0.8853
20917.50000 0.8854
20920.00000 0.88634
20922.50000 0.8868
20925.00000 0.88689
20927.50000 0.88808
20930.00000 0.88859
20932.50000 0.88925
20935.00000 0.89013
20937.50000 0.89062
20940.00000 0.8914
20942.50000 0.89214
20945.00000 0.89303
20947.50000 0.89371
20950.00000 0.89495
20952.50000 0.89536
20955.00000 0.89663
20957.50000 0.89743
20960.00000 0.89798
20962.50000 0.89966
20965.00000 0.8999
20967.50000 0.90136
20970.00000 0.90174
20972.50000 0.90247
20975.00000 0.90403
20977.50000 0.9047
20980.00000 0.90564
20982.50000 0.90656
20985.00000 0.90748
20987.50000 0.90853
20990.00000 0.90964
20992.50000 0.91027
20995.00000 0.91141
20997.50000 0.91223
21000.00000 0.91253
21002.50000 0.91399
21005.00000 0.91418
21007.50000 0.91497
21010.00000 0.91578
21012.50000 0.91598
21015.00000 0.91671
21017.50000 0.91732
21020.00000 0.91748
21022.50000 0.91799
21025.00000 0.91812
21027.50000 0.91795
21030.00000 0.91819
21032.50000 0.91787
21035.00000 0.91794
21037.50000 0.91769
21040.00000 0.91681
21042.50000 0.91692
21045.00000 0.91581
21047.50000 0.91511
21050.00000 0.91427
21052.50000 0.91303
21055.00000 0.91216
21057.50000 0.91064
21060.00000 0.90825
21062.50000 0.90695
21065.00000 0.90474
21067.50000 0.90243
21070.00000 0.90056
21072.50000 0.89751
21075.00000 0.89527
21077.50000 0.89233
21080.00000 0.88846
21082.50000 0.88572
21085.00000 0.88179
21087.50000 0.87733
21090.00000 0.87338
21092.50000 0.86951
21095.00000 0.86451
21097.50000 0.85972
21100.00000 0.85486
21102.50000 0.8494
21105.00000 0.84389
21107.50000 0.83766
21110.00000 0.83217
21112.50000 0.82535
21115.00000 0.81889
21117.50000 0.81249
21120.00000 0.80499
21122.50000 0.79788
21125.00000 0.79034
21127.50000 0.78256
21130.00000 0.77515
21132.50000 0.76646
21135.00000 0.75862
21137.50000 0.75016
21140.00000 0.74104
21142.50000 0.73173
21145.00000 0.72318
21147.50000 0.71387
21150.00000 0.70431
21152.50000 0.69532
21155.00000 0.68567
21157.50000 0.67547
21160.00000 0.66547
21162.50000 0.65523
21165.00000 0.64578
21167.50000 0.63495
21170.00000 0.62538
21172.50000 0.61525
21175.00000 0.60435
21177.50000 0.59446
21180.00000 0.58382
21182.50000 0.57372
21185.00000 0.56371
21187.50000 0.5536
21190.00000 0.54244
21192.50000 0.53235
21195.00000 0.52267
21197.50000 0.5125
21200.00000 0.50187
21202.50000 0.49161
21205.00000 0.48191
21207.50000 0.47108
21210.00000 0.46123
21212.50000 0.45227
21215.00000 0.44271
21217.50000 0.43259
21220.00000 0.42333
21222.50000 0.41427
21225.00000 0.40442
21227.50000 0.3953
21230.00000 0.38681
21232.50000 0.37877
21235.00000 0.36922
21237.50000 0.36056
21240.00000 0.35263
21242.50000 0.34388
21245.00000 0.33593
21247.50000 0.3281
21250.00000 0.32078
21252.50000 0.31286
21255.00000 0.30485
21257.50000 0.29811
21260.00000 0.29033
21262.50000 0.28335
21265.00000 0.27672
21267.50000 0.26986
21270.00000 0.26293
21272.50000 0.2564
21275.00000 0.25049
21277.50000 0.24367
21280.00000 0.23822
21282.50000 0.23232
21285.00000 0.22636
21287.50000 0.22056
21290.00000 0.21474
21292.50000 0.21014
21295.00000 0.20421
21297.50000 0.19933
21300.00000 0.19454
21302.50000 0.18937
21305.00000 0.18446
21307.50000 0.17981
21310.00000 0.1757
21312.50000 0.17103
21315.00000 0.16685
21317.50000 0.16284
21320.00000 0.15851
21322.50000 0.15461
21325.00000 0.15066
21327.50000 0.14706
21330.00000 0.14305
21332.50000 0.13974
21335.00000 0.13631
21337.50000 0.13255
21340.00000 0.12955
21342.50000 0.12613
21345.00000 0.12304
21347.50000 0.11983
21350.00000 0.11684
21352.50000 0.11416
21355.00000 0.11087
21357.50000 0.10827
21360.00000 0.10558
21362.50000 0.103
21365.00000 0.1002
21367.50000 0.09769
21370.00000 0.09543
21372.50000 0.09284
21375.00000 0.09071
21377.50000 0.08845
21380.00000 0.08619
21382.50000 0.08401
21385.00000 0.08181
21387.50000 0.07998
21390.00000 0.07801
21392.50000 0.07619
21395.00000 0.07429
21397.50000 0.07225
21400.00000 0.07051
21402.50000 0.06879
21405.00000 0.06719
21407.50000 0.0655
21410.00000 0.06398
21412.50000 0.06246
21415.00000 0.06074
21417.50000 0.05926
21420.00000 0.05796
21422.50000 0.05661
21425.00000 0.05518
21427.50000 0.05377
21430.00000 0.05253
21432.50000 0.05122
21435.00000 0.04998
21437.50000 0.04881
21440.00000 0.04764
21442.50000 0.04654
21445.00000 0.04529
21447.50000 0.04426
21450.00000 0.04312
21452.50000 0.04216
21455.00000 0.04124
21457.50000 0.04014
21460.00000 0.03922
21462.50000 0.03814
21465.00000 0.03732
21467.50000 0.03648
21470.00000 0.03552
21472.50000 0.03479
21475.00000 0.03387
21477.50000 0.03305
21480.00000 0.03222
21482.50000 0.03147
21485.00000 0.03069
21487.50000 0.02996
21490.00000 0.02927
21492.50000 0.02859
21495.00000 0.02789
21497.50000 0.02723
21500.00000 0.02651
21502.50000 0.02598
21505.00000 0.02528
21507.50000 0.02471
21510.00000 0.0241
21512.50000 0.02353
21515.00000 0.02296
21517.50000 0.02252
21520.00000 0.02189
21522.50000 0.02137
21525.00000 0.02089
21527.50000 0.02042
21530.00000 0.01989
21532.50000 0.01953
21535.00000 0.01909
21537.50000 0.01846
21540.00000 0.01812
21542.50000 0.01777
21545.00000 0.01734
21547.50000 0.01691
21550.00000 0.01652
21552.50000 0.01612
21555.00000 0.01566
21557.50000 0.01539
21560.00000 0.015
21562.50000 0.01465
21565.00000 0.01437
21567.50000 0.01406
21570.00000 0.01368
21572.50000 0.01337
21575.00000 0.01303
21577.50000 0.01281
21580.00000 0.01249
21582.50000 0.01208
21585.00000 0.01196
21587.50000 0.01159
21590.00000 0.01138
21592.50000 0.01116
21595.00000 0.01081
21597.50000 0.01067
21600.00000 0.01043
21602.50000 0.01022
21605.00000 0.00992
21607.50000 0.0097
21610.00000 0.00952
21612.50000 0.0093
21615.00000 0.00899
21617.50000 0.0089
21620.00000 0.00862
21622.50000 0.00842
21625.00000 0.00827
21627.50000 0.00807
21630.00000 0.00794
21632.50000 0.00773
21635.00000 0.00754
21637.50000 0.0074
21640.00000 0.00724
21642.50000 0.00706
21645.00000 0.00696
21647.50000 0.00678
21650.00000 0.00662
21652.50000 0.00654
21655.00000 0.00634
21657.50000 0.00619
21660.00000 0.00613
21662.50000 0.0059
21665.00000 0.00586
21667.50000 0.00571
21670.00000 0.00551
21672.50000 0.00542
21675.00000 0.00537
21677.50000 0.00522
21680.00000 0.00502
21682.50000 0.00496
21685.00000 0.005
21687.50000 0.00485
21690.00000 0.00464
21692.50000 0.00458
21695.00000 0.00456
21697.50000 0.00441
21700.00000 0.00429
21702.50000 0.00423
21705.00000 0.00417
21707.50000 0.00408
21710.00000 0.00401
23881.00000 0.0
