# %ECSV 0.9
# ---
# datatype:
# - {name: wavelength, unit: Angstrom, datatype: float32}
# - {name: response, datatype: float32}
# meta: !!omap
# - {band_name: HKnotch_G0236w}
# - {group_name: NIRI}
wavelength response
12771.00000 0.0
14190.00000 0.00486
14200.00000 0.00712
14210.00000 0.00868
14220.00000 0.00872
14230.00000 0.00961
14240.00000 0.01837
14250.00000 0.02835
14260.00000 0.03012
14270.00000 0.03242
14280.00000 0.0391
14290.00000 0.03947
14300.00000 0.04652
14310.00000 0.05821
14320.00000 0.05903
14330.00000 0.06345
14340.00000 0.06941
14350.00000 0.07241
14360.00000 0.07393
14370.00000 0.07471
14380.00000 0.07531
14390.00000 0.07622
14400.00000 0.07764
14410.00000 0.07982
14420.00000 0.08343
14430.00000 0.09118
14440.00000 0.10135
14450.00000 0.10413
14460.00000 0.12541
14470.00000 0.13344
14480.00000 0.14576
14490.00000 0.16174
14500.00000 0.17711
14510.00000 0.20022
14520.00000 0.20011
14530.00000 0.2179
14540.00000 0.23035
14550.00000 0.24925
14560.00000 0.2507
14570.00000 0.26785
14580.00000 0.28486
14590.00000 0.29722
14600.00000 0.31412
14610.00000 0.33285
14620.00000 0.34151
14630.00000 0.36091
14640.00000 0.3685
14650.00000 0.3871
14660.00000 0.39692
14670.00000 0.40448
14680.00000 0.40806
14690.00000 0.41099
14700.00000 0.41252
14710.00000 0.41163
14720.00000 0.40962
14730.00000 0.40772
14740.00000 0.40633
14750.00000 0.40534
14760.00000 0.40464
14770.00000 0.4042
14780.00000 0.40403
14790.00000 0.40465
14800.00000 0.40742
14810.00000 0.4126
14820.00000 0.41465
14830.00000 0.42003
14840.00000 0.42985
14850.00000 0.43443
14860.00000 0.44699
14870.00000 0.44941
14880.00000 0.45396
14890.00000 0.46364
14900.00000 0.46676
14910.00000 0.4731
14920.00000 0.47588
14930.00000 0.47743
14940.00000 0.47826
14950.00000 0.47646
14960.00000 0.47042
14970.00000 0.46658
14980.00000 0.46737
14990.00000 0.45841
15000.00000 0.45282
15010.00000 0.44901
15020.00000 0.44337
15030.00000 0.44094
15040.00000 0.43789
15050.00000 0.43898
15060.00000 0.44234
15070.00000 0.44375
15080.00000 0.44648
15090.00000 0.45327
15100.00000 0.45844
15110.00000 0.46017
15120.00000 0.46308
15130.00000 0.47565
15140.00000 0.48303
15150.00000 0.48947
15160.00000 0.49331
15170.00000 0.49849
15180.00000 0.50605
15190.00000 0.50694
15200.00000 0.50832
15210.00000 0.51032
15220.00000 0.5116
15230.00000 0.51207
15240.00000 0.51198
15250.00000 0.51158
15260.00000 0.51096
15270.00000 0.51011
15280.00000 0.50906
15290.00000 0.5079
15300.00000 0.50679
15310.00000 0.50588
15320.00000 0.50528
15330.00000 0.5049
15340.00000 0.50463
15350.00000 0.50434
15360.00000 0.50397
15370.00000 0.50351
15380.00000 0.50293
15390.00000 0.50228
15400.00000 0.50179
15410.00000 0.5017
15420.00000 0.50226
15430.00000 0.50345
15440.00000 0.50479
15450.00000 0.50589
15460.00000 0.50712
15470.00000 0.50904
15480.00000 0.51188
15490.00000 0.51546
15500.00000 0.5191
15510.00000 0.52231
15520.00000 0.52497
15530.00000 0.52762
15540.00000 0.53108
15550.00000 0.53509
15560.00000 0.53814
15570.00000 0.54073
15580.00000 0.54387
15590.00000 0.54629
15600.00000 0.54718
15610.00000 0.5469
15620.00000 0.54592
15630.00000 0.54454
15640.00000 0.54295
15650.00000 0.54131
15660.00000 0.53971
15670.00000 0.53825
15680.00000 0.53704
15690.00000 0.53626
15700.00000 0.53607
15710.00000 0.53664
15720.00000 0.53803
15730.00000 0.54004
15740.00000 0.54247
15750.00000 0.54606
15760.00000 0.55162
15770.00000 0.55621
15780.00000 0.5589
15790.00000 0.56373
15800.00000 0.56656
15810.00000 0.57475
15820.00000 0.5785
15830.00000 0.579
15840.00000 0.58061
15850.00000 0.58206
15860.00000 0.58248
15870.00000 0.5819
15880.00000 0.58043
15890.00000 0.57838
15900.00000 0.5766
15910.00000 0.57547
15920.00000 0.57354
15930.00000 0.57198
15940.00000 0.57162
15950.00000 0.57191
15960.00000 0.57279
15970.00000 0.57466
15980.00000 0.57716
15990.00000 0.57949
16000.00000 0.58418
16010.00000 0.59093
16020.00000 0.59452
16030.00000 0.59995
16040.00000 0.6032
16050.00000 0.60716
16060.00000 0.6106
16070.00000 0.61347
16080.00000 0.61526
16090.00000 0.61524
16100.00000 0.61386
16110.00000 0.61169
16120.00000 0.60947
16130.00000 0.60708
16140.00000 0.60219
16150.00000 0.59631
16160.00000 0.59435
16170.00000 0.59141
16180.00000 0.58884
16190.00000 0.58605
16200.00000 0.58468
16210.00000 0.58476
16220.00000 0.58601
16230.00000 0.58855
16240.00000 0.59302
16250.00000 0.59702
16260.00000 0.60019
16270.00000 0.60446
16280.00000 0.60963
16290.00000 0.61454
16300.00000 0.62561
16310.00000 0.63001
16320.00000 0.6333
16330.00000 0.63628
16340.00000 0.63855
16350.00000 0.63989
16360.00000 0.63943
16370.00000 0.63747
16380.00000 0.63518
16390.00000 0.63279
16400.00000 0.62927
16410.00000 0.62551
16420.00000 0.62013
16430.00000 0.61189
16440.00000 0.61016
16450.00000 0.60772
16460.00000 0.60127
16470.00000 0.60001
16480.00000 0.59908
16490.00000 0.59734
16500.00000 0.5963
16510.00000 0.59645
16520.00000 0.59802
16530.00000 0.60025
16540.00000 0.60188
16550.00000 0.60302
16560.00000 0.60425
16570.00000 0.60606
16580.00000 0.60804
16590.00000 0.60951
16600.00000 0.61032
16610.00000 0.61053
16620.00000 0.61034
16630.00000 0.60991
16640.00000 0.60929
16650.00000 0.60848
16660.00000 0.60756
16670.00000 0.6067
16680.00000 0.60605
16690.00000 0.60572
16700.00000 0.60569
16710.00000 0.60598
16720.00000 0.60659
16730.00000 0.60749
16740.00000 0.60866
16750.00000 0.61008
16760.00000 0.61189
16770.00000 0.61422
16780.00000 0.61661
16790.00000 0.61887
16800.00000 0.62185
16810.00000 0.62485
16820.00000 0.62667
16830.00000 0.62788
16840.00000 0.62858
16850.00000 0.62872
16860.00000 0.62833
16870.00000 0.62747
16880.00000 0.62616
16890.00000 0.62417
16900.00000 0.62111
16910.00000 0.61702
16920.00000 0.61332
16930.00000 0.61119
16940.00000 0.60765
16950.00000 0.60337
16960.00000 0.60124
16970.00000 0.60048
16980.00000 0.60005
16990.00000 0.59981
17000.00000 0.60005
17010.00000 0.60102
17020.00000 0.60287
17030.00000 0.60577
17040.00000 0.61041
17050.00000 0.61603
17060.00000 0.61897
17070.00000 0.62267
17080.00000 0.62806
17090.00000 0.63443
17100.00000 0.64079
17110.00000 0.65317
17120.00000 0.65863
17130.00000 0.66787
17140.00000 0.67028
17150.00000 0.67564
17160.00000 0.68062
17170.00000 0.68287
17180.00000 0.6873
17190.00000 0.69141
17200.00000 0.6927
17210.00000 0.69318
17220.00000 0.69353
17230.00000 0.69348
17240.00000 0.69277
17250.00000 0.69151
17260.00000 0.68997
17270.00000 0.68824
17280.00000 0.68599
17290.00000 0.68282
17300.00000 0.6781
17310.00000 0.67292
17320.00000 0.66938
17330.00000 0.66727
17340.00000 0.66496
17350.00000 0.66094
17360.00000 0.65825
17370.00000 0.65565
17380.00000 0.6511
17390.00000 0.64775
17400.00000 0.64463
17410.00000 0.64154
17420.00000 0.63892
17430.00000 0.63645
17440.00000 0.63412
17450.00000 0.63193
17460.00000 0.62982
17470.00000 0.62775
17480.00000 0.62602
17490.00000 0.62482
17500.00000 0.62391
17510.00000 0.62296
17520.00000 0.62169
17530.00000 0.61986
17540.00000 0.61737
17550.00000 0.61513
17560.00000 0.61385
17570.00000 0.61157
17580.00000 0.60827
17590.00000 0.60587
17600.00000 0.60358
17610.00000 0.60111
17620.00000 0.59894
17630.00000 0.59721
17640.00000 0.5956
17650.00000 0.59353
17660.00000 0.5911
17670.00000 0.59006
17680.00000 0.5912
17690.00000 0.5947
17700.00000 0.59867
17710.00000 0.60324
17720.00000 0.60879
17730.00000 0.6174
17740.00000 0.62528
17750.00000 0.64542
17760.00000 0.65622
17770.00000 0.66171
17780.00000 0.66484
17790.00000 0.66935
17800.00000 0.66559
17810.00000 0.65151
17820.00000 0.62847
17830.00000 0.60498
17840.00000 0.49243
17850.00000 0.44113
17860.00000 0.3895
17870.00000 0.35946
17880.00000 0.27384
17890.00000 0.24715
17900.00000 0.18243
17910.00000 0.16133
17920.00000 0.14256
17930.00000 0.11651
17940.00000 0.10677
17950.00000 0.07626
17960.00000 0.06341
17970.00000 0.05671
17980.00000 0.04802
17990.00000 0.04481
18000.00000 0.03536
18010.00000 0.03086
18020.00000 0.02583
18030.00000 0.02101
18040.00000 0.01809
18050.00000 0.0163
18060.00000 0.01452
18070.00000 0.01236
18080.00000 0.0103
18090.00000 0.00875
18100.00000 0.00788
18110.00000 0.00739
18120.00000 0.00691
18130.00000 0.00627
18140.00000 0.00535
18150.00000 0.00428
19965.00000 0.0
