# %ECSV 0.9
# ---
# datatype:
# - {name: wavelength, unit: Angstrom, datatype: float32}
# - {name: response, datatype: float32}
# meta: !!omap
# - {band_name: CH4ice2275_G0243w}
# - {group_name: NIRI}
wavelength response
19332.00000 0.0
21480.00000 0.0041
21482.50000 0.00364
21485.00000 0.00305
21487.50000 0.00272
21490.00000 0.0024
21492.50000 0.00362
21495.00000 0.00388
21497.50000 0.00498
21500.00000 0.00352
21502.50000 0.00364
21505.00000 0.00421
21507.50000 0.0037
21510.00000 0.0043
21512.50000 0.00439
21515.00000 0.00483
21517.50000 0.00317
21520.00000 0.00364
21522.50000 0.00441
21525.00000 0.00417
21527.50000 0.00519
21530.00000 0.00456
21532.50000 0.00498
21535.00000 0.00472
21537.50000 0.00538
21540.00000 0.00519
21542.50000 0.00629
21545.00000 0.00591
21547.50000 0.00513
21550.00000 0.00623
21552.50000 0.00494
21555.00000 0.00536
21557.50000 0.00673
21560.00000 0.00502
21562.50000 0.00541
21565.00000 0.00583
21567.50000 0.00564
21570.00000 0.00563
21572.50000 0.0063
21575.00000 0.00637
21577.50000 0.00513
21580.00000 0.00738
21582.50000 0.007
21585.00000 0.00787
21587.50000 0.00711
21590.00000 0.00786
21592.50000 0.00901
21595.00000 0.00826
21597.50000 0.00819
21600.00000 0.00877
21602.50000 0.00784
21605.00000 0.00842
21607.50000 0.00863
21610.00000 0.00945
21612.50000 0.00908
21615.00000 0.00907
21617.50000 0.00958
21620.00000 0.00999
21622.50000 0.01033
21625.00000 0.01057
21627.50000 0.01129
21630.00000 0.01199
21632.50000 0.01033
21635.00000 0.01042
21637.50000 0.01218
21640.00000 0.0122
21642.50000 0.01166
21645.00000 0.01196
21647.50000 0.01224
21650.00000 0.01286
21652.50000 0.01337
21655.00000 0.01384
21657.50000 0.01365
21660.00000 0.01349
21662.50000 0.01403
21665.00000 0.01606
21667.50000 0.0144
21670.00000 0.01591
21672.50000 0.01565
21675.00000 0.01637
21677.50000 0.01763
21680.00000 0.01681
21682.50000 0.01773
21685.00000 0.01865
21687.50000 0.01907
21690.00000 0.01898
21692.50000 0.02064
21695.00000 0.01966
21697.50000 0.02186
21700.00000 0.02084
21702.50000 0.02202
21705.00000 0.02227
21707.50000 0.02235
21710.00000 0.0238
21712.50000 0.02349
21715.00000 0.02542
21717.50000 0.02563
21720.00000 0.02566
21722.50000 0.02646
21725.00000 0.02868
21727.50000 0.02846
21730.00000 0.02846
21732.50000 0.03012
21735.00000 0.03154
21737.50000 0.03194
21740.00000 0.03288
21742.50000 0.03348
21745.00000 0.03476
21747.50000 0.03506
21750.00000 0.03525
21752.50000 0.038
21755.00000 0.03894
21757.50000 0.03926
21760.00000 0.0414
21762.50000 0.04214
21765.00000 0.04274
21767.50000 0.04422
21770.00000 0.04598
21772.50000 0.0468
21775.00000 0.04926
21777.50000 0.04964
21780.00000 0.05166
21782.50000 0.05218
21785.00000 0.05437
21787.50000 0.05693
21790.00000 0.05776
21792.50000 0.05891
21795.00000 0.06129
21797.50000 0.06185
21800.00000 0.06505
21802.50000 0.06681
21805.00000 0.06798
21807.50000 0.07074
21810.00000 0.07294
21812.50000 0.07426
21815.00000 0.07716
21817.50000 0.07978
21820.00000 0.0823
21822.50000 0.08323
21825.00000 0.08624
21827.50000 0.08933
21830.00000 0.09188
21832.50000 0.09469
21835.00000 0.09646
21837.50000 0.10007
21840.00000 0.10332
21842.50000 0.10662
21845.00000 0.10957
21847.50000 0.11276
21850.00000 0.11563
21852.50000 0.11932
21855.00000 0.12243
21857.50000 0.12609
21860.00000 0.1314
21862.50000 0.1338
21865.00000 0.13659
21867.50000 0.1417
21870.00000 0.14676
21872.50000 0.15106
21875.00000 0.15645
21877.50000 0.16031
21880.00000 0.16434
21882.50000 0.16845
21885.00000 0.17386
21887.50000 0.17693
21890.00000 0.1826
21892.50000 0.18948
21895.00000 0.19438
21897.50000 0.20065
21900.00000 0.20374
21902.50000 0.21034
21905.00000 0.21632
21907.50000 0.22164
21910.00000 0.22643
21912.50000 0.23375
21915.00000 0.24029
21917.50000 0.24524
21920.00000 0.25227
21922.50000 0.25796
21925.00000 0.26498
21927.50000 0.27015
21930.00000 0.27805
21932.50000 0.2834
21935.00000 0.29111
21937.50000 0.29903
21940.00000 0.3044
21942.50000 0.31177
21945.00000 0.31982
21947.50000 0.32707
21950.00000 0.33565
21952.50000 0.34082
21955.00000 0.3486
21957.50000 0.35743
21960.00000 0.36376
21962.50000 0.37264
21965.00000 0.38042
21967.50000 0.38776
21970.00000 0.39605
21972.50000 0.40279
21975.00000 0.41111
21977.50000 0.41827
21980.00000 0.42617
21982.50000 0.43428
21985.00000 0.44285
21987.50000 0.45089
21990.00000 0.45769
21992.50000 0.46748
21995.00000 0.47431
21997.50000 0.48222
22000.00000 0.48949
22002.50000 0.49788
22005.00000 0.50617
22007.50000 0.51317
22010.00000 0.5217
22012.50000 0.52793
22015.00000 0.53723
22017.50000 0.54541
22020.00000 0.55211
22022.50000 0.55959
22025.00000 0.56675
22027.50000 0.57503
22030.00000 0.58293
22032.50000 0.59059
22035.00000 0.59757
22037.50000 0.60492
22040.00000 0.61011
22042.50000 0.61692
22045.00000 0.62623
22047.50000 0.63198
22050.00000 0.63875
22052.50000 0.64575
22055.00000 0.65167
22057.50000 0.65725
22060.00000 0.66518
22062.50000 0.67109
22065.00000 0.67645
22067.50000 0.68318
22070.00000 0.68855
22072.50000 0.69427
22075.00000 0.69971
22077.50000 0.70479
22080.00000 0.71076
22082.50000 0.7156
22085.00000 0.72204
22087.50000 0.72753
22090.00000 0.73152
22092.50000 0.73692
22095.00000 0.74127
22097.50000 0.74509
22100.00000 0.7509
22102.50000 0.75421
22105.00000 0.7595
22107.50000 0.76321
22110.00000 0.76876
22112.50000 0.77074
22115.00000 0.77607
22117.50000 0.77965
22120.00000 0.78222
22122.50000 0.78714
22125.00000 0.79112
22127.50000 0.7939
22130.00000 0.79736
22132.50000 0.80079
22135.00000 0.80333
22137.50000 0.80435
22140.00000 0.81079
22142.50000 0.81254
22145.00000 0.81425
22147.50000 0.81624
22150.00000 0.8192
22152.50000 0.82212
22155.00000 0.82409
22157.50000 0.82778
22160.00000 0.82832
22162.50000 0.83067
22165.00000 0.83394
22167.50000 0.83424
22170.00000 0.83609
22172.50000 0.836
22175.00000 0.83995
22177.50000 0.84049
22180.00000 0.8433
22182.50000 0.84337
22185.00000 0.84505
22187.50000 0.84683
22190.00000 0.8483
22192.50000 0.84939
22195.00000 0.84952
22197.50000 0.85197
22200.00000 0.85109
22202.50000 0.85196
22205.00000 0.85322
22207.50000 0.85443
22210.00000 0.85465
22212.50000 0.85567
22215.00000 0.85686
22217.50000 0.85502
22220.00000 0.85596
22222.50000 0.85676
22225.00000 0.85748
22227.50000 0.8571
22230.00000 0.85753
22232.50000 0.85994
22235.00000 0.8592
22237.50000 0.85823
22240.00000 0.86109
22242.50000 0.85978
22245.00000 0.86028
22247.50000 0.85868
22250.00000 0.85933
22252.50000 0.85741
22255.00000 0.85887
22257.50000 0.85923
22260.00000 0.85791
22262.50000 0.85812
22265.00000 0.85917
22267.50000 0.85959
22270.00000 0.85842
22272.50000 0.85873
22275.00000 0.85777
22277.50000 0.8578
22280.00000 0.859
22282.50000 0.85751
22285.00000 0.85739
22287.50000 0.85738
22290.00000 0.85776
22292.50000 0.85845
22295.00000 0.85661
22297.50000 0.85701
22300.00000 0.85667
22302.50000 0.85659
22305.00000 0.85649
22307.50000 0.85489
22310.00000 0.85561
22312.50000 0.85369
22315.00000 0.85401
22317.50000 0.85673
22320.00000 0.85637
22322.50000 0.8547
22325.00000 0.85553
22327.50000 0.85471
22330.00000 0.85459
22332.50000 0.85422
22335.00000 0.8539
22337.50000 0.85299
22340.00000 0.85355
22342.50000 0.85418
22345.00000 0.85196
22347.50000 0.85319
22350.00000 0.85345
22352.50000 0.85389
22355.00000 0.85279
22357.50000 0.85462
22360.00000 0.85198
22362.50000 0.85295
22365.00000 0.85292
22367.50000 0.85312
22370.00000 0.85344
22372.50000 0.85187
22375.00000 0.85329
22377.50000 0.85262
22380.00000 0.85362
22382.50000 0.8529
22385.00000 0.85245
22387.50000 0.85328
22390.00000 0.85319
22392.50000 0.85246
22395.00000 0.85219
22397.50000 0.85273
22400.00000 0.85227
22402.50000 0.85388
22405.00000 0.85377
22407.50000 0.85394
22410.00000 0.85534
22412.50000 0.85467
22415.00000 0.85527
22417.50000 0.8554
22420.00000 0.85444
22422.50000 0.85511
22425.00000 0.85639
22427.50000 0.85587
22430.00000 0.85593
22432.50000 0.85504
22435.00000 0.85565
22437.50000 0.8569
22440.00000 0.8544
22442.50000 0.85598
22445.00000 0.85539
22447.50000 0.85611
22450.00000 0.85571
22452.50000 0.85672
22455.00000 0.85736
22457.50000 0.85659
22460.00000 0.85691
22462.50000 0.859
22465.00000 0.85881
22467.50000 0.85886
22470.00000 0.86011
22472.50000 0.85947
22475.00000 0.85877
22477.50000 0.85959
22480.00000 0.86043
22482.50000 0.86083
22485.00000 0.86046
22487.50000 0.85936
22490.00000 0.85904
22492.50000 0.86042
22495.00000 0.86308
22497.50000 0.86068
22500.00000 0.8612
22502.50000 0.86176
22505.00000 0.8624
22507.50000 0.862
22510.00000 0.86125
22512.50000 0.86355
22515.00000 0.86214
22517.50000 0.86132
22520.00000 0.86198
22522.50000 0.86319
22525.00000 0.86353
22527.50000 0.86404
22530.00000 0.86476
22532.50000 0.86389
22535.00000 0.86513
22537.50000 0.86428
22540.00000 0.86462
22542.50000 0.86535
22545.00000 0.86545
22547.50000 0.86467
22550.00000 0.86545
22552.50000 0.8651
22555.00000 0.86541
22557.50000 0.86613
22560.00000 0.86582
22562.50000 0.86659
22565.00000 0.86522
22567.50000 0.86669
22570.00000 0.86729
22572.50000 0.86573
22575.00000 0.86697
22577.50000 0.86674
22580.00000 0.86701
22582.50000 0.86662
22585.00000 0.86719
22587.50000 0.86628
22590.00000 0.86646
22592.50000 0.86656
22595.00000 0.86767
22597.50000 0.86839
22600.00000 0.86726
22602.50000 0.86655
22605.00000 0.86762
22607.50000 0.86538
22610.00000 0.86722
22612.50000 0.86778
22615.00000 0.86708
22617.50000 0.8675
22620.00000 0.86761
22622.50000 0.86762
22625.00000 0.86758
22627.50000 0.86749
22630.00000 0.86693
22632.50000 0.86914
22635.00000 0.86706
22637.50000 0.86787
22640.00000 0.86628
22642.50000 0.86821
22645.00000 0.86824
22647.50000 0.86798
22650.00000 0.86779
22652.50000 0.86797
22655.00000 0.86872
22657.50000 0.86806
22660.00000 0.86853
22662.50000 0.86748
22665.00000 0.86692
22667.50000 0.86811
22670.00000 0.86695
22672.50000 0.86823
22675.00000 0.86883
22677.50000 0.86786
22680.00000 0.86741
22682.50000 0.86895
22685.00000 0.86873
22687.50000 0.86769
22690.00000 0.8691
22692.50000 0.86729
22695.00000 0.86715
22697.50000 0.86873
22700.00000 0.86796
22702.50000 0.86768
22705.00000 0.86822
22707.50000 0.86762
22710.00000 0.86565
22712.50000 0.86753
22715.00000 0.86757
22717.50000 0.86885
22720.00000 0.86737
22722.50000 0.86921
22725.00000 0.86875
22727.50000 0.8695
22730.00000 0.86834
22732.50000 0.86827
22735.00000 0.8688
22737.50000 0.86662
22740.00000 0.866
22742.50000 0.86767
22745.00000 0.86773
22747.50000 0.8677
22750.00000 0.86708
22752.50000 0.8678
22755.00000 0.86599
22757.50000 0.86807
22760.00000 0.86579
22762.50000 0.86799
22765.00000 0.86698
22767.50000 0.86768
22770.00000 0.86858
22772.50000 0.86645
22775.00000 0.86687
22777.50000 0.86723
22780.00000 0.8674
22782.50000 0.86737
22785.00000 0.86684
22787.50000 0.86631
22790.00000 0.86792
22792.50000 0.86667
22795.00000 0.8659
22797.50000 0.86651
22800.00000 0.86442
22802.50000 0.86666
22805.00000 0.86689
22807.50000 0.86668
22810.00000 0.86545
22812.50000 0.86584
22815.00000 0.86735
22817.50000 0.86576
22820.00000 0.86527
22822.50000 0.86474
22825.00000 0.86563
22827.50000 0.86441
22830.00000 0.8652
22832.50000 0.86549
22835.00000 0.86541
22837.50000 0.8648
22840.00000 0.86421
22842.50000 0.86572
22845.00000 0.8648
22847.50000 0.86473
22850.00000 0.86357
22852.50000 0.86313
22855.00000 0.86486
22857.50000 0.86279
22860.00000 0.86472
22862.50000 0.86393
22865.00000 0.86451
22867.50000 0.86473
22870.00000 0.86476
22872.50000 0.86307
22875.00000 0.86367
22877.50000 0.8636
22880.00000 0.86086
22882.50000 0.86141
22885.00000 0.86279
22887.50000 0.86171
22890.00000 0.86137
22892.50000 0.86304
22895.00000 0.86167
22897.50000 0.86053
22900.00000 0.86182
22902.50000 0.86084
22905.00000 0.8599
22907.50000 0.86061
22910.00000 0.85905
22912.50000 0.86016
22915.00000 0.85998
22917.50000 0.85983
22920.00000 0.85919
22922.50000 0.86016
22925.00000 0.8604
22927.50000 0.85752
22930.00000 0.85897
22932.50000 0.8585
22935.00000 0.85654
22937.50000 0.85825
22940.00000 0.85832
22942.50000 0.85809
22945.00000 0.85745
22947.50000 0.8572
22950.00000 0.85566
22952.50000 0.85857
22955.00000 0.85505
22957.50000 0.85634
22960.00000 0.85637
22962.50000 0.8556
22965.00000 0.85583
22967.50000 0.85646
22970.00000 0.85647
22972.50000 0.85516
22975.00000 0.85543
22977.50000 0.85735
22980.00000 0.85372
22982.50000 0.85273
22985.00000 0.85374
22987.50000 0.85461
22990.00000 0.85447
22992.50000 0.85367
22995.00000 0.85342
22997.50000 0.85427
23000.00000 0.85178
23002.50000 0.85256
23005.00000 0.85221
23007.50000 0.85214
23010.00000 0.85403
23012.50000 0.85219
23015.00000 0.85087
23017.50000 0.85211
23020.00000 0.85303
23022.50000 0.85183
23025.00000 0.85157
23027.50000 0.85224
23030.00000 0.85093
23032.50000 0.85011
23035.00000 0.85088
23037.50000 0.8504
23040.00000 0.85067
23042.50000 0.85026
23045.00000 0.85056
23047.50000 0.84929
23050.00000 0.84988
23052.50000 0.85048
23055.00000 0.85029
23057.50000 0.84988
23060.00000 0.8495
23062.50000 0.85066
23065.00000 0.8502
23067.50000 0.84868
23070.00000 0.84987
23072.50000 0.84904
23075.00000 0.84982
23077.50000 0.84955
23080.00000 0.84866
23082.50000 0.84908
23085.00000 0.84973
23087.50000 0.8509
23090.00000 0.84981
23092.50000 0.84873
23095.00000 0.84881
23097.50000 0.8495
23100.00000 0.84968
23102.50000 0.84863
23105.00000 0.84975
23107.50000 0.85075
23110.00000 0.85021
23112.50000 0.85017
23115.00000 0.8501
23117.50000 0.84908
23120.00000 0.84788
23122.50000 0.85017
23125.00000 0.85134
23127.50000 0.85001
23130.00000 0.85076
23132.50000 0.85093
23135.00000 0.84946
23137.50000 0.85064
23140.00000 0.85104
23142.50000 0.85131
23145.00000 0.85068
23147.50000 0.84999
23150.00000 0.85064
23152.50000 0.85176
23155.00000 0.85117
23157.50000 0.84955
23160.00000 0.85079
23162.50000 0.85055
23165.00000 0.85039
23167.50000 0.85114
23170.00000 0.85066
23172.50000 0.84987
23175.00000 0.84903
23177.50000 0.85121
23180.00000 0.85082
23182.50000 0.84994
23185.00000 0.85152
23187.50000 0.85048
23190.00000 0.8499
23192.50000 0.85014
23195.00000 0.84962
23197.50000 0.8496
23200.00000 0.84947
23202.50000 0.85038
23205.00000 0.84938
23207.50000 0.84816
23210.00000 0.85066
23212.50000 0.8483
23215.00000 0.84799
23217.50000 0.8484
23220.00000 0.84816
23222.50000 0.84904
23225.00000 0.84745
23227.50000 0.84721
23230.00000 0.84684
23232.50000 0.84563
23235.00000 0.84428
23237.50000 0.84438
23240.00000 0.84561
23242.50000 0.84386
23245.00000 0.84316
23247.50000 0.84303
23250.00000 0.8405
23252.50000 0.84093
23255.00000 0.83997
23257.50000 0.83885
23260.00000 0.83815
23262.50000 0.83766
23265.00000 0.83669
23267.50000 0.83464
23270.00000 0.83365
23272.50000 0.8343
23275.00000 0.83208
23277.50000 0.83178
23280.00000 0.82947
23282.50000 0.82721
23285.00000 0.82571
23287.50000 0.82443
23290.00000 0.82345
23292.50000 0.82101
23295.00000 0.81812
23297.50000 0.81775
23300.00000 0.81654
23302.50000 0.81448
23305.00000 0.81216
23307.50000 0.81047
23310.00000 0.80803
23312.50000 0.8059
23315.00000 0.80326
23317.50000 0.80104
23320.00000 0.79789
23322.50000 0.79502
23325.00000 0.79286
23327.50000 0.78959
23330.00000 0.78709
23332.50000 0.78482
23335.00000 0.78134
23337.50000 0.77864
23340.00000 0.77482
23342.50000 0.77128
23345.00000 0.76744
23347.50000 0.76499
23350.00000 0.75968
23352.50000 0.75693
23355.00000 0.75318
23357.50000 0.75096
23360.00000 0.74491
23362.50000 0.74049
23365.00000 0.73671
23367.50000 0.73207
23370.00000 0.72767
23372.50000 0.72349
23375.00000 0.71794
23377.50000 0.71384
23380.00000 0.70881
23382.50000 0.70396
23385.00000 0.69905
23387.50000 0.69369
23390.00000 0.6894
23392.50000 0.68316
23395.00000 0.67752
23397.50000 0.67284
23400.00000 0.66785
23402.50000 0.66145
23405.00000 0.65537
23407.50000 0.64967
23410.00000 0.64409
23412.50000 0.63718
23415.00000 0.63128
23417.50000 0.62613
23420.00000 0.62064
23422.50000 0.61403
23425.00000 0.60743
23427.50000 0.60064
23430.00000 0.59374
23432.50000 0.58713
23435.00000 0.5807
23437.50000 0.57453
23440.00000 0.56737
23442.50000 0.56112
23445.00000 0.55467
23447.50000 0.54756
23450.00000 0.54147
23452.50000 0.53456
23455.00000 0.52694
23457.50000 0.52033
23460.00000 0.51479
23462.50000 0.50566
23465.00000 0.49949
23467.50000 0.49318
23470.00000 0.48586
23472.50000 0.47872
23475.00000 0.47112
23477.50000 0.4647
23480.00000 0.4598
23482.50000 0.45119
23485.00000 0.44343
23487.50000 0.43737
23490.00000 0.43046
23492.50000 0.42464
23495.00000 0.41716
23497.50000 0.40999
23500.00000 0.40504
23502.50000 0.39656
23505.00000 0.38993
23507.50000 0.38394
23510.00000 0.37673
23512.50000 0.37117
23515.00000 0.36348
23517.50000 0.35857
23520.00000 0.35048
23522.50000 0.3454
23525.00000 0.33838
23527.50000 0.33232
23530.00000 0.32665
23532.50000 0.32019
23535.00000 0.31406
23537.50000 0.30853
23540.00000 0.30351
23542.50000 0.2968
23545.00000 0.29155
23547.50000 0.28596
23550.00000 0.2803
23552.50000 0.27433
23555.00000 0.27062
23557.50000 0.26357
23560.00000 0.25847
23562.50000 0.25352
23565.00000 0.24767
23567.50000 0.24294
23570.00000 0.23929
23572.50000 0.23444
23575.00000 0.22851
23577.50000 0.2245
23580.00000 0.21788
23582.50000 0.21441
23585.00000 0.21034
23587.50000 0.20444
23590.00000 0.20074
23592.50000 0.19692
23595.00000 0.19366
23597.50000 0.18779
23600.00000 0.18435
23602.50000 0.18063
23605.00000 0.17572
23607.50000 0.17315
23610.00000 0.16875
23612.50000 0.16511
23615.00000 0.16255
23617.50000 0.15772
23620.00000 0.15398
23622.50000 0.15092
23625.00000 0.14772
23627.50000 0.14488
23630.00000 0.14165
23632.50000 0.13893
23635.00000 0.13445
23637.50000 0.13278
23640.00000 0.12901
23642.50000 0.12734
23645.00000 0.12241
23647.50000 0.12071
23650.00000 0.11856
23652.50000 0.11649
23655.00000 0.11335
23657.50000 0.10946
23660.00000 0.10845
23662.50000 0.106
23665.00000 0.10396
23667.50000 0.10146
23670.00000 0.09865
23672.50000 0.09712
23675.00000 0.09397
23677.50000 0.09193
23680.00000 0.09161
23682.50000 0.08811
23685.00000 0.08738
23687.50000 0.08474
23690.00000 0.08324
23692.50000 0.08008
23695.00000 0.07898
23697.50000 0.07713
23700.00000 0.07582
23702.50000 0.073
23705.00000 0.07363
23707.50000 0.07005
23710.00000 0.06944
23712.50000 0.06804
23715.00000 0.06556
23717.50000 0.0641
23720.00000 0.06303
23722.50000 0.06063
23725.00000 0.05912
23727.50000 0.05814
23730.00000 0.05722
23732.50000 0.0566
23735.00000 0.054
23737.50000 0.05378
23740.00000 0.0523
23742.50000 0.05176
23745.00000 0.05061
23747.50000 0.04874
23750.00000 0.04843
23752.50000 0.04767
23755.00000 0.04594
23757.50000 0.04451
23760.00000 0.04334
23762.50000 0.04383
23765.00000 0.042
23767.50000 0.04187
23770.00000 0.04022
23772.50000 0.03874
23775.00000 0.03895
23777.50000 0.03743
23780.00000 0.03707
23782.50000 0.03608
23785.00000 0.03438
23787.50000 0.03485
23790.00000 0.03402
23792.50000 0.03204
23795.00000 0.03215
23797.50000 0.03226
23800.00000 0.03138
23802.50000 0.02987
23805.00000 0.02911
23807.50000 0.02805
23810.00000 0.02793
23812.50000 0.02715
23815.00000 0.02729
23817.50000 0.02614
23820.00000 0.02485
23822.50000 0.02605
23825.00000 0.02468
23827.50000 0.02415
23830.00000 0.02412
23832.50000 0.02327
23835.00000 0.02314
23837.50000 0.02247
23840.00000 0.02276
23842.50000 0.0222
23845.00000 0.02147
23847.50000 0.02028
23850.00000 0.0192
23852.50000 0.0204
23855.00000 0.0198
23857.50000 0.01871
23860.00000 0.01853
23862.50000 0.01755
23865.00000 0.01808
23867.50000 0.01816
23870.00000 0.01602
23872.50000 0.01719
23875.00000 0.01505
23877.50000 0.0161
23880.00000 0.01507
23882.50000 0.01617
23885.00000 0.01433
23887.50000 0.01529
23890.00000 0.01378
23892.50000 0.01376
23895.00000 0.01371
23897.50000 0.01307
23900.00000 0.01421
23902.50000 0.01316
23905.00000 0.01269
23907.50000 0.01116
23910.00000 0.01237
23912.50000 0.01185
23915.00000 0.01237
23917.50000 0.01119
23920.00000 0.01173
23922.50000 0.01092
23925.00000 0.01095
23927.50000 0.01031
23930.00000 0.01033
23932.50000 0.01105
23935.00000 0.00999
23937.50000 0.01005
23940.00000 0.00954
23942.50000 0.0086
23945.00000 0.00904
23947.50000 0.00806
23950.00000 0.00897
23952.50000 0.00834
23955.00000 0.00786
23957.50000 0.00849
23960.00000 0.00842
23962.50000 0.00764
23965.00000 0.00727
23967.50000 0.00808
23970.00000 0.00646
23972.50000 0.00745
23975.00000 0.00673
23977.50000 0.00639
23980.00000 0.00645
23982.50000 0.00684
23985.00000 0.00718
23987.50000 0.00622
23990.00000 0.00691
23992.50000 0.00703
23995.00000 0.00526
23997.50000 0.0061
24000.00000 0.00702
24002.50000 0.00533
24005.00000 0.00609
24007.50000 0.00439
24010.00000 0.00456
24012.50000 0.00612
26413.75000 0.0
