# %ECSV 0.9
# ---
# datatype:
# - {name: wavelength, unit: Angstrom, datatype: float32}
# - {name: response, datatype: float32}
# meta: !!omap
# - {band_name: WIRC_Y}
# - {group_name: CSP}
wavelength response
9372.00000 0.0
9376.00000 4.6e-05
9380.00000 0.000344
9384.00000 0.000636
9388.00000 0.000924
9392.00000 0.001385
9396.00000 0.00198
9400.00000 0.002591
9404.00000 0.002431
9408.00000 0.002258
9412.00000 0.002196
9416.00000 0.002035
9420.00000 0.002005
9424.00000 0.00198
9428.00000 0.001872
9432.00000 0.001554
9436.00000 0.001437
9440.00000 0.001627
9444.00000 0.00136
9448.00000 0.001105
9452.00000 0.001444
9456.00000 0.001879
9460.00000 0.001916
9464.00000 0.001876
9468.00000 0.002129
9472.00000 0.002574
9476.00000 0.002855
9480.00000 0.003104
9484.00000 0.003115
9488.00000 0.00314
9492.00000 0.003883
9496.00000 0.0043
9500.00000 0.003794
9504.00000 0.003673
9508.00000 0.004304
9512.00000 0.005903
9516.00000 0.007139
9520.00000 0.007186
9524.00000 0.006645
9528.00000 0.006908
9532.00000 0.008006
9536.00000 0.009254
9540.00000 0.010214
9544.00000 0.010506
9548.00000 0.010313
9552.00000 0.011235
9556.00000 0.013873
9560.00000 0.0149
9564.00000 0.016736
9568.00000 0.019117
9572.00000 0.019495
9576.00000 0.022582
9580.00000 0.027331
9584.00000 0.028593
9588.00000 0.028609
9592.00000 0.030083
9596.00000 0.028733
9600.00000 0.031447
9604.00000 0.040014
9608.00000 0.047154
9612.00000 0.052276
9616.00000 0.060217
9620.00000 0.066943
9624.00000 0.069403
9628.00000 0.071515
9632.00000 0.079234
9636.00000 0.091775
9640.00000 0.096432
9644.00000 0.094019
9648.00000 0.09944
9652.00000 0.107059
9656.00000 0.122953
9660.00000 0.135849
9664.00000 0.140661
9668.00000 0.141434
9672.00000 0.150625
9676.00000 0.165536
9680.00000 0.183259
9684.00000 0.192757
9688.00000 0.197125
9692.00000 0.211764
9696.00000 0.223804
9700.00000 0.232039
9704.00000 0.237821
9708.00000 0.243745
9712.00000 0.259296
9716.00000 0.270908
9720.00000 0.276472
9724.00000 0.285757
9728.00000 0.294449
9732.00000 0.300904
9736.00000 0.311336
9740.00000 0.310943
9744.00000 0.313368
9748.00000 0.328515
9752.00000 0.339441
9756.00000 0.347488
9760.00000 0.351695
9764.00000 0.355426
9768.00000 0.36507
9772.00000 0.382652
9776.00000 0.403557
9780.00000 0.409302
9784.00000 0.408806
9788.00000 0.412195
9792.00000 0.425478
9796.00000 0.429848
9800.00000 0.432651
9804.00000 0.443283
9808.00000 0.44744
9812.00000 0.463463
9816.00000 0.477445
9820.00000 0.480937
9824.00000 0.484048
9828.00000 0.484708
9832.00000 0.484938
9836.00000 0.494922
9840.00000 0.505629
9844.00000 0.514491
9848.00000 0.517876
9852.00000 0.518036
9856.00000 0.519929
9860.00000 0.526743
9864.00000 0.531776
9868.00000 0.534509
9872.00000 0.53532
9876.00000 0.535464
9880.00000 0.537186
9884.00000 0.541067
9888.00000 0.544656
9892.00000 0.54687
9896.00000 0.548308
9900.00000 0.548707
9904.00000 0.549064
9908.00000 0.551567
9912.00000 0.554453
9916.00000 0.556233
9920.00000 0.558015
9924.00000 0.559568
9928.00000 0.560586
9932.00000 0.560912
9936.00000 0.562646
9940.00000 0.565437
9944.00000 0.567386
9948.00000 0.569003
9952.00000 0.572473
9956.00000 0.577547
9960.00000 0.582509
9964.00000 0.587754
9968.00000 0.593255
9972.00000 0.598412
9976.00000 0.603581
9980.00000 0.608688
9984.00000 0.613701
9988.00000 0.619148
9992.00000 0.624448
9996.00000 0.629488
10000.00000 0.63438
10004.00000 0.641212
10008.00000 0.648259
10012.00000 0.655185
10016.00000 0.661248
10020.00000 0.666467
10024.00000 0.671747
10028.00000 0.679142
10032.00000 0.687393
10036.00000 0.695127
10040.00000 0.701521
10044.00000 0.707322
10048.00000 0.714326
10052.00000 0.72088
10056.00000 0.725822
10060.00000 0.730509
10064.00000 0.736023
10068.00000 0.741426
10072.00000 0.746507
10076.00000 0.751539
10080.00000 0.756208
10084.00000 0.760523
10088.00000 0.766027
10092.00000 0.77085
10096.00000 0.77443
10100.00000 0.779156
10104.00000 0.782029
10108.00000 0.784618
10112.00000 0.786674
10116.00000 0.788375
10120.00000 0.789581
10124.00000 0.790283
10128.00000 0.7922
10132.00000 0.794565
10136.00000 0.796177
10140.00000 0.797913
10144.00000 0.799348
10148.00000 0.800425
10152.00000 0.802053
10156.00000 0.803649
10160.00000 0.80494
10164.00000 0.806918
10168.00000 0.808625
10172.00000 0.809811
10176.00000 0.811232
10180.00000 0.812913
10184.00000 0.814764
10188.00000 0.816371
10192.00000 0.817468
10196.00000 0.817696
10200.00000 0.819282
10204.00000 0.821077
10208.00000 0.821857
10212.00000 0.822549
10216.00000 0.823021
10220.00000 0.823127
10224.00000 0.82387
10228.00000 0.824667
10232.00000 0.824769
10236.00000 0.824967
10240.00000 0.824662
10244.00000 0.824937
10248.00000 0.826891
10252.00000 0.827804
10256.00000 0.827591
10260.00000 0.827082
10264.00000 0.826766
10268.00000 0.826586
10272.00000 0.826193
10276.00000 0.825117
10280.00000 0.824481
10284.00000 0.824895
10288.00000 0.824712
10292.00000 0.82434
10296.00000 0.824273
10300.00000 0.824035
10304.00000 0.826016
10308.00000 0.828016
10312.00000 0.829906
10316.00000 0.831567
10320.00000 0.833422
10324.00000 0.835752
10328.00000 0.837905
10332.00000 0.839849
10336.00000 0.841681
10340.00000 0.843649
10344.00000 0.845738
10348.00000 0.847739
10352.00000 0.850368
10356.00000 0.853657
10360.00000 0.856929
10364.00000 0.860184
10368.00000 0.863497
10372.00000 0.866822
10376.00000 0.870118
10380.00000 0.87341
10384.00000 0.876701
10388.00000 0.879992
10392.00000 0.883283
10396.00000 0.886574
10400.00000 0.889864
10404.00000 0.893378
10408.00000 0.896893
10412.00000 0.900406
10416.00000 0.90392
10420.00000 0.907433
10424.00000 0.910947
10428.00000 0.91446
10432.00000 0.917972
10436.00000 0.921485
10440.00000 0.924997
10444.00000 0.928509
10448.00000 0.93202
10452.00000 0.934473
10456.00000 0.935866
10460.00000 0.93726
10464.00000 0.938653
10468.00000 0.940046
10472.00000 0.941439
10476.00000 0.942832
10480.00000 0.944225
10484.00000 0.945618
10488.00000 0.946988
10492.00000 0.948211
10496.00000 0.949261
10500.00000 0.950549
10504.00000 0.949039
10508.00000 0.947644
10512.00000 0.946154
10516.00000 0.944505
10520.00000 0.942748
10524.00000 0.941009
10528.00000 0.939394
10532.00000 0.937816
10536.00000 0.936192
10540.00000 0.93455
10544.00000 0.932921
10548.00000 0.931306
10552.00000 0.929724
10556.00000 0.928163
10560.00000 0.926567
10564.00000 0.924992
10568.00000 0.92344
10572.00000 0.921867
10576.00000 0.920275
10580.00000 0.918695
10584.00000 0.91713
10588.00000 0.915546
10592.00000 0.913922
10596.00000 0.912331
10600.00000 0.910802
10604.00000 0.909529
10608.00000 0.908236
10612.00000 0.906932
10616.00000 0.905617
10620.00000 0.904286
10624.00000 0.902857
10628.00000 0.901251
10632.00000 0.899739
10636.00000 0.898622
10640.00000 0.897497
10644.00000 0.896186
10648.00000 0.894525
10652.00000 0.893275
10656.00000 0.89322
10660.00000 0.89325
10664.00000 0.893108
10668.00000 0.893016
10672.00000 0.892624
10676.00000 0.891857
10680.00000 0.890832
10684.00000 0.890721
10688.00000 0.890835
10692.00000 0.890521
10696.00000 0.890086
10700.00000 0.88968
10704.00000 0.891015
10708.00000 0.892847
10712.00000 0.895174
10716.00000 0.896759
10720.00000 0.897573
10724.00000 0.898079
10728.00000 0.899191
10732.00000 0.901143
10736.00000 0.903632
10740.00000 0.905912
10744.00000 0.906832
10748.00000 0.904698
10752.00000 0.903765
10756.00000 0.908991
10760.00000 0.912773
10764.00000 0.91401
10768.00000 0.914577
10772.00000 0.914982
10776.00000 0.91086
10780.00000 0.909663
10784.00000 0.916762
10788.00000 0.92065
10792.00000 0.923315
10796.00000 0.92489
10800.00000 0.923741
10804.00000 0.920234
10808.00000 0.91945
10812.00000 0.92243
10816.00000 0.921469
10820.00000 0.923087
10824.00000 0.928907
10828.00000 0.932821
10832.00000 0.932965
10836.00000 0.923587
10840.00000 0.915212
10844.00000 0.923911
10848.00000 0.930538
10852.00000 0.934605
10856.00000 0.937752
10860.00000 0.933654
10864.00000 0.916589
10868.00000 0.914185
10872.00000 0.934402
10876.00000 0.944367
10880.00000 0.949561
10884.00000 0.953809
10888.00000 0.956412
10892.00000 0.956776
10896.00000 0.955466
10900.00000 0.959076
10904.00000 0.953638
10908.00000 0.941294
10912.00000 0.954433
10916.00000 0.9718
10920.00000 0.976058
10924.00000 0.969081
10928.00000 0.940085
10932.00000 0.927857
10936.00000 0.955437
10940.00000 0.969576
10944.00000 0.972004
10948.00000 0.964729
10952.00000 0.951605
10956.00000 0.955424
10960.00000 0.950021
10964.00000 0.932955
10968.00000 0.941096
10972.00000 0.954645
10976.00000 0.948909
10980.00000 0.922842
10984.00000 0.90781
10988.00000 0.914447
10992.00000 0.907242
10996.00000 0.892587
11000.00000 0.866489
11004.00000 0.856163
11008.00000 0.855263
11012.00000 0.833812
11016.00000 0.823315
11020.00000 0.807583
11024.00000 0.771707
11028.00000 0.755886
11032.00000 0.742422
11036.00000 0.730573
11040.00000 0.727261
11044.00000 0.699447
11048.00000 0.664232
11052.00000 0.661596
11056.00000 0.650987
11060.00000 0.616336
11064.00000 0.573111
11068.00000 0.5419
11072.00000 0.5408
11076.00000 0.534691
11080.00000 0.50019
11084.00000 0.453836
11088.00000 0.421446
11092.00000 0.407779
11096.00000 0.398691
11100.00000 0.381595
11104.00000 0.361965
11108.00000 0.325522
11112.00000 0.291264
11116.00000 0.268958
11120.00000 0.258676
11124.00000 0.253859
11128.00000 0.231186
11132.00000 0.194221
11136.00000 0.154731
11140.00000 0.139594
11144.00000 0.139216
11148.00000 0.134687
11152.00000 0.111957
11156.00000 0.08949
11160.00000 0.087968
11164.00000 0.079459
11168.00000 0.053841
11172.00000 0.046813
11176.00000 0.05249
11180.00000 0.05715
11184.00000 0.055881
11188.00000 0.044757
11192.00000 0.034215
11196.00000 0.025628
11200.00000 0.024682
11204.00000 0.024391
11208.00000 0.022662
11212.00000 0.024847
11216.00000 0.022591
11220.00000 0.017667
11224.00000 0.012021
11228.00000 0.008505
11232.00000 0.010227
11236.00000 0.012573
11240.00000 0.009549
11244.00000 0.0089
11248.00000 0.009422
11252.00000 0.008334
11256.00000 0.005698
11260.00000 0.003798
11264.00000 0.004837
11268.00000 0.006125
11272.00000 0.007155
11276.00000 0.006478
11280.00000 0.005053
11284.00000 0.005145
11288.00000 0.005679
11292.00000 0.005402
11296.00000 0.004984
11300.00000 0.004264
11304.00000 0.004132
11308.00000 0.005306
11312.00000 0.006337
11316.00000 0.006371
11320.00000 0.006016
11324.00000 0.005563
11328.00000 0.004869
11332.00000 0.004516
11336.00000 0.003628
11340.00000 0.002637
11344.00000 0.002151
11348.00000 0.001401
11352.00000 0.000861
11356.00000 0.00155
11360.00000 0.002472
11364.00000 0.002362
11368.00000 0.002636
11372.00000 0.00307
11376.00000 0.002876
11380.00000 0.00241
11384.00000 0.002209
11388.00000 0.001868
11392.00000 0.001822
11396.00000 0.001875
11400.00000 0.001504
11404.00000 0.00132
11408.00000 0.001377
11412.00000 0.00124
11416.00000 0.001182
11420.00000 0.001228
11424.00000 0.001279
11428.00000 0.001316
11432.00000 0.001372
11436.00000 0.001372
11440.00000 0.001183
11444.00000 0.000914
11448.00000 0.000836
11452.00000 0.000913
11456.00000 0.000914
11460.00000 0.000914
11464.00000 0.000917
11468.00000 0.0008
11472.00000 0.000674
11476.00000 0.000655
11480.00000 0.000765
11484.00000 0.001017
11488.00000 0.001027
11492.00000 0.000876
11496.00000 0.000865
11500.00000 0.000717
11504.00000 0.00067
11508.00000 0.000827
11512.00000 0.000839
11516.00000 0.000801
11520.00000 0.000807
11524.00000 0.00073
11528.00000 0.000637
11532.00000 0.000647
11536.00000 0.000754
11540.00000 0.000686
11544.00000 0.000591
11548.00000 0.00061
11552.00000 0.00067
11556.00000 0.000665
11560.00000 0.000608
11564.00000 0.000606
11568.00000 0.000628
11572.00000 0.000626
11576.00000 0.000591
11580.00000 0.000531
11584.00000 0.000519
11588.00000 0.000531
11592.00000 0.000494
11596.00000 0.000473
12755.59961 0.0
