# %ECSV 0.9
# ---
# datatype:
# - {name: wavelength, unit: Angstrom, datatype: float32}
# - {name: response, datatype: float32}
# meta: !!omap
# - {band_name: Hshort}
# - {group_name: FourStar}
wavelength response
12870.00000 0.0
14300.00000 0.0006
14310.00000 0.0007
14320.00000 0.0001
14330.00000 0.0007
14340.00000 0.0009
14350.00000 0.0003
14360.00000 0.0005
14370.00000 0.001
14380.00000 0.001
14390.00000 0.0009
14400.00000 0.0014
14410.00000 0.0012
14420.00000 0.0015
14430.00000 0.0016
14440.00000 0.002
14450.00000 0.0024
14460.00000 0.0025
14470.00000 0.0032
14480.00000 0.004
14490.00000 0.0049
14500.00000 0.006
14510.00000 0.0071
14520.00000 0.0091
14530.00000 0.0114
14540.00000 0.015
14550.00000 0.0187
14560.00000 0.0232
14570.00000 0.0287
14580.00000 0.0358
14590.00000 0.0437
14600.00000 0.053
14610.00000 0.0625
14620.00000 0.0743
14630.00000 0.0867
14640.00000 0.0994
14650.00000 0.1144
14660.00000 0.1306
14670.00000 0.149
14680.00000 0.1721
14690.00000 0.2012
14700.00000 0.2344
14710.00000 0.275
14720.00000 0.3239
14730.00000 0.3814
14740.00000 0.449
14750.00000 0.5243
14760.00000 0.5999
14770.00000 0.6692
14780.00000 0.7302
14790.00000 0.7778
14800.00000 0.8092
14810.00000 0.8246
14820.00000 0.8281
14830.00000 0.8241
14840.00000 0.8171
14850.00000 0.8091
14860.00000 0.8025
14870.00000 0.7981
14880.00000 0.7965
14890.00000 0.7966
14900.00000 0.8006
14910.00000 0.806
14920.00000 0.8118
14930.00000 0.8176
14940.00000 0.8236
14950.00000 0.8283
14960.00000 0.8312
14970.00000 0.8328
14980.00000 0.8327
14990.00000 0.831
15000.00000 0.8273
15010.00000 0.823
15020.00000 0.8185
15030.00000 0.8136
15040.00000 0.8088
15050.00000 0.8047
15060.00000 0.8005
15070.00000 0.7974
15080.00000 0.7957
15090.00000 0.7952
15100.00000 0.7947
15110.00000 0.7965
15120.00000 0.7988
15130.00000 0.8025
15140.00000 0.806
15150.00000 0.8096
15160.00000 0.8138
15170.00000 0.8183
15180.00000 0.8228
15190.00000 0.8271
15200.00000 0.831
15210.00000 0.8347
15220.00000 0.8382
15230.00000 0.8414
15240.00000 0.8439
15250.00000 0.8458
15260.00000 0.8476
15270.00000 0.8484
15280.00000 0.8486
15290.00000 0.8479
15300.00000 0.8468
15310.00000 0.8456
15320.00000 0.8439
15330.00000 0.8419
15340.00000 0.8401
15350.00000 0.8376
15360.00000 0.836
15370.00000 0.8343
15380.00000 0.8334
15390.00000 0.8321
15400.00000 0.8329
15410.00000 0.8333
15420.00000 0.8347
15430.00000 0.8364
15440.00000 0.8392
15450.00000 0.843
15460.00000 0.8464
15470.00000 0.85
15480.00000 0.8541
15490.00000 0.8581
15500.00000 0.8618
15510.00000 0.8652
15520.00000 0.8681
15530.00000 0.8693
15540.00000 0.8709
15550.00000 0.8714
15560.00000 0.8702
15570.00000 0.8687
15580.00000 0.8672
15590.00000 0.865
15600.00000 0.8616
15610.00000 0.8584
15620.00000 0.8555
15630.00000 0.8517
15640.00000 0.849
15650.00000 0.8469
15660.00000 0.8442
15670.00000 0.8432
15680.00000 0.8421
15690.00000 0.8418
15700.00000 0.8423
15710.00000 0.8438
15720.00000 0.8453
15730.00000 0.8468
15740.00000 0.8492
15750.00000 0.8508
15760.00000 0.8534
15770.00000 0.8551
15780.00000 0.8571
15790.00000 0.8587
15800.00000 0.8595
15810.00000 0.8594
15820.00000 0.8594
15830.00000 0.8586
15840.00000 0.8581
15850.00000 0.8567
15860.00000 0.8557
15870.00000 0.8544
15880.00000 0.8537
15890.00000 0.8529
15900.00000 0.8519
15910.00000 0.8524
15920.00000 0.8528
15930.00000 0.8543
15940.00000 0.856
15950.00000 0.8584
15960.00000 0.861
15970.00000 0.8639
15980.00000 0.8668
15990.00000 0.8697
16000.00000 0.872
16010.00000 0.874
16020.00000 0.8748
16030.00000 0.876
16040.00000 0.8752
16050.00000 0.8728
16060.00000 0.8705
16070.00000 0.8658
16080.00000 0.8613
16090.00000 0.8553
16100.00000 0.85
16110.00000 0.844
16120.00000 0.8377
16130.00000 0.8326
16140.00000 0.8272
16150.00000 0.8237
16160.00000 0.8209
16170.00000 0.819
16180.00000 0.8183
16190.00000 0.8181
16200.00000 0.8182
16210.00000 0.8187
16220.00000 0.8173
16230.00000 0.8125
16240.00000 0.8018
16250.00000 0.7861
16260.00000 0.7603
16270.00000 0.7243
16280.00000 0.678
16290.00000 0.6234
16300.00000 0.5605
16310.00000 0.4936
16320.00000 0.4261
16330.00000 0.359
16340.00000 0.2996
16350.00000 0.2497
16360.00000 0.2061
16370.00000 0.1687
16380.00000 0.1385
16390.00000 0.1129
16400.00000 0.0918
16410.00000 0.0755
16420.00000 0.0627
16430.00000 0.0519
16440.00000 0.0436
16450.00000 0.0366
16460.00000 0.0306
16470.00000 0.0259
16480.00000 0.0214
16490.00000 0.0185
16500.00000 0.0155
16510.00000 0.0136
16520.00000 0.0119
16530.00000 0.0098
16540.00000 0.0082
16550.00000 0.007
16560.00000 0.0064
16570.00000 0.005
16580.00000 0.0049
16590.00000 0.004
16600.00000 0.0042
16610.00000 0.003
16620.00000 0.0028
16630.00000 0.0027
16640.00000 0.0021
16650.00000 0.0015
16660.00000 0.0016
16670.00000 0.0017
16680.00000 0.0014
16690.00000 0.0012
16700.00000 0.0007
16710.00000 0.0013
16720.00000 0.0009
16730.00000 0.0011
16740.00000 0.001
16750.00000 0.0007
16760.00000 0.0005
16770.00000 0.0003
16780.00000 0.0005
16790.00000 0.0008
16800.00000 0.0005
16810.00000 0.0006
16820.00000 0.0004
16830.00000 0.0006
16840.00000 0.0005
16850.00000 0.0003
16860.00000 0.0006
16870.00000 0.0001
16880.00000 0.0004
16890.00000 0.0002
16900.00000 0.0006
16910.00000 0.0003
16920.00000 0.0003
16930.00000 0.0001
16940.00000 0.0004
16950.00000 0.0004
16960.00000 0.0002
16970.00000 0.0003
16980.00000 0.0002
16990.00000 0.0
