# %ECSV 0.9
# ---
# datatype:
# - {name: wavelength, unit: Angstrom, datatype: float32}
# - {name: response, datatype: float32}
# meta: !!omap
# - {band_name: J}
# - {group_name: FourStar}
wavelength response
9810.00000 0.0
10900.00000 0.0004
10910.00000 0.0002
10920.00000 0.0003
10930.00000 0.0003
10940.00000 0.0005
10950.00000 0.0004
10960.00000 0.0006
10970.00000 0.0006
10980.00000 0.0007
10990.00000 0.0013
11000.00000 0.0013
11010.00000 0.0018
11020.00000 0.0021
11030.00000 0.0027
11040.00000 0.0033
11050.00000 0.0039
11060.00000 0.0048
11070.00000 0.0055
11080.00000 0.0065
11090.00000 0.0078
11100.00000 0.009
11110.00000 0.0107
11120.00000 0.0128
11130.00000 0.0152
11140.00000 0.0185
11150.00000 0.023
11160.00000 0.0284
11170.00000 0.0361
11180.00000 0.0473
11190.00000 0.0611
11200.00000 0.0807
11210.00000 0.1099
11220.00000 0.1471
11230.00000 0.1963
11240.00000 0.2661
11250.00000 0.3444
11260.00000 0.429
11270.00000 0.523
11280.00000 0.6027
11290.00000 0.6596
11300.00000 0.7038
11310.00000 0.7289
11320.00000 0.7411
11330.00000 0.7494
11340.00000 0.7559
11350.00000 0.7628
11360.00000 0.7694
11370.00000 0.7767
11380.00000 0.7827
11390.00000 0.7908
11400.00000 0.7964
11410.00000 0.8006
11420.00000 0.8038
11430.00000 0.8058
11440.00000 0.8053
11450.00000 0.8037
11460.00000 0.8031
11470.00000 0.8009
11480.00000 0.798
11490.00000 0.7943
11500.00000 0.7929
11510.00000 0.7917
11520.00000 0.7899
11530.00000 0.788
11540.00000 0.788
11550.00000 0.7893
11560.00000 0.7893
11570.00000 0.7911
11580.00000 0.7935
11590.00000 0.7969
11600.00000 0.7998
11610.00000 0.8039
11620.00000 0.8074
11630.00000 0.811
11640.00000 0.8154
11650.00000 0.8176
11660.00000 0.8199
11670.00000 0.8213
11680.00000 0.8208
11690.00000 0.8187
11700.00000 0.8168
11710.00000 0.8133
11720.00000 0.8082
11730.00000 0.8041
11740.00000 0.799
11750.00000 0.7932
11760.00000 0.7878
11770.00000 0.7842
11780.00000 0.7804
11790.00000 0.779
11800.00000 0.778
11810.00000 0.778
11820.00000 0.7799
11830.00000 0.7821
11840.00000 0.7856
11850.00000 0.7887
11860.00000 0.7941
11870.00000 0.7995
11880.00000 0.805
11890.00000 0.8092
11900.00000 0.8148
11910.00000 0.8199
11920.00000 0.8223
11930.00000 0.8252
11940.00000 0.8291
11950.00000 0.8309
11960.00000 0.8303
11970.00000 0.8331
11980.00000 0.8329
11990.00000 0.8322
12000.00000 0.8327
12010.00000 0.8319
12020.00000 0.8315
12030.00000 0.8301
12040.00000 0.832
12050.00000 0.8316
12060.00000 0.8321
12070.00000 0.8318
12080.00000 0.8334
12090.00000 0.8345
12100.00000 0.8331
12110.00000 0.8351
12120.00000 0.8361
12130.00000 0.8369
12140.00000 0.8366
12150.00000 0.8393
12160.00000 0.8389
12170.00000 0.8391
12180.00000 0.8388
12190.00000 0.8403
12200.00000 0.8401
12210.00000 0.8393
12220.00000 0.8401
12230.00000 0.8397
12240.00000 0.8401
12250.00000 0.8384
12260.00000 0.8396
12270.00000 0.8398
12280.00000 0.8396
12290.00000 0.8372
12300.00000 0.8377
12310.00000 0.8383
12320.00000 0.8367
12330.00000 0.8362
12340.00000 0.8358
12350.00000 0.837
12360.00000 0.8342
12370.00000 0.8343
12380.00000 0.8347
12390.00000 0.8344
12400.00000 0.8336
12410.00000 0.8338
12420.00000 0.8354
12430.00000 0.8356
12440.00000 0.8364
12450.00000 0.8363
12460.00000 0.8374
12470.00000 0.8366
12480.00000 0.8379
12490.00000 0.8379
12500.00000 0.8379
12510.00000 0.8394
12520.00000 0.8391
12530.00000 0.8385
12540.00000 0.8376
12550.00000 0.8376
12560.00000 0.8365
12570.00000 0.8353
12580.00000 0.8342
12590.00000 0.8325
12600.00000 0.8308
12610.00000 0.8307
12620.00000 0.8289
12630.00000 0.8279
12640.00000 0.8273
12650.00000 0.8253
12660.00000 0.8262
12670.00000 0.8254
12680.00000 0.8254
12690.00000 0.8258
12700.00000 0.8276
12710.00000 0.8278
12720.00000 0.8286
12730.00000 0.8304
12740.00000 0.8315
12750.00000 0.8345
12760.00000 0.8354
12770.00000 0.8374
12780.00000 0.8401
12790.00000 0.8429
12800.00000 0.842
12810.00000 0.8444
12820.00000 0.847
12830.00000 0.8467
12840.00000 0.848
12850.00000 0.8477
12860.00000 0.8479
12870.00000 0.846
12880.00000 0.846
12890.00000 0.8442
12900.00000 0.8444
12910.00000 0.8418
12920.00000 0.84
12930.00000 0.839
12940.00000 0.837
12950.00000 0.8351
12960.00000 0.8336
12970.00000 0.8335
12980.00000 0.8318
12990.00000 0.8309
13000.00000 0.8311
13010.00000 0.831
13020.00000 0.831
13030.00000 0.8318
13040.00000 0.833
13050.00000 0.8344
13060.00000 0.8354
13070.00000 0.836
13080.00000 0.8385
13090.00000 0.8396
13100.00000 0.8393
13110.00000 0.8411
13120.00000 0.8427
13130.00000 0.8433
13140.00000 0.8432
13150.00000 0.8441
13160.00000 0.8442
13170.00000 0.8447
13180.00000 0.843
13190.00000 0.8436
13200.00000 0.8434
13210.00000 0.8438
13220.00000 0.8416
13230.00000 0.8406
13240.00000 0.841
13250.00000 0.8387
13260.00000 0.838
13270.00000 0.8372
13280.00000 0.8365
13290.00000 0.8334
13300.00000 0.8331
13310.00000 0.8318
13320.00000 0.8308
13330.00000 0.8294
13340.00000 0.8278
13350.00000 0.8284
13360.00000 0.8295
13370.00000 0.8297
13380.00000 0.8313
13390.00000 0.8366
13400.00000 0.8395
13410.00000 0.8432
13420.00000 0.8488
13430.00000 0.8535
13440.00000 0.8571
13450.00000 0.8566
13460.00000 0.8513
13470.00000 0.8383
13480.00000 0.815
13490.00000 0.7774
13500.00000 0.7315
13510.00000 0.6689
13520.00000 0.5969
13530.00000 0.5242
13540.00000 0.4507
13550.00000 0.3729
13560.00000 0.3068
13570.00000 0.2512
13580.00000 0.2003
13590.00000 0.1621
13600.00000 0.1304
13610.00000 0.1026
13620.00000 0.081
13630.00000 0.0649
13640.00000 0.0518
13650.00000 0.041
13660.00000 0.0334
13670.00000 0.0269
13680.00000 0.0215
13690.00000 0.0177
13700.00000 0.0144
13710.00000 0.0117
13720.00000 0.0096
13730.00000 0.0079
13740.00000 0.0065
13750.00000 0.0055
13760.00000 0.0045
13770.00000 0.0039
13780.00000 0.0032
13790.00000 0.0028
13800.00000 0.0023
13810.00000 0.0019
13820.00000 0.0017
13830.00000 0.0014
13840.00000 0.0011
13850.00000 0.0011
13860.00000 0.001
13870.00000 0.0009
13880.00000 0.0007
13890.00000 0.0006
13900.00000 0.0005
13910.00000 0.0003
13920.00000 0.0004
13930.00000 0.0003
13940.00000 0.0004
13950.00000 0.0003
13960.00000 0.0004
13970.00000 0.0002
13980.00000 0.0003
13990.00000 0.0002
14000.00000 0.0002
15400.00000 0.0
