# %ECSV 0.9
# ---
# datatype:
# - {name: wavelength, unit: Angstrom, datatype: float32}
# - {name: response, datatype: float32}
# meta: !!omap
# - {band_name: RhoadsB}
# - {group_name: IMACS}
wavelength response
8509.76953 0.0
9455.29980 0.00025
9458.29980 1e-05
9461.29980 0.00013
9464.29980 0.00045
9467.20020 0.00088
9470.20020 0.00129
9473.20020 0.00149
9476.09961 0.00136
9479.09961 0.00145
9482.09961 0.00152
9485.09961 0.00141
9488.00000 0.00128
9491.00000 0.00185
9494.00000 0.00209
9496.90039 0.00198
9499.90039 0.00203
9502.90039 0.002
9505.79980 0.00223
9508.79980 0.0022
9511.79980 0.00232
9514.70020 0.00246
9517.70020 0.0025
9520.70020 0.00247
9523.59961 0.0025
9526.59961 0.00232
9529.59961 0.00267
9532.50000 0.00241
9535.50000 0.00229
9538.50000 0.00235
9541.40039 0.00268
9544.40039 0.00339
9547.29980 0.00406
9550.29980 0.00488
9553.29980 0.00581
9556.20020 0.00674
9559.20020 0.00777
9562.09961 0.00845
9565.09961 0.00931
9568.09961 0.01004
9571.00000 0.01093
9574.00000 0.01222
9576.90039 0.01362
9579.90039 0.01518
9582.90039 0.01762
9585.79980 0.02053
9588.79980 0.02484
9591.70020 0.03082
9594.70020 0.03882
9597.59961 0.04972
9600.59961 0.06552
9603.50000 0.08679
9606.50000 0.11469
9609.40039 0.14989
9612.40039 0.19347
9615.29980 0.244
9618.29980 0.29921
9621.20020 0.35827
9624.20020 0.41873
9627.09961 0.4796
9630.09961 0.5393
9633.00000 0.59506
9636.00000 0.64511
9638.90039 0.68877
9641.90039 0.72442
9644.79980 0.75166
9647.79980 0.77044
9650.70020 0.78397
9653.70020 0.7929
9656.59961 0.79832
9659.59961 0.80224
9662.50000 0.8046
9665.50000 0.80624
9668.40039 0.80777
9671.29980 0.80885
9674.29980 0.80964
9677.20020 0.80969
9680.20020 0.80921
9683.09961 0.80763
9686.09961 0.80331
9689.00000 0.79539
9691.90039 0.78159
9694.90039 0.76135
9697.79980 0.73372
9700.79980 0.69894
9703.70020 0.65696
9706.59961 0.60877
9709.59961 0.55629
9712.50000 0.49982
9715.40039 0.44099
9718.40039 0.38249
9721.29980 0.32522
9724.29980 0.27088
9727.20020 0.22129
9730.09961 0.17848
9733.09961 0.14272
9736.00000 0.11299
9738.90039 0.08953
9741.90039 0.07058
9744.79980 0.05539
9747.70020 0.04397
9750.70020 0.03487
9753.59961 0.02802
9756.50000 0.02292
9759.40039 0.01916
9762.40039 0.01641
9765.29980 0.01382
9768.20020 0.01217
9771.20020 0.01045
9774.09961 0.00934
9777.00000 0.00882
9779.90039 0.00817
9782.90039 0.00776
9785.79980 0.00718
9788.70020 0.00646
9791.59961 0.00575
9794.59961 0.00534
9797.50000 0.00463
9800.40039 0.00452
9803.29980 0.00398
9806.29980 0.00374
9809.20020 0.0032
9812.09961 0.00271
9815.00000 0.0021
9818.00000 0.00178
9820.90039 0.00135
9823.79980 0.00122
9826.70020 0.00072
9829.59961 0.00065
9832.59961 0.00027
9835.50000 0.0004
9838.40039 8e-05
9841.29980 0.00027
9844.20020 0.00021
9847.20020 0.00014
9850.09961 0.00015
10835.10938 0.0
