# %ECSV 0.9
# ---
# datatype:
# - {name: wavelength, unit: Angstrom, datatype: float32}
# - {name: response, datatype: float32}
# meta: !!omap
# - {band_name: sloan_r}
# - {group_name: IMACS}
wavelength response
5402.25000 0.0
6002.50000 0.89268
6005.89990 0.8939
6009.29980 0.89481
6012.79980 0.89574
6016.20020 0.89586
6019.70020 0.89596
6023.10010 0.89646
6026.60010 0.89708
6030.00000 0.89705
6033.39990 0.89839
6036.89990 0.89986
6040.29980 0.90023
6043.70020 0.90043
6047.20020 0.903
6050.60010 0.90358
6054.10010 0.90428
6057.50000 0.90578
6060.89990 0.90744
6064.39990 0.90691
6067.79980 0.90781
6071.20020 0.90819
6074.70020 0.90874
6078.10010 0.9083
6081.50000 0.90957
6085.00000 0.9095
6088.39990 0.90926
6091.79980 0.90887
6095.29980 0.90898
6098.70020 0.90868
6102.10010 0.90877
6105.60010 0.90895
6109.00000 0.90872
6112.39990 0.90848
6115.79980 0.90806
6119.29980 0.90705
6122.70020 0.90694
6126.10010 0.90688
6129.60010 0.90602
6133.00000 0.90543
6136.39990 0.90518
6139.79980 0.90389
6143.29980 0.90305
6146.70020 0.9025
6150.10010 0.90156
6153.50000 0.90142
6157.00000 0.90114
6160.39990 0.90034
6163.79980 0.90015
6167.20020 0.90002
6170.60010 0.89915
6174.10010 0.89819
6177.50000 0.89741
6180.89990 0.89742
6184.29980 0.89737
6187.79980 0.89737
6191.20020 0.89784
6194.60010 0.89836
6198.00000 0.89811
6201.39990 0.89771
6204.79980 0.89834
6208.29980 0.89873
6211.70020 0.8995
6215.10010 0.90029
6218.50000 0.90087
6221.89990 0.90091
6225.29980 0.90085
6228.79980 0.90044
6232.20020 0.9008
6235.60010 0.90141
6239.00000 0.90177
6242.39990 0.90267
6245.79980 0.90332
6249.20020 0.90398
6252.60010 0.90467
6256.10010 0.90497
6259.50000 0.90588
6262.89990 0.90757
6266.29980 0.90744
6269.70020 0.90804
6273.10010 0.90914
6276.50000 0.91014
6279.89990 0.91036
6283.29980 0.91078
6286.70020 0.9117
6290.10010 0.91194
6293.50000 0.91216
6297.00000 0.91183
6300.39990 0.91222
6303.79980 0.91179
6307.20020 0.91239
6310.60010 0.91182
6314.00000 0.91181
6317.39990 0.91179
6320.79980 0.91141
6324.20020 0.91118
6327.60010 0.91113
6331.00000 0.91068
6334.39990 0.91007
6337.79980 0.91053
6341.20020 0.90964
6344.60010 0.90889
6348.00000 0.90887
6351.39990 0.90891
6354.79980 0.90746
6358.20020 0.90637
6361.60010 0.90618
6365.00000 0.90566
6368.39990 0.90521
6371.79980 0.90524
6375.20020 0.90576
6378.60010 0.90528
6382.00000 0.90502
6385.39990 0.90481
6388.70020 0.90503
6392.10010 0.90513
6395.50000 0.90503
6398.89990 0.90413
6402.29980 0.90407
6405.70020 0.90435
6409.10010 0.90374
6412.50000 0.90479
6415.89990 0.90638
6419.29980 0.90656
6422.70020 0.90659
6426.10010 0.9073
6429.39990 0.90724
6432.79980 0.90697
6436.20020 0.90772
6439.60010 0.90782
6443.00000 0.90801
6446.39990 0.90855
6449.79980 0.90949
6453.20020 0.90946
6456.50000 0.9109
6459.89990 0.912
6463.29980 0.91219
6466.70020 0.91325
6470.10010 0.91424
6473.50000 0.91386
6476.79980 0.9137
6480.20020 0.91509
6483.60010 0.91484
6487.00000 0.91567
6490.39990 0.91636
6493.79980 0.91724
6497.10010 0.91671
6500.50000 0.91635
6503.89990 0.9161
6507.29980 0.91573
6510.60010 0.91598
6514.00000 0.91554
6517.39990 0.91655
6520.79980 0.91591
6524.20020 0.91621
6527.50000 0.91624
6530.89990 0.91637
6534.29980 0.91512
6537.70020 0.91545
6541.00000 0.91464
6544.39990 0.91385
6547.79980 0.91281
6551.20020 0.91302
6554.50000 0.91238
6557.89990 0.91171
6561.29980 0.91068
6564.60010 0.91018
6568.00000 0.90948
6571.39990 0.90925
6574.79980 0.91028
6578.10010 0.90988
6581.50000 0.91066
6584.89990 0.90956
6588.20020 0.90865
6591.60010 0.90782
6595.00000 0.90726
6598.29980 0.90692
6601.70020 0.90786
6605.10010 0.909
6608.39990 0.90723
6611.79980 0.90604
6615.20020 0.90616
6618.50000 0.90616
6621.89990 0.90528
6625.29980 0.90582
6628.60010 0.90775
6632.00000 0.90623
6635.29980 0.90509
6638.70020 0.90634
6642.10010 0.90784
6645.39990 0.90787
6648.79980 0.90958
6652.10010 0.91107
6655.50000 0.91008
6658.89990 0.91076
6662.20020 0.91139
6665.60010 0.91165
6668.89990 0.91224
6672.29980 0.91381
6675.70020 0.91394
6679.00000 0.91503
6682.39990 0.91619
6685.70020 0.91634
6689.10010 0.91749
6692.39990 0.91825
6695.79980 0.91817
6699.10010 0.91815
6702.50000 0.91874
6705.89990 0.918
6709.20020 0.91775
6712.60010 0.9178
6715.89990 0.9175
6719.29980 0.91771
6722.60010 0.91741
6726.00000 0.91695
6729.29980 0.91746
6732.70020 0.9177
6736.00000 0.917
6739.39990 0.91651
6742.70020 0.91651
6746.10010 0.9155
6749.39990 0.91431
6752.79980 0.91347
6756.10010 0.91208
6759.39990 0.9121
6762.79980 0.91232
6766.10010 0.91245
6769.50000 0.91209
6772.79980 0.91284
6776.20020 0.91193
6779.50000 0.91095
6782.89990 0.91101
6786.20020 0.91177
6789.50000 0.91199
6792.89990 0.91245
6796.20020 0.91315
6799.60010 0.91379
6802.89990 0.91348
6806.20020 0.91367
6809.60010 0.91471
6812.89990 0.91649
6816.29980 0.91702
6819.60010 0.91856
6822.89990 0.91907
6826.29980 0.91918
6829.60010 0.91868
6833.00000 0.9189
6836.29980 0.91914
6839.60010 0.92046
6843.00000 0.92065
6846.29980 0.92055
6849.60010 0.92063
6853.00000 0.92083
6856.29980 0.92071
6859.60010 0.92078
6863.00000 0.92054
6866.29980 0.92003
6869.60010 0.91916
6873.00000 0.9175
6876.29980 0.91627
6879.60010 0.91537
6883.00000 0.91472
6886.29980 0.91369
6889.60010 0.91368
6892.89990 0.91297
6896.29980 0.91186
6899.60010 0.91072
6902.89990 0.91073
6906.20020 0.91054
6909.60010 0.91091
6912.89990 0.9114
6916.20020 0.91141
6919.60010 0.91208
6922.89990 0.91304
6926.20020 0.91443
6929.50000 0.91588
6932.89990 0.91836
6936.20020 0.91918
6939.50000 0.91978
6942.79980 0.91925
6946.10010 0.91799
6949.50000 0.91528
6952.79980 0.90994
6956.10010 0.90164
6959.39990 0.89067
6962.70020 0.87487
6966.10010 0.85462
6969.39990 0.83033
6972.70020 0.80033
6976.00000 0.76544
6979.29980 0.72601
6982.70020 0.68161
6986.00000 0.63473
6989.29980 0.58605
6992.60010 0.53651
6995.89990 0.48808
6999.20020 0.43971
7002.50000 0.39286
7005.89990 0.34892
7009.20020 0.30788
7012.50000 0.27007
7015.79980 0.23665
7019.10010 0.2067
7022.39990 0.17961
7025.70020 0.15659
7029.00000 0.13653
7032.39990 0.1188
7035.70020 0.10336
7039.00000 0.09019
7042.29980 0.07851
7045.60010 0.06859
7048.89990 0.06001
7052.20020 0.05235
7055.50000 0.04572
7058.79980 0.04025
7062.10010 0.03549
7065.39990 0.03118
7068.70020 0.02749
7072.00000 0.02441
7075.39990 0.02158
7078.70020 0.01903
7082.00000 0.0169
7085.29980 0.01503
7088.60010 0.01321
7091.89990 0.01178
7095.20020 0.01071
7098.50000 0.00975
7101.79980 0.00898
7105.10010 0.00794
7108.39990 0.00699
7111.70020 0.00614
7115.00000 0.00537
7118.29980 0.00495
7121.60010 0.00485
7124.89990 0.00488
7128.20020 0.00467
7131.50000 0.00437
7134.79980 0.00368
7138.10010 0.00312
7141.39990 0.00242
7144.70020 0.00198
7148.00000 0.00157
7151.20020 0.00145
7154.50000 0.00121
7157.79980 0.00095
7161.10010 0.00061
7164.39990 0.00033
7167.70020 0.00016
7171.00000 0.0002
7174.29980 0.00018
7177.60010 0.00011
7180.89990 8e-05
7898.98975 0.0
