# %ECSV 0.9
# ---
# datatype:
# - {name: wavelength, unit: Angstrom, datatype: float32}
# - {name: response, datatype: float32}
# meta: !!omap
# - {band_name: Hk}
# - {group_name: MMIRS}
wavelength response
9990.59961 0.0
10001.70020 3.4e-08
10012.79980 0.0
10023.90039 1.186e-07
10035.00000 0.0
10046.09961 0.0
10057.20020 0.0
10068.40039 7.58e-08
10079.50000 0.0
10090.59961 2.247e-07
10101.70020 0.0
10112.79980 0.0
10123.90039 0.0
10135.00000 0.0
10146.09961 0.0
10157.20020 4.61e-08
10168.40039 0.0
10179.50000 0.0
10190.59961 0.0
10201.70020 0.0
10212.79980 1.239e-07
10223.90039 0.0
10235.00000 0.0
10246.09961 0.0
10257.20020 0.0
10268.29980 0.0
10279.40039 0.0
10290.59961 9.049e-07
10301.70020 0.0
10312.79980 6.378e-07
10323.90039 0.0
10335.00000 0.0
10346.09961 1.3499e-06
10357.20020 0.0
10368.29980 2.265e-07
10379.40039 3.7543e-06
10390.59961 8.35e-07
10401.70020 0.0
10412.79980 0.0
10423.90039 0.0
10435.00000 0.0
10446.09961 0.0
10457.20020 0.0
10468.29980 0.0
10479.40039 3.0841e-06
10490.50000 0.0
10501.59961 1.8843e-06
10512.79980 0.0
10523.90039 0.0
10535.00000 0.0
10546.09961 0.0
10557.20020 0.0
10568.29980 0.0
10579.40039 0.0
10590.50000 0.0
10601.59961 0.0
10612.79980 6.6628e-06
10623.90039 0.0
10635.00000 0.0
10646.09961 0.0
10657.20020 0.0
10668.29980 3.1369e-06
10679.40039 1.3212e-06
10690.50000 0.0
10701.59961 7.2372e-06
10712.70020 0.0
10723.90039 0.0
10735.00000 1.0171e-06
10746.09961 1.4291e-05
10757.20020 0.0
10768.29980 0.0
10779.40039 2.46917e-05
10790.50000 9.0305e-06
10801.59961 0.0
10812.70020 2.036e-07
10823.79980 0.0
10834.90039 0.0
10846.09961 0.0
10857.20020 0.0
10868.29980 0.0
10879.40039 3.36925e-05
10890.50000 1.1039e-06
10901.59961 0.0
10912.70020 0.0
10923.79980 1.06292e-05
10934.90039 1.24563e-05
10946.00000 0.0
10957.20020 0.0
10968.29980 0.0
10979.40039 0.0
10990.50000 0.0
11001.59961 0.0
11012.70020 4.2227e-06
11023.79980 7.954e-06
11034.90039 0.0
11046.00000 0.0
11057.09961 2.61458e-05
11068.29980 0.0
11079.40039 2.19681e-05
11090.50000 3.88197e-05
11101.59961 0.0
11112.70020 0.0
11123.79980 0.0
11134.90039 0.0
11146.00000 0.0
11157.09961 0.0
11168.20020 4.88843e-05
11179.40039 1.65323e-05
11190.50000 0.0
11201.59961 0.0
11212.70020 0.0
11223.79980 0.0
11234.90039 1.33118e-05
11246.00000 5.03074e-05
11257.09961 2.01479e-05
11268.20020 3.38071e-05
11279.29980 0.0
11290.50000 2.79138e-05
11301.59961 7.38151e-05
11312.70020 0.0
11323.79980 0.0
11334.90039 5.62062e-05
11346.00000 3.0385e-06
11357.09961 0.0
11368.20020 1.02065e-05
11379.29980 0.0
11390.50000 0.0
11401.59961 0.0
11412.70020 3.07601e-05
11423.79980 8.57851e-05
11434.90039 5.87043e-05
11446.00000 0.0
11457.09961 5.15781e-05
11468.20020 0.0
11479.29980 0.0
11490.40039 5.3675e-05
11501.50000 0.0
11512.70020 0.0
11523.79980 0.0
11534.90039 0.0
11546.00000 1.8933e-06
11557.09961 4.4534e-05
11568.20020 0.0
11579.29980 2.42385e-05
11590.40039 5.9215e-06
11601.50000 0.0
11612.70020 3.0098e-05
11623.79980 2.4599e-05
11634.90039 4.69036e-05
11646.00000 5.94306e-05
11657.09961 2.67373e-05
11668.20020 0.00010726
11679.29980 4.09237e-05
11690.40039 2.67673e-05
11701.50000 2.99569e-05
11712.59961 0.000119214
11723.79980 8.40554e-05
11734.90039 7.0212e-05
11746.00000 4.6373e-05
11757.09961 7.41685e-05
11768.20020 0.000111264
11779.29980 0.000140915
11790.40039 0.000129151
11801.50000 0.000138634
11812.59961 0.000106584
11823.70020 8.78663e-05
11834.79980 0.000164102
11846.00000 0.000157469
11857.09961 0.000151906
11868.20020 0.000229697
11879.29980 0.000215057
11890.40039 0.000274112
11901.50000 0.000225567
11912.59961 0.000244129
11923.70020 0.000335313
11934.79980 0.000372239
11946.00000 0.000411141
11957.09961 0.000443727
11968.20020 0.000493158
11979.29980 0.000550741
11990.40039 0.000602164
12001.50000 0.000663834
12012.59961 0.000786628
12023.70020 0.000877663
12034.79980 0.000915259
12045.90039 0.00101636
12057.00000 0.00117181
12068.20020 0.00127995
12079.29980 0.00144275
12090.40039 0.00158745
12101.50000 0.00174965
12112.59961 0.00196776
12123.70020 0.00227437
12134.79980 0.0026506
12145.90039 0.00289398
12157.00000 0.00321836
12168.20020 0.0037533
12179.29980 0.00423141
12190.40039 0.00475584
12201.50000 0.0054164
12212.59961 0.00627269
12223.70020 0.00716701
12234.79980 0.00815654
12245.90039 0.00930749
12257.00000 0.0107362
12268.09961 0.0124585
12279.20020 0.0144354
12290.40039 0.0168275
12301.50000 0.0194978
12312.59961 0.0227274
12323.70020 0.0268654
12334.79980 0.0309978
12345.90039 0.0366843
12357.00000 0.0430495
12368.09961 0.0506681
12379.20020 0.05997
12390.40039 0.070761
12401.50000 0.0847491
12412.59961 0.0995075
12423.70020 0.117581
12434.79980 0.138392
12445.90039 0.164273
12457.00000 0.194432
12468.09961 0.226711
12479.20020 0.264323
12490.29980 0.303494
12501.50000 0.347918
12512.59961 0.390412
12523.70020 0.435655
12534.79980 0.481046
12545.90039 0.521417
12557.00000 0.559316
12568.09961 0.588783
12579.20020 0.616541
12590.29980 0.63492
12601.40039 0.651901
12612.59961 0.666141
12623.70020 0.672904
12634.79980 0.678989
12645.90039 0.682573
12657.00000 0.683671
12668.09961 0.684385
12679.20020 0.685205
12690.29980 0.688018
12701.40039 0.687936
12712.50000 0.686846
12723.59961 0.688672
12734.79980 0.688259
12745.90039 0.690693
12757.00000 0.694667
12768.09961 0.695095
12779.20020 0.694494
12790.29980 0.697406
12801.40039 0.698821
12812.50000 0.701628
12823.59961 0.703014
12834.79980 0.703838
12845.90039 0.705049
12857.00000 0.705278
12868.09961 0.706131
12879.20020 0.70596
12890.29980 0.706307
12901.40039 0.708094
12912.50000 0.709913
12923.59961 0.706208
12934.70020 0.705026
12945.90039 0.707431
12957.00000 0.708185
12968.09961 0.707264
12979.20020 0.70813
12990.29980 0.710489
13001.40039 0.707182
13012.50000 0.707619
13023.59961 0.70871
13034.70020 0.710304
13045.79980 0.7122
13056.90039 0.713482
13068.09961 0.713848
13079.20020 0.715024
13090.29980 0.715421
13101.40039 0.716952
13112.50000 0.718501
13123.59961 0.720679
13134.70020 0.722551
13145.79980 0.721427
13156.90039 0.722945
13168.09961 0.723691
13179.20020 0.725391
13190.29980 0.727092
13201.40039 0.727199
13212.50000 0.727547
13223.59961 0.727755
13234.70020 0.728326
13245.79980 0.72968
13256.90039 0.730975
13268.00000 0.729176
13279.09961 0.72979
13290.29980 0.731861
13301.40039 0.730868
13312.50000 0.73154
13323.59961 0.732094
13334.70020 0.7329
13345.79980 0.734276
13356.90039 0.735601
13368.00000 0.736164
13379.09961 0.736929
13390.20020 0.738514
13401.40039 0.739875
13412.50000 0.742956
13423.59961 0.744647
13434.70020 0.745547
13445.79980 0.746377
13456.90039 0.747416
13468.00000 0.749287
13479.09961 0.753884
13490.20020 0.753313
13501.40039 0.754454
13512.50000 0.757053
13523.59961 0.757203
13534.70020 0.757169
13545.79980 0.760054
13556.90039 0.760731
13568.00000 0.760812
13579.09961 0.762634
13590.20020 0.760057
13601.29980 0.758377
13612.40039 0.760958
13623.59961 0.761568
13634.70020 0.759509
13645.79980 0.758486
13656.90039 0.757808
13668.00000 0.757662
13679.09961 0.755095
13690.20020 0.757824
13701.29980 0.760088
13712.40039 0.755633
13723.50000 0.754687
13734.70020 0.755421
13745.79980 0.756205
13756.90039 0.755503
13768.00000 0.758614
13779.09961 0.758563
13790.20020 0.756219
13801.29980 0.757435
13812.40039 0.760261
13823.50000 0.760814
13834.59961 0.764945
13845.79980 0.767901
13856.90039 0.766937
13868.00000 0.767944
13879.09961 0.771707
13890.20020 0.772888
13901.29980 0.772905
13912.40039 0.775397
13923.50000 0.780838
13934.59961 0.781135
13945.79980 0.779154
13956.90039 0.781275
13968.00000 0.782905
13979.09961 0.785759
13990.20020 0.790556
14001.29980 0.786292
14012.40039 0.784399
14023.50000 0.786504
14034.59961 0.788499
14045.70020 0.787341
14056.79980 0.787046
14068.00000 0.788124
14079.09961 0.786452
14090.20020 0.782428
14101.29980 0.781952
14112.40039 0.783562
14123.50000 0.781193
14134.59961 0.779485
14145.70020 0.78184
14156.79980 0.779744
14168.00000 0.775441
14179.09961 0.774041
14190.20020 0.776915
14201.29980 0.775518
14212.40039 0.775112
14223.50000 0.774979
14234.59961 0.774019
14245.70020 0.774204
14256.79980 0.775291
14267.90039 0.774712
14279.00000 0.775334
14290.20020 0.778581
14301.29980 0.777977
14312.40039 0.777217
14323.50000 0.779474
14334.59961 0.782797
14345.70020 0.783986
14356.79980 0.786398
14367.90039 0.786886
14379.00000 0.787905
14390.20020 0.790986
14401.29980 0.792211
14412.40039 0.797395
14423.50000 0.798096
14434.59961 0.798918
14445.70020 0.801827
14456.79980 0.803432
14467.90039 0.803928
14479.00000 0.807052
14490.09961 0.811217
14501.20020 0.813349
14512.40039 0.811585
14523.50000 0.812077
14534.59961 0.814876
14545.70020 0.819497
14556.79980 0.820208
14567.90039 0.815992
14579.00000 0.818551
14590.09961 0.824335
14601.20020 0.822722
14612.29980 0.821525
14623.50000 0.822704
14634.59961 0.826147
14645.70020 0.825869
14656.79980 0.824936
14667.90039 0.825947
14679.00000 0.828078
14690.09961 0.82725
14701.20020 0.828012
14712.29980 0.830791
14723.50000 0.829714
14734.59961 0.828137
14745.70020 0.829484
14756.79980 0.830429
14767.90039 0.833824
14779.00000 0.836312
14790.09961 0.833576
14801.20020 0.831016
14812.29980 0.83474
14823.40039 0.836737
14834.50000 0.836794
14845.70020 0.839194
14856.79980 0.840832
14867.90039 0.83858
14879.00000 0.838736
14890.09961 0.843225
14901.20020 0.843104
14912.29980 0.841707
14923.40039 0.847802
14934.50000 0.84569
14945.70020 0.844779
14956.79980 0.84651
14967.90039 0.846632
14979.00000 0.84873
14990.09961 0.851016
15001.20020 0.851663
15012.29980 0.850988
15023.40039 0.850073
15034.50000 0.849846
15045.59961 0.853368
15056.79980 0.853411
15067.90039 0.853558
15079.00000 0.857265
15090.09961 0.852532
15101.20020 0.850774
15112.29980 0.856408
15123.40039 0.85633
15134.50000 0.855485
15145.59961 0.856495
15156.70020 0.855394
15167.90039 0.855144
15179.00000 0.855869
15190.09961 0.858254
15201.20020 0.856391
15212.29980 0.858317
15223.40039 0.858059
15234.50000 0.858116
15245.59961 0.855069
15256.70020 0.854496
15267.79980 0.860831
15279.00000 0.860863
15290.09961 0.856376
15301.20020 0.858161
15312.29980 0.858564
15323.40039 0.859044
15334.50000 0.858878
15345.59961 0.858734
15356.70020 0.86255
15367.79980 0.859029
15378.90039 0.857968
15390.09961 0.861079
15401.20020 0.858648
15412.29980 0.861679
15423.40039 0.862919
15434.50000 0.859569
15445.59961 0.860634
15456.70020 0.862329
15467.79980 0.861217
15478.90039 0.861972
15490.00000 0.863727
15501.09961 0.863649
15512.29980 0.86039
15523.40039 0.862979
15534.50000 0.864148
15545.59961 0.864275
15556.70020 0.865157
15567.79980 0.866484
15578.90039 0.866679
15590.00000 0.864193
15601.09961 0.865282
15612.20020 0.867222
15623.40039 0.868337
15634.50000 0.869908
15645.59961 0.869639
15656.70020 0.868809
15667.79980 0.87019
15678.90039 0.870774
15690.00000 0.871224
15701.09961 0.872841
15712.20020 0.874694
15723.40039 0.874915
15734.50000 0.873394
15745.59961 0.875038
15756.70020 0.877935
15767.79980 0.874335
15778.90039 0.877845
15790.00000 0.881669
15801.09961 0.87739
15812.20020 0.877391
15823.29980 0.881771
15834.40039 0.881322
15845.59961 0.879125
15856.70020 0.883415
15867.79980 0.883787
15878.90039 0.88411
15890.00000 0.883877
15901.09961 0.880343
15912.20020 0.885115
15923.29980 0.886384
15934.40039 0.887645
15945.59961 0.886957
15956.70020 0.88267
15967.79980 0.887199
15978.90039 0.88901
15990.00000 0.884915
16001.09961 0.888287
16012.20020 0.888736
16023.29980 0.889483
16034.40039 0.887708
16045.50000 0.888249
16056.59961 0.889953
16067.79980 0.890385
16078.90039 0.891684
16090.00000 0.892456
16101.09961 0.888404
16112.20020 0.887731
16123.29980 0.893297
16134.40039 0.895071
16145.50000 0.891189
16156.59961 0.893063
16167.79980 0.893426
16178.90039 0.892702
16190.00000 0.896584
16201.09961 0.894314
16212.20020 0.893814
16223.29980 0.896548
16234.40039 0.896995
16245.50000 0.894243
16256.59961 0.895228
16267.70020 0.895879
16278.90039 0.897746
16290.00000 0.899595
16301.09961 0.89829
16312.20020 0.89812
16323.29980 0.896867
16334.40039 0.897317
16345.50000 0.899759
16356.59961 0.900332
16367.70020 0.898813
16378.79980 0.901348
16389.90039 0.899919
16401.09961 0.895446
16412.19922 0.89975
16423.30078 0.903029
16434.40039 0.902342
16445.50000 0.899593
16456.59961 0.897433
16467.69922 0.898527
16478.80078 0.900962
16489.90039 0.901382
16501.00000 0.899096
16512.19922 0.899816
16523.30078 0.899023
16534.40039 0.901165
16545.50000 0.898837
16556.59961 0.897719
16567.69922 0.902719
16578.80078 0.899937
16589.90039 0.896734
16601.00000 0.902534
16612.09961 0.9011
16623.30078 0.897106
16634.40039 0.898067
16645.50000 0.901658
16656.59961 0.903464
16667.69922 0.898485
16678.80078 0.898337
16689.90039 0.900381
16701.00000 0.899242
16712.09961 0.902586
16723.19922 0.904622
16734.40039 0.901328
16745.50000 0.89958
16756.59961 0.900669
16767.69922 0.901863
16778.80078 0.904373
16789.90039 0.905469
16801.00000 0.90339
16812.09961 0.901993
16823.19922 0.905656
16834.30078 0.906083
16845.50000 0.90529
16856.59961 0.906017
16867.69922 0.907932
16878.80078 0.907981
16889.90039 0.90584
16901.00000 0.908931
16912.09961 0.908736
16923.19922 0.909897
16934.30078 0.910134
16945.50000 0.912544
16956.59961 0.909788
16967.69922 0.908873
16978.80078 0.914123
16989.90039 0.915052
17001.00000 0.910277
17012.09961 0.912834
17023.19922 0.915289
17034.30078 0.912015
17045.40039 0.913386
17056.50000 0.913191
17067.69922 0.914099
17078.80078 0.915686
17089.90039 0.916857
17101.00000 0.914602
17112.09961 0.913062
17123.19922 0.914582
17134.30078 0.915882
17145.40039 0.91605
17156.50000 0.916161
17167.69922 0.916549
17178.80078 0.91601
17189.90039 0.911344
17201.00000 0.914963
17212.09961 0.918222
17223.19922 0.91641
17234.30078 0.917551
17245.40039 0.916181
17256.50000 0.913759
17267.59961 0.914913
17278.80078 0.916714
17289.90039 0.917911
17301.00000 0.916538
17312.09961 0.915263
17323.19922 0.916375
17334.30078 0.914461
17345.40039 0.917585
17356.50000 0.919801
17367.59961 0.915974
17378.69922 0.916532
17389.80078 0.917708
17401.00000 0.918736
17412.09961 0.917497
17423.19922 0.916
17434.30078 0.919841
17445.40039 0.919285
17456.50000 0.916465
17467.59961 0.91917
17478.69922 0.918627
17489.80078 0.919716
17501.00000 0.919491
17512.09961 0.920916
17523.19922 0.919214
17534.30078 0.918757
17545.40039 0.919827
17556.50000 0.917283
17567.59961 0.921038
17578.69922 0.923911
17589.80078 0.92076
17600.90039 0.918457
17612.00000 0.920336
17623.19922 0.919402
17634.30078 0.92036
17645.40039 0.921072
17656.50000 0.923094
17667.59961 0.919228
17678.69922 0.916514
17689.80078 0.922418
17700.90039 0.920322
17712.00000 0.917337
17723.19922 0.92044
17734.30078 0.923294
17745.40039 0.917804
17756.50000 0.916284
17767.59961 0.918577
17778.69922 0.919942
17789.80078 0.919086
17800.90039 0.918001
17812.00000 0.917848
17823.09961 0.917221
17834.19922 0.919078
17845.40039 0.918001
17856.50000 0.916341
17867.59961 0.920798
17878.69922 0.918883
17889.80078 0.916752
17900.90039 0.915409
17912.00000 0.917775
17923.09961 0.919954
17934.19922 0.916034
17945.40039 0.918929
17956.50000 0.919767
17967.59961 0.915324
17978.69922 0.916173
17989.80078 0.917677
18000.90039 0.91905
18012.00000 0.918937
18023.09961 0.918774
18034.19922 0.918724
18045.30078 0.916405
18056.50000 0.920171
18067.59961 0.920012
18078.69922 0.918949
18089.80078 0.922464
18100.90039 0.923038
18112.00000 0.919355
18123.09961 0.919719
18134.19922 0.924757
18145.30078 0.922984
18156.40039 0.919719
18167.59961 0.923257
18178.69922 0.92402
18189.80078 0.923194
18200.90039 0.923811
18212.00000 0.924931
18223.09961 0.924146
18234.19922 0.922909
18245.30078 0.925858
18256.40039 0.925469
18267.50000 0.923148
18278.69922 0.924625
18289.80078 0.926003
18300.90039 0.925422
18312.00000 0.923745
18323.09961 0.92572
18334.19922 0.923504
18345.30078 0.922608
18356.40039 0.926463
18367.50000 0.926495
18378.59961 0.926229
18389.80078 0.922864
18400.90039 0.923031
18412.00000 0.92249
18423.09961 0.923089
18434.19922 0.926536
18445.30078 0.924455
18456.40039 0.921526
18467.50000 0.922405
18478.59961 0.920133
18489.69922 0.919646
18500.80078 0.924318
18512.00000 0.923069
18523.09961 0.92167
18534.19922 0.920058
18545.30078 0.920402
18556.40039 0.92051
18567.50000 0.920396
18578.59961 0.920302
18589.69922 0.919634
18600.80078 0.919529
18612.00000 0.918747
18623.09961 0.91918
18634.19922 0.921132
18645.30078 0.919242
18656.40039 0.921767
18667.50000 0.917068
18678.59961 0.918094
18689.69922 0.921058
18700.80078 0.918542
18711.90039 0.920149
18723.00000 0.919322
18734.19922 0.921337
18745.30078 0.923315
18756.40039 0.920202
18767.50000 0.919131
18778.59961 0.921686
18789.69922 0.921315
18800.80078 0.923233
18811.90039 0.924176
18823.00000 0.92302
18834.19922 0.920375
18845.30078 0.921902
18856.40039 0.923548
18867.50000 0.925004
18878.59961 0.925209
18889.69922 0.925777
18900.80078 0.920105
18911.90039 0.922662
18923.00000 0.925639
18934.09961 0.924325
18945.19922 0.926893
18956.40039 0.926369
18967.50000 0.923872
18978.59961 0.922876
18989.69922 0.926046
19000.80078 0.926818
19011.90039 0.92609
19023.00000 0.923852
19034.09961 0.925015
19045.19922 0.926312
19056.30078 0.924019
19067.50000 0.92259
19078.59961 0.924906
19089.69922 0.926754
19100.80078 0.923604
19111.90039 0.924078
19123.00000 0.921487
19134.09961 0.922261
19145.19922 0.925114
19156.30078 0.923298
19167.40039 0.920508
19178.59961 0.921564
19189.69922 0.920869
19200.80078 0.918589
19211.90039 0.919364
19223.00000 0.919945
19234.09961 0.920986
19245.19922 0.919874
19256.30078 0.916987
19267.40039 0.914565
19278.50000 0.917112
19289.69922 0.91936
19300.80078 0.917367
19311.90039 0.912872
19323.00000 0.917003
19334.09961 0.915858
19345.19922 0.912478
19356.30078 0.913716
19367.40039 0.915934
19378.50000 0.915609
19389.59961 0.911966
19400.80078 0.911581
19411.90039 0.912855
19423.00000 0.91344
19434.09961 0.912837
19445.19922 0.912003
19456.30078 0.911962
19467.40039 0.911885
19478.50000 0.912676
19489.59961 0.911223
19500.80078 0.910472
19511.90039 0.913024
19523.00000 0.913467
19534.09961 0.910684
19545.19922 0.911747
19556.30078 0.912397
19567.40039 0.910819
19578.50000 0.911052
19589.59961 0.915879
19600.69922 0.91433
19611.80078 0.909668
19623.00000 0.91031
19634.09961 0.914427
19645.19922 0.914502
19656.30078 0.914162
19667.40039 0.914397
19678.50000 0.913054
19689.59961 0.911406
19700.69922 0.913129
19711.80078 0.913967
19723.00000 0.914685
19734.09961 0.915433
19745.19922 0.913285
19756.30078 0.912108
19767.40039 0.913261
19778.50000 0.914446
19789.59961 0.914959
19800.69922 0.912914
19811.80078 0.91338
19822.90039 0.913974
19834.00000 0.912433
19845.19922 0.914224
19856.30078 0.911745
19867.40039 0.911522
19878.50000 0.913978
19889.59961 0.915097
19900.69922 0.910059
19911.80078 0.90762
19922.90039 0.912726
19934.00000 0.911737
19945.19922 0.90874
19956.30078 0.909812
19967.40039 0.912507
19978.50000 0.906057
19989.59961 0.911543
20000.69922 0.907425
20011.80078 0.905745
20022.90039 0.907535
20034.00000 0.906831
20045.09961 0.904132
20056.19922 0.904247
20067.40039 0.904679
20078.50000 0.906054
20089.59961 0.90662
20100.69922 0.899998
20111.80078 0.900948
20122.90039 0.903604
20134.00000 0.903443
20145.09961 0.902009
20156.19922 0.902046
20167.30078 0.902072
20178.50000 0.901541
20189.59961 0.898604
20200.69922 0.901839
20211.80078 0.903966
20222.90039 0.900755
20234.00000 0.89967
20245.09961 0.899628
20256.19922 0.899065
20267.30078 0.899686
20278.50000 0.903223
20289.59961 0.901183
20300.69922 0.899459
20311.80078 0.898577
20322.90039 0.899525
20334.00000 0.900903
20345.09961 0.902403
20356.19922 0.902901
20367.30078 0.901374
20378.40039 0.901142
20389.50000 0.901332
20400.69922 0.900858
20411.80078 0.901936
20422.90039 0.904615
20434.00000 0.904072
20445.09961 0.902592
20456.19922 0.903631
20467.30078 0.902831
20478.40039 0.902764
20489.50000 0.905348
20500.69922 0.904934
20511.80078 0.903571
20522.90039 0.90526
20534.00000 0.904548
20545.09961 0.904666
20556.19922 0.903384
20567.30078 0.905232
20578.40039 0.908009
20589.50000 0.904978
20600.59961 0.902324
20611.80078 0.905189
20622.90039 0.905656
20634.00000 0.906441
20645.09961 0.905742
20656.19922 0.90415
20667.30078 0.903447
20678.40039 0.903998
20689.50000 0.905495
20700.59961 0.903481
20711.69922 0.901881
20722.80078 0.903605
20734.00000 0.903247
20745.09961 0.899376
20756.19922 0.901449
20767.30078 0.902553
20778.40039 0.900312
20789.50000 0.89958
20800.59961 0.899659
20811.69922 0.897286
20822.80078 0.89792
20834.00000 0.89785
20845.09961 0.895635
20856.19922 0.895695
20867.30078 0.897193
20878.40039 0.895973
20889.50000 0.891811
20900.59961 0.893942
20911.69922 0.89239
20922.80078 0.891496
20933.90039 0.892891
20945.09961 0.894981
20956.19922 0.8911
20967.30078 0.887124
20978.40039 0.886917
20989.50000 0.891366
21000.59961 0.89006
21011.69922 0.889296
21022.80078 0.888451
21033.90039 0.883756
21045.00000 0.8852
21056.09961 0.889133
21067.30078 0.888111
21078.40039 0.885162
21089.50000 0.886923
21100.59961 0.884593
21111.69922 0.884158
21122.80078 0.887542
21133.90039 0.885956
21145.00000 0.884821
21156.09961 0.885524
21167.19922 0.886095
21178.40039 0.884396
21189.50000 0.885729
21200.59961 0.886219
21211.69922 0.884752
21222.80078 0.886408
21233.90039 0.887917
21245.00000 0.885506
21256.09961 0.88504
21267.19922 0.884939
21278.30078 0.888418
21289.50000 0.888196
21300.59961 0.885439
21311.69922 0.887535
21322.80078 0.886514
21333.90039 0.88614
21345.00000 0.889277
21356.09961 0.890485
21367.19922 0.887347
21378.30078 0.887382
21389.50000 0.888027
21400.59961 0.887809
21411.69922 0.888758
21422.80078 0.889095
21433.90039 0.889536
21445.00000 0.890102
21456.09961 0.889043
21467.19922 0.886422
21478.30078 0.886691
21489.40039 0.890739
21500.50000 0.891843
21511.69922 0.88795
21522.80078 0.885661
21533.90039 0.88706
21545.00000 0.88771
21556.09961 0.887436
21567.19922 0.889864
21578.30078 0.887266
21589.40039 0.885626
21600.50000 0.88389
21611.69922 0.884903
21622.80078 0.88526
21633.90039 0.884119
21645.00000 0.884347
21656.09961 0.883203
21667.19922 0.881911
21678.30078 0.882105
21689.40039 0.881673
21700.50000 0.879985
21711.59961 0.879798
21722.80078 0.880366
21733.90039 0.879758
21745.00000 0.877484
21756.09961 0.87663
21767.19922 0.875538
21778.30078 0.87726
21789.40039 0.877296
21800.50000 0.874783
21811.59961 0.871951
21822.69922 0.871627
21833.90039 0.873013
21845.00000 0.872532
21856.09961 0.873154
21867.19922 0.87062
21878.30078 0.869874
21889.40039 0.87021
21900.50000 0.867178
21911.59961 0.868701
21922.69922 0.870068
21933.80078 0.867257
21944.90039 0.868833
21956.09961 0.867069
21967.19922 0.866178
21978.30078 0.864828
21989.40039 0.867296
22000.50000 0.869761
22011.59961 0.865571
22022.69922 0.864426
22033.80078 0.865477
22044.90039 0.866506
22056.00000 0.867113
22067.19922 0.864801
22078.30078 0.864788
22089.40039 0.867136
22100.50000 0.867776
22111.59961 0.866119
22122.69922 0.864601
22133.80078 0.866655
22144.90039 0.869106
22156.00000 0.869068
22167.19922 0.86871
22178.30078 0.864627
22189.40039 0.866711
22200.50000 0.868435
22211.59961 0.871597
22222.69922 0.870308
22233.80078 0.867364
22244.90039 0.869811
22256.00000 0.869732
22267.09961 0.868384
22278.19922 0.871953
22289.40039 0.872374
22300.50000 0.872226
22311.59961 0.871836
22322.69922 0.869456
22333.80078 0.869577
22344.90039 0.871964
22356.00000 0.875272
22367.09961 0.873119
22378.19922 0.869465
22389.30078 0.870003
22400.50000 0.873355
22411.59961 0.874545
22422.69922 0.869361
22433.80078 0.871104
22444.90039 0.873561
22456.00000 0.870019
22467.09961 0.870375
22478.19922 0.868359
22489.30078 0.869574
22500.50000 0.872292
22511.59961 0.869121
22522.69922 0.8673
22533.80078 0.867966
22544.90039 0.867947
22556.00000 0.86499
22567.09961 0.865685
22578.19922 0.867591
22589.30078 0.866811
22600.40039 0.862113
22611.59961 0.860434
22622.69922 0.86223
22633.80078 0.862402
22644.90039 0.86167
22656.00000 0.860652
22667.09961 0.859277
22678.19922 0.856503
22689.30078 0.854721
22700.40039 0.858435
22711.50000 0.856279
22722.59961 0.853724
22733.80078 0.855663
22744.90039 0.851553
22756.00000 0.85042
22767.09961 0.852774
22778.19922 0.852007
22789.30078 0.849742
22800.40039 0.852134
22811.50000 0.851299
22822.59961 0.845238
22833.80078 0.846746
22844.90039 0.851501
22856.00000 0.849817
22867.09961 0.847952
22878.19922 0.849413
22889.30078 0.845227
22900.40039 0.847483
22911.50000 0.846055
22922.59961 0.847373
22933.69922 0.848007
22944.90039 0.846941
22956.00000 0.849377
22967.09961 0.847754
22978.19922 0.843988
22989.30078 0.846949
23000.40039 0.849911
23011.50000 0.848521
23022.59961 0.849264
23033.69922 0.848266
23044.80078 0.846427
23055.90039 0.848783
23067.09961 0.852343
23078.19922 0.851406
23089.30078 0.849225
23100.40039 0.851874
23111.50000 0.852796
23122.59961 0.850718
23133.69922 0.850169
23144.80078 0.853456
23155.90039 0.855141
23167.00000 0.853524
23178.19922 0.85329
23189.30078 0.852941
23200.40039 0.851134
23211.50000 0.856223
23222.59961 0.857876
23233.69922 0.854868
23244.80078 0.853295
23255.90039 0.853444
23267.00000 0.854992
23278.19922 0.855726
23289.30078 0.85498
23300.40039 0.854523
23311.50000 0.85271
23322.59961 0.854079
23333.69922 0.854289
23344.80078 0.851798
23355.90039 0.851912
23367.00000 0.853852
23378.09961 0.851588
23389.19922 0.850752
23400.40039 0.848671
23411.50000 0.846306
23422.59961 0.848782
23433.69922 0.850358
23444.80078 0.846877
23455.90039 0.844271
23467.00000 0.843838
23478.09961 0.840876
23489.19922 0.84285
23500.30078 0.841664
23511.50000 0.839845
23522.59961 0.840343
23533.69922 0.836228
23544.80078 0.834969
23555.90039 0.83349
23567.00000 0.833957
23578.09961 0.835066
23589.19922 0.830306
23600.30078 0.830489
23611.50000 0.828133
23622.59961 0.82686
23633.69922 0.82738
23644.80078 0.827517
23655.90039 0.827239
23667.00000 0.824057
23678.09961 0.822554
23689.19922 0.823694
23700.30078 0.82338
23711.40039 0.823108
23722.59961 0.820179
23733.69922 0.822891
23744.80078 0.822598
23755.90039 0.821214
23767.00000 0.819315
23778.09961 0.820712
23789.19922 0.82331
23800.30078 0.822239
23811.40039 0.820516
23822.50000 0.820853
23833.59961 0.822409
23844.80078 0.824468
23855.90039 0.823988
23867.00000 0.823063
23878.09961 0.826063
23889.19922 0.82783
23900.30078 0.827141
23911.40039 0.824827
23922.50000 0.828277
23933.59961 0.83226
23944.80078 0.831703
23955.90039 0.832172
23967.00000 0.832294
23978.09961 0.831726
23989.19922 0.832997
24000.30078 0.837876
24011.40039 0.838266
24022.50000 0.836473
24033.59961 0.837581
24044.69922 0.836838
24055.80078 0.839775
24067.00000 0.840013
24078.09961 0.839072
24089.19922 0.839429
24100.30078 0.837346
24111.40039 0.841949
24122.50000 0.838048
24133.59961 0.8362
24144.69922 0.840798
24155.80078 0.838204
24167.00000 0.836058
24178.09961 0.833916
24189.19922 0.833785
24200.30078 0.830452
24211.40039 0.830578
24222.50000 0.827797
24233.59961 0.827705
24244.69922 0.825121
24255.80078 0.821939
24266.90039 0.818621
24278.00000 0.814838
24289.19922 0.8138
24300.30078 0.815273
24311.40039 0.809491
24322.50000 0.803175
24333.59961 0.803197
24344.69922 0.80208
24355.80078 0.797367
24366.90039 0.795383
24378.00000 0.794742
24389.19922 0.790743
24400.30078 0.787927
24411.40039 0.787771
24422.50000 0.785795
24433.59961 0.782956
24444.69922 0.783401
24455.80078 0.781925
24466.90039 0.78029
24478.00000 0.77974
24489.09961 0.78133
24500.19922 0.780998
24511.40039 0.780839
24522.50000 0.784922
24533.59961 0.783915
24544.69922 0.783301
24555.80078 0.787624
24566.90039 0.791733
24578.00000 0.792752
24589.09961 0.795961
24600.19922 0.799897
24611.40039 0.801499
24622.50000 0.804275
24633.59961 0.808949
24644.69922 0.810649
24655.80078 0.813646
24666.90039 0.816329
24678.00000 0.816951
24689.09961 0.813985
24700.19922 0.813206
24711.30078 0.815302
24722.40039 0.807971
24733.59961 0.799938
24744.69922 0.793634
24755.80078 0.782352
24766.90039 0.766728
24778.00000 0.751188
24789.09961 0.735231
24800.19922 0.713761
24811.30078 0.689467
24822.40039 0.665654
24833.50000 0.635899
24844.69922 0.606268
24855.80078 0.577461
24866.90039 0.546466
24878.00000 0.513798
24889.09961 0.480887
24900.19922 0.450132
24911.30078 0.416612
24922.40039 0.38785
24933.50000 0.35776
24944.69922 0.32975
24955.80078 0.304349
24966.90039 0.278756
24978.00000 0.255299
24989.09961 0.233472
25000.19922 0.2148
25011.30078 0.1956
25022.40039 0.177766
25033.50000 0.162845
25044.59961 0.148133
25055.80078 0.135047
25066.90039 0.123044
25078.00000 0.112526
25089.09961 0.102533
25100.19922 0.0934653
25111.30078 0.0855203
25122.40039 0.0777675
25133.50000 0.0713562
25144.59961 0.0654311
25155.69922 0.0599419
25166.80078 0.0547155
25178.00000 0.0500295
25189.09961 0.0459588
25200.19922 0.04229
25211.30078 0.0391152
25222.40039 0.0359855
25233.50000 0.0336483
25244.59961 0.0310024
25255.69922 0.0286454
25266.80078 0.0267696
25278.00000 0.0248489
25289.09961 0.0229394
25300.19922 0.021243
25311.30078 0.0196937
25322.40039 0.0181848
25333.50000 0.0169793
25344.59961 0.015748
25355.69922 0.0145934
25366.80078 0.0136909
25377.90039 0.0127568
25389.09961 0.0118512
25400.19922 0.0112478
25411.30078 0.0104402
25422.40039 0.00981332
25433.50000 0.00919956
25444.59961 0.00858129
25455.69922 0.00803436
25466.80078 0.00754063
25477.90039 0.00703652
25489.00000 0.00657795
25500.09961 0.00618595
25511.30078 0.00585635
25522.40039 0.00552414
25533.50000 0.00528425
25544.59961 0.00486199
25555.69922 0.00471557
25566.80078 0.00454101
25577.90039 0.00430076
25589.00000 0.00414999
25600.09961 0.00392162
25611.19922 0.00355336
25622.40039 0.00344604
25633.50000 0.00322836
25644.59961 0.0031295
25655.69922 0.00286368
25666.80078 0.00280804
25677.90039 0.00267732
25689.00000 0.00242979
25700.09961 0.0022796
25711.19922 0.00221372
25722.40039 0.00213065
25733.50000 0.00192878
25744.59961 0.00183548
25755.69922 0.00181895
25766.80078 0.0017498
25777.90039 0.00170332
25789.00000 0.00161612
25800.09961 0.00141702
25811.19922 0.00140536
25822.30078 0.00134121
25833.40039 0.00136957
25844.59961 0.00125453
25855.69922 0.00113738
25866.80078 0.0013003
25877.90039 0.00104381
25889.00000 0.000984734
25900.09961 0.000999876
25911.19922 0.000942445
25922.30078 0.000871879
25933.40039 0.000832658
25944.50000 0.000918877
25955.69922 0.000907089
25966.80078 0.000747821
25977.90039 0.000650857
25989.00000 0.000647381
26000.09961 0.000667293
26011.19922 0.000628009
26022.30078 0.000568634
26033.40039 0.000455016
26044.50000 0.000526779
26055.69922 0.000570535
26066.80078 0.000452022
26077.90039 0.000506087
26089.00000 0.00048916
26100.09961 0.000409944
26111.19922 0.000480331
26122.30078 0.000412502
26133.40039 0.000394831
26144.50000 0.000383957
26155.59961 0.00035536
26166.80078 0.000317232
26177.90039 0.000268103
26189.00000 0.000290949
26200.09961 0.000335804
26211.19922 0.000302063
26222.30078 0.000236778
26233.40039 0.000309722
26244.50000 0.000397528
26255.59961 0.000357959
26266.69922 0.000304179
26277.80078 0.000271401
26289.00000 0.000243125
26300.09961 0.00033022
26311.19922 0.000186624
26322.30078 0.000241251
26333.40039 0.000242754
26344.50000 0.000206394
26355.59961 0.000176898
26366.69922 0.000108941
26377.80078 0.000286317
26389.00000 0.000275099
26400.09961 0.000163148
26411.19922 0.000141869
26422.30078 0.00019738
26433.40039 0.000218288
26444.50000 0.000166252
26455.59961 0.000120127
26466.69922 0.000112082
26477.80078 0.000151292
26488.90039 0.00030744
26500.09961 0.000136699
26511.19922 8.42916e-05
26522.30078 7.33189e-05
26533.40039 0.000130301
26544.50000 0.000131348
26555.59961 0.000138397
26566.69922 0.000133867
26577.80078 0.000226864
26588.90039 0.0
26600.00000 0.00018448
26611.09961 0.000175799
26622.30078 0.0
26633.40039 8.23364e-05
26644.50000 7.70656e-05
26655.59961 3.74858e-05
26666.69922 0.000123829
26677.80078 0.0
26688.90039 5.97983e-05
26700.00000 0.000215218
26711.09961 0.000118702
26722.19922 2.90077e-05
26733.40039 0.000185094
26744.50000 0.000157029
26755.59961 0.000113639
26766.69922 8.22159e-05
26777.80078 0.0
26788.90039 0.000304973
26800.00000 0.0
26811.09961 0.0
26822.19922 0.000162976
26833.30078 0.000345712
26844.50000 6.56888e-05
26855.59961 0.0
26866.69922 0.0
26877.80078 5.4437e-06
26888.90039 0.000278477
26900.00000 4.27869e-05
26911.09961 0.0
26922.19922 7.23713e-05
26933.30078 0.0
26944.50000 0.0
26955.59961 0.0
26966.69922 8.14714e-05
26977.80078 0.0
26988.90039 1.76134e-05
27000.00000 0.0
