# %ECSV 0.9
# ---
# datatype:
# - {name: wavelength, unit: Angstrom, datatype: float32}
# - {name: response, datatype: float32}
# meta: !!omap
# - {band_name: Y}
# - {group_name: MMIRS}
wavelength response
8000.00000 0.0
8010.00000 2.9e-05
8020.00000 2e-06
8030.00000 0.0
8040.00000 1.5e-05
8050.00000 3.4e-05
8060.00000 5.3e-05
8070.00000 6.2e-05
8080.00000 0.000219
8090.00000 0.000169
8100.00000 7e-06
8110.00000 1.7e-05
8120.00000 3.7e-05
8130.00000 7.4e-05
8140.00000 1.6e-05
8150.00000 0.0
8160.00000 0.0
8170.00000 8e-06
8180.00000 3.9e-05
8190.00000 0.0
8200.00000 9e-06
8210.00000 1.3e-05
8220.00000 5e-05
8230.00000 5.3e-05
8240.00000 0.0
8250.00000 9e-06
8260.00000 4e-06
8270.00000 3.7e-05
8280.00000 5.4e-05
8290.00000 0.0
8300.00000 0.0
8310.00000 0.0
8320.00000 2.1e-05
8330.00000 3.9e-05
8340.00000 0.0
8350.00000 0.0
8360.00000 0.0
8370.00000 3.5e-05
8380.00000 5.1e-05
8390.00000 3e-06
8400.00000 4.3e-05
8410.00000 3e-05
8420.00000 6.9e-05
8430.00000 5.1e-05
8440.00000 0.0
8450.00000 1.3e-05
8460.00000 0.0
8470.00000 4.2e-05
8480.00000 4.8e-05
8490.00000 0.0
8500.00000 3.1e-05
8510.00000 1.5e-05
8520.00000 6e-05
8530.00000 8.6e-05
8540.00000 6.4e-05
8550.00000 9.6e-05
8560.00000 8.8e-05
8570.00000 0.000138
8580.00000 0.000194
8590.00000 0.000349
8600.00000 0.000891
8610.00000 0.000574
8620.00000 0.000245
8630.00000 0.0
8640.00000 0.0
8650.00000 7.2e-05
8660.00000 0.000125
8670.00000 0.000163
8680.00000 0.000297
8690.00000 0.000285
8700.00000 0.000501
8710.00000 0.000448
8720.00000 0.000607
8730.00000 0.000293
8740.00000 2.4e-05
8750.00000 0.000123
8760.00000 0.000258
8770.00000 0.000396
8780.00000 0.000195
8790.00000 0.000519
8800.00000 0.000475
8810.00000 0.0
8820.00000 0.0
8830.00000 0.000226
8840.00000 0.000319
8850.00000 7.8e-05
8860.00000 0.000499
8870.00000 0.000455
8880.00000 0.0
8890.00000 0.0
8900.00000 0.000195
8910.00000 0.000262
8920.00000 0.00017
8930.00000 0.000489
8940.00000 0.000503
8950.00000 6.4e-05
8960.00000 0.000147
8970.00000 7.5e-05
8980.00000 0.000294
8990.00000 0.000502
9000.00000 0.000695
9010.00000 0.000398
9020.00000 4.8e-05
9030.00000 0.000328
9040.00000 0.000428
9050.00000 0.000585
9060.00000 0.000359
9070.00000 0.000381
9080.00000 0.00038
9090.00000 0.000218
9100.00000 0.000348
9110.00000 0.00035
9120.00000 0.000494
9130.00000 0.000418
9140.00000 0.000573
9150.00000 0.000386
9160.00000 0.000572
9170.00000 0.000465
9180.00000 0.000571
9190.00000 0.00058
9200.00000 0.000386
9210.00000 0.000639
9220.00000 0.00106
9230.00000 0.001284
9240.00000 0.000945
9250.00000 0.000875
9260.00000 0.001018
9270.00000 0.001263
9280.00000 0.001158
9290.00000 0.001406
9300.00000 0.00152
9310.00000 0.001645
9320.00000 0.001884
9330.00000 0.002381
9340.00000 0.002612
9350.00000 0.002938
9360.00000 0.003207
9370.00000 0.004142
9380.00000 0.004854
9390.00000 0.005626
9400.00000 0.006387
9410.00000 0.007664
9420.00000 0.009122
9430.00000 0.010335
9440.00000 0.011136
9450.00000 0.01253
9460.00000 0.014317
9470.00000 0.016202
9480.00000 0.017643
9490.00000 0.019185
9500.00000 0.021292
9510.00000 0.024228
9520.00000 0.027443
9530.00000 0.031566
9540.00000 0.037184
9550.00000 0.04419
9560.00000 0.053891
9570.00000 0.065934
9580.00000 0.083495
9590.00000 0.10668
9600.00000 0.13372
9610.00000 0.17036
9620.00000 0.21734
9630.00000 0.27174
9640.00000 0.34075
9650.00000 0.4114
9660.00000 0.48751
9670.00000 0.56808
9680.00000 0.64339
9690.00000 0.71738
9700.00000 0.77603
9710.00000 0.82323
9720.00000 0.86142
9730.00000 0.88688
9740.00000 0.9057
9750.00000 0.91626
9760.00000 0.92266
9770.00000 0.92644
9780.00000 0.92807
9790.00000 0.9269
9800.00000 0.92507
9810.00000 0.92385
9820.00000 0.92123
9830.00000 0.91741
9840.00000 0.91449
9850.00000 0.91406
9860.00000 0.91502
9870.00000 0.91646
9880.00000 0.91749
9890.00000 0.91916
9900.00000 0.92267
9910.00000 0.92467
9920.00000 0.92658
9930.00000 0.92833
9940.00000 0.92816
9950.00000 0.9292
9960.00000 0.93049
9970.00000 0.92993
9980.00000 0.9307
9990.00000 0.93223
10000.00000 0.93242
10010.00000 0.93301
10020.00000 0.93369
10030.00000 0.93254
10040.00000 0.93165
10050.00000 0.93167
10060.00000 0.93012
10070.00000 0.92892
10080.00000 0.92898
10090.00000 0.92839
10100.00000 0.92828
10110.00000 0.92947
10120.00000 0.92921
10130.00000 0.92828
10140.00000 0.92801
10150.00000 0.9264
10160.00000 0.9227
10170.00000 0.91897
10180.00000 0.91536
10190.00000 0.91089
10200.00000 0.9075
10210.00000 0.90654
10220.00000 0.90746
10230.00000 0.90762
10240.00000 0.91127
10250.00000 0.91706
10260.00000 0.92075
10270.00000 0.9241
10280.00000 0.92891
10290.00000 0.93232
10300.00000 0.93201
10310.00000 0.93107
10320.00000 0.93007
10330.00000 0.9287
10340.00000 0.92566
10350.00000 0.92407
10360.00000 0.92479
10370.00000 0.92628
10380.00000 0.92763
10390.00000 0.9301
10400.00000 0.93311
10410.00000 0.9377
10420.00000 0.94103
10430.00000 0.94211
10440.00000 0.94188
10450.00000 0.94109
10460.00000 0.94058
10470.00000 0.93901
10480.00000 0.93554
10490.00000 0.93422
10500.00000 0.93395
10510.00000 0.93315
10520.00000 0.93567
10530.00000 0.93797
10540.00000 0.93979
10550.00000 0.94189
10560.00000 0.9435
10570.00000 0.94416
10580.00000 0.94363
10590.00000 0.93972
10600.00000 0.93515
10610.00000 0.92724
10620.00000 0.91704
10630.00000 0.90295
10640.00000 0.88454
10650.00000 0.86232
10660.00000 0.82713
10670.00000 0.7857
10680.00000 0.7373
10690.00000 0.68511
10700.00000 0.62111
10710.00000 0.55755
10720.00000 0.49457
10730.00000 0.44016
10740.00000 0.3846
10750.00000 0.33724
10760.00000 0.29644
10770.00000 0.26139
10780.00000 0.23385
10790.00000 0.20732
10800.00000 0.1859
10810.00000 0.16628
10820.00000 0.14981
10830.00000 0.13418
10840.00000 0.12043
10850.00000 0.10869
10860.00000 0.095565
10870.00000 0.08412
10880.00000 0.073292
10890.00000 0.063288
10900.00000 0.054703
10910.00000 0.047008
10920.00000 0.040662
10930.00000 0.034537
10940.00000 0.029647
10950.00000 0.025463
10960.00000 0.022143
10970.00000 0.019133
10980.00000 0.016923
10990.00000 0.014728
11000.00000 0.013359
11010.00000 0.012178
11020.00000 0.011204
11030.00000 0.010503
11040.00000 0.009997
11050.00000 0.009561
11060.00000 0.009229
11070.00000 0.008794
11080.00000 0.00832
11090.00000 0.008055
11100.00000 0.007489
11110.00000 0.007254
11120.00000 0.006844
11130.00000 0.006249
11140.00000 0.005843
11150.00000 0.00531
11160.00000 0.004422
11170.00000 0.004002
11180.00000 0.003515
11190.00000 0.002972
11200.00000 0.002537
11210.00000 0.002047
11220.00000 0.001647
11230.00000 0.001594
11240.00000 0.001706
11250.00000 0.001682
11260.00000 0.001357
11270.00000 0.001032
11280.00000 0.000991
11290.00000 0.000878
11300.00000 0.000774
11310.00000 0.000784
11320.00000 0.000644
11330.00000 0.000721
11340.00000 0.000727
11350.00000 0.000539
11360.00000 0.000453
11370.00000 0.000731
11380.00000 0.000775
11390.00000 0.000865
11400.00000 0.000888
11410.00000 0.000925
11420.00000 0.001009
11430.00000 0.000904
11440.00000 0.001023
11450.00000 0.001183
11460.00000 0.00108
11470.00000 0.000975
11480.00000 0.000952
11490.00000 0.000753
11500.00000 0.0007
11510.00000 0.00066
11520.00000 0.000502
11530.00000 0.000374
11540.00000 0.000226
11550.00000 5.9e-05
11560.00000 0.000239
11570.00000 0.000506
11580.00000 0.000721
11590.00000 0.000619
11600.00000 0.000459
11610.00000 0.000534
11620.00000 0.000612
11630.00000 0.000523
11640.00000 0.000439
11650.00000 0.000243
11660.00000 0.000141
11670.00000 0.000248
11680.00000 0.000195
11690.00000 0.000146
11700.00000 0.000214
11710.00000 1.6e-05
11720.00000 0.0
11730.00000 2.4e-05
11740.00000 1.5e-05
11750.00000 0.0
11760.00000 0.0
11770.00000 0.0
11780.00000 0.0
11790.00000 0.0
11800.00000 0.0
11810.00000 0.0
11820.00000 0.0
11830.00000 0.0
11840.00000 0.0
11850.00000 0.0
11860.00000 0.0
11870.00000 0.0
11880.00000 0.0
11890.00000 0.0
11900.00000 1e-06
11910.00000 0.000477
11920.00000 0.000212
11930.00000 0.000241
11940.00000 0.00037
11950.00000 0.000275
11960.00000 0.000225
11970.00000 0.000263
11980.00000 0.0
11990.00000 3.4e-05
12000.00000 0.000117
12010.00000 4.7e-05
12020.00000 6e-05
12030.00000 0.0
12040.00000 0.0
12050.00000 0.0
12060.00000 0.0
12070.00000 0.0
12080.00000 0.0
12090.00000 0.0
12100.00000 0.000354
12110.00000 0.000581
12120.00000 0.000526
12130.00000 0.000599
12140.00000 0.000587
12150.00000 0.000377
12160.00000 0.000393
12170.00000 0.000503
12180.00000 0.000382
12190.00000 0.000564
12200.00000 0.000421
12210.00000 0.00039
12220.00000 0.000535
12230.00000 0.000653
12240.00000 0.000422
12250.00000 0.000569
12260.00000 0.00042
12270.00000 0.000353
12280.00000 0.000454
12290.00000 0.000484
12300.00000 0.000267
12310.00000 0.000419
12320.00000 0.000122
12330.00000 0.00026
12340.00000 0.000379
12350.00000 0.0004
12360.00000 0.000256
12370.00000 0.000331
12380.00000 0.0
12390.00000 0.000164
12400.00000 0.000309
12410.00000 0.000174
12420.00000 2.4e-05
12430.00000 0.000175
12440.00000 0.0
12450.00000 0.000127
12460.00000 0.000228
12470.00000 0.000182
12480.00000 0.00052
12490.00000 0.000365
12500.00000 0.000176
13750.00000 0.0
