# %ECSV 0.9
# ---
# datatype:
# - {name: wavelength, unit: Angstrom, datatype: float32}
# - {name: response, datatype: float32}
# meta: !!omap
# - {band_name: r}
# - {group_name: LSST}
wavelength response
5370.00000 0.0
5371.00000 0.000826583
5372.00000 0.00165328
5373.00000 0.00248008
5374.00000 0.003307
5375.00000 0.00413403
5376.00000 0.0049623
5377.00000 0.00581282
5378.00000 0.00666384
5379.00000 0.00749358
5380.00000 0.0083238
5381.00000 0.00915269
5382.00000 0.00998173
5383.00000 0.0108109
5384.00000 0.0116403
5385.00000 0.0124698
5386.00000 0.0132995
5387.00000 0.0141293
5388.00000 0.0149593
5389.00000 0.0158113
5390.00000 0.0166635
5391.00000 0.0174928
5392.00000 0.0183221
5393.00000 0.0191515
5394.00000 0.0199809
5395.00000 0.0208103
5396.00000 0.0216397
5397.00000 0.0224692
5398.00000 0.0232986
5399.00000 0.024128
5400.00000 0.0249573
5401.00000 0.0258071
5402.00000 0.0266568
5403.00000 0.0274845
5404.00000 0.028312
5405.00000 0.0291394
5406.00000 0.0299599
5407.00000 0.0307798
5408.00000 0.0315992
5409.00000 0.032418
5410.00000 0.0332363
5411.00000 0.0340674
5412.00000 0.0348985
5413.00000 0.0357516
5414.00000 0.0366049
5415.00000 0.0374366
5416.00000 0.0382685
5417.00000 0.0391005
5418.00000 0.0399328
5419.00000 0.0407652
5420.00000 0.0415979
5421.00000 0.043254
5422.00000 0.0449102
5423.00000 0.0465881
5424.00000 0.048266
5425.00000 0.049922
5426.00000 0.0515896
5427.00000 0.0532579
5428.00000 0.0549268
5429.00000 0.0566183
5430.00000 0.0583104
5431.00000 0.0599677
5432.00000 0.061625
5433.00000 0.0632822
5434.00000 0.0649393
5435.00000 0.0666182
5436.00000 0.068297
5437.00000 0.0699539
5438.00000 0.0716108
5439.00000 0.0732677
5440.00000 0.0749246
5441.00000 0.0766044
5442.00000 0.0782843
5443.00000 0.0799426
5444.00000 0.081601
5445.00000 0.0832598
5446.00000 0.0849187
5447.00000 0.0865779
5448.00000 0.0882374
5449.00000 0.0899189
5450.00000 0.0916006
5451.00000 0.0932661
5452.00000 0.0949319
5453.00000 0.0965981
5454.00000 0.0982647
5455.00000 0.0999534
5456.00000 0.101642
5457.00000 0.10331
5458.00000 0.104978
5459.00000 0.106646
5460.00000 0.108315
5461.00000 0.110002
5462.00000 0.111689
5463.00000 0.113354
5464.00000 0.115019
5465.00000 0.116685
5466.00000 0.11835
5467.00000 0.120038
5468.00000 0.121726
5469.00000 0.123392
5470.00000 0.125058
5471.00000 0.12677
5472.00000 0.128483
5473.00000 0.130219
5474.00000 0.131957
5475.00000 0.133675
5476.00000 0.135363
5477.00000 0.137051
5478.00000 0.138741
5479.00000 0.140452
5480.00000 0.142165
5481.00000 0.143829
5482.00000 0.145492
5483.00000 0.147156
5484.00000 0.14882
5485.00000 0.150505
5486.00000 0.152191
5487.00000 0.153854
5488.00000 0.155518
5489.00000 0.157181
5490.00000 0.158845
5491.00000 0.16053
5492.00000 0.162216
5493.00000 0.163879
5494.00000 0.165543
5495.00000 0.167206
5496.00000 0.168908
5497.00000 0.17061
5498.00000 0.172313
5499.00000 0.174039
5500.00000 0.175765
5501.00000 0.177455
5502.00000 0.179144
5503.00000 0.180835
5504.00000 0.182526
5505.00000 0.184239
5506.00000 0.185952
5507.00000 0.187644
5508.00000 0.189337
5509.00000 0.19103
5510.00000 0.192723
5511.00000 0.194417
5512.00000 0.196112
5513.00000 0.197785
5514.00000 0.199458
5515.00000 0.201131
5516.00000 0.202804
5517.00000 0.204499
5518.00000 0.206194
5519.00000 0.207867
5520.00000 0.20954
5521.00000 0.211236
5522.00000 0.212932
5523.00000 0.214651
5524.00000 0.21637
5525.00000 0.218067
5526.00000 0.219765
5527.00000 0.221463
5528.00000 0.223162
5529.00000 0.224883
5530.00000 0.226605
5531.00000 0.22828
5532.00000 0.229955
5533.00000 0.23163
5534.00000 0.233305
5535.00000 0.235002
5536.00000 0.236699
5537.00000 0.238374
5538.00000 0.240049
5539.00000 0.241725
5540.00000 0.2434
5541.00000 0.2451
5542.00000 0.246801
5543.00000 0.24848
5544.00000 0.250158
5545.00000 0.251837
5546.00000 0.253573
5547.00000 0.25531
5548.00000 0.257048
5549.00000 0.258809
5550.00000 0.26057
5551.00000 0.262273
5552.00000 0.263975
5553.00000 0.265678
5554.00000 0.267381
5555.00000 0.269106
5556.00000 0.270769
5557.00000 0.272409
5558.00000 0.274048
5559.00000 0.275688
5560.00000 0.277326
5561.00000 0.278976
5562.00000 0.280624
5563.00000 0.28225
5564.00000 0.283876
5565.00000 0.285501
5566.00000 0.28719
5567.00000 0.288901
5568.00000 0.290613
5569.00000 0.292302
5570.00000 0.293992
5571.00000 0.295645
5572.00000 0.297297
5573.00000 0.298972
5574.00000 0.300646
5575.00000 0.302298
5576.00000 0.303949
5577.00000 0.305601
5578.00000 0.307252
5579.00000 0.308925
5580.00000 0.310597
5581.00000 0.312257
5582.00000 0.313917
5583.00000 0.315576
5584.00000 0.317236
5585.00000 0.318917
5586.00000 0.320599
5587.00000 0.322258
5588.00000 0.323917
5589.00000 0.325575
5590.00000 0.327234
5591.00000 0.328891
5592.00000 0.330547
5593.00000 0.332181
5594.00000 0.333815
5595.00000 0.335448
5596.00000 0.337005
5597.00000 0.338561
5598.00000 0.340116
5599.00000 0.341691
5600.00000 0.343266
5601.00000 0.34495
5602.00000 0.346635
5603.00000 0.348319
5604.00000 0.350004
5605.00000 0.351711
5606.00000 0.353418
5607.00000 0.355103
5608.00000 0.356789
5609.00000 0.358475
5610.00000 0.36016
5611.00000 0.361847
5612.00000 0.363533
5613.00000 0.365198
5614.00000 0.366862
5615.00000 0.368526
5616.00000 0.370107
5617.00000 0.371709
5618.00000 0.37331
5619.00000 0.374889
5620.00000 0.376466
5621.00000 0.378122
5622.00000 0.379779
5623.00000 0.381457
5624.00000 0.383135
5625.00000 0.384791
5626.00000 0.386447
5627.00000 0.387905
5628.00000 0.389364
5629.00000 0.390186
5630.00000 0.391009
5631.00000 0.391856
5632.00000 0.392704
5633.00000 0.393552
5634.00000 0.394399
5635.00000 0.395247
5636.00000 0.396095
5637.00000 0.396965
5638.00000 0.397835
5639.00000 0.398683
5640.00000 0.399531
5641.00000 0.400328
5642.00000 0.401125
5643.00000 0.401922
5644.00000 0.402719
5645.00000 0.403516
5646.00000 0.404404
5647.00000 0.405292
5648.00000 0.40618
5649.00000 0.407069
5650.00000 0.407958
5651.00000 0.408821
5652.00000 0.409685
5653.00000 0.410526
5654.00000 0.411367
5655.00000 0.412209
5656.00000 0.41305
5657.00000 0.413892
5658.00000 0.414733
5659.00000 0.415575
5660.00000 0.416416
5661.00000 0.417318
5662.00000 0.41822
5663.00000 0.418507
5664.00000 0.418795
5665.00000 0.418863
5666.00000 0.418931
5667.00000 0.418999
5668.00000 0.419067
5669.00000 0.419135
5670.00000 0.419204
5671.00000 0.419239
5672.00000 0.419274
5673.00000 0.419309
5674.00000 0.419345
5675.00000 0.41938
5676.00000 0.419415
5677.00000 0.41945
5678.00000 0.419485
5679.00000 0.419521
5680.00000 0.419556
5681.00000 0.419524
5682.00000 0.419492
5683.00000 0.41946
5684.00000 0.419428
5685.00000 0.419396
5686.00000 0.419364
5687.00000 0.419332
5688.00000 0.4193
5689.00000 0.419267
5690.00000 0.419235
5691.00000 0.419286
5692.00000 0.419337
5693.00000 0.419387
5694.00000 0.419438
5695.00000 0.419489
5696.00000 0.41954
5697.00000 0.41959
5698.00000 0.419641
5699.00000 0.419692
5700.00000 0.419743
5701.00000 0.419896
5702.00000 0.42005
5703.00000 0.420204
5704.00000 0.420357
5705.00000 0.420511
5706.00000 0.420569
5707.00000 0.420628
5708.00000 0.420686
5709.00000 0.420745
5710.00000 0.420803
5711.00000 0.420869
5712.00000 0.420934
5713.00000 0.420999
5714.00000 0.421064
5715.00000 0.421129
5716.00000 0.421195
5717.00000 0.42126
5718.00000 0.421325
5719.00000 0.42139
5720.00000 0.421456
5721.00000 0.421494
5722.00000 0.421533
5723.00000 0.421572
5724.00000 0.421611
5725.00000 0.42165
5726.00000 0.421689
5727.00000 0.421728
5728.00000 0.421767
5729.00000 0.421806
5730.00000 0.421844
5731.00000 0.421997
5732.00000 0.422149
5733.00000 0.422302
5734.00000 0.422454
5735.00000 0.422606
5736.00000 0.422663
5737.00000 0.42272
5738.00000 0.422777
5739.00000 0.422834
5740.00000 0.422891
5741.00000 0.422988
5742.00000 0.423085
5743.00000 0.423182
5744.00000 0.423279
5745.00000 0.423376
5746.00000 0.423473
5747.00000 0.42357
5748.00000 0.423667
5749.00000 0.423764
5750.00000 0.423861
5751.00000 0.424006
5752.00000 0.424151
5753.00000 0.424296
5754.00000 0.424441
5755.00000 0.424586
5756.00000 0.424635
5757.00000 0.424684
5758.00000 0.424733
5759.00000 0.424782
5760.00000 0.424831
5761.00000 0.424979
5762.00000 0.425128
5763.00000 0.425276
5764.00000 0.425424
5765.00000 0.425572
5766.00000 0.425625
5767.00000 0.425677
5768.00000 0.425729
5769.00000 0.425781
5770.00000 0.425834
5771.00000 0.42596
5772.00000 0.426086
5773.00000 0.426211
5774.00000 0.426337
5775.00000 0.426463
5776.00000 0.426493
5777.00000 0.426523
5778.00000 0.426553
5779.00000 0.426582
5780.00000 0.426612
5781.00000 0.42677
5782.00000 0.426927
5783.00000 0.427085
5784.00000 0.427243
5785.00000 0.427401
5786.00000 0.427462
5787.00000 0.427524
5788.00000 0.427585
5789.00000 0.427647
5790.00000 0.427708
5791.00000 0.427856
5792.00000 0.428005
5793.00000 0.428153
5794.00000 0.428301
5795.00000 0.428449
5796.00000 0.428501
5797.00000 0.428553
5798.00000 0.428604
5799.00000 0.428656
5800.00000 0.428708
5801.00000 0.428741
5802.00000 0.428774
5803.00000 0.428807
5804.00000 0.428841
5805.00000 0.428874
5806.00000 0.429003
5807.00000 0.429133
5808.00000 0.429263
5809.00000 0.429392
5810.00000 0.429522
5811.00000 0.429513
5812.00000 0.429505
5813.00000 0.429496
5814.00000 0.429487
5815.00000 0.429478
5816.00000 0.429566
5817.00000 0.429654
5818.00000 0.429742
5819.00000 0.42983
5820.00000 0.429917
5821.00000 0.429944
5822.00000 0.429972
5823.00000 0.429999
5824.00000 0.430026
5825.00000 0.430053
5826.00000 0.430177
5827.00000 0.4303
5828.00000 0.430424
5829.00000 0.430547
5830.00000 0.430671
5831.00000 0.430721
5832.00000 0.430771
5833.00000 0.43082
5834.00000 0.43087
5835.00000 0.43092
5836.00000 0.430969
5837.00000 0.431018
5838.00000 0.431067
5839.00000 0.431116
5840.00000 0.431165
5841.00000 0.431179
5842.00000 0.431194
5843.00000 0.431208
5844.00000 0.431223
5845.00000 0.431239
5846.00000 0.431351
5847.00000 0.431464
5848.00000 0.431577
5849.00000 0.431691
5850.00000 0.431806
5851.00000 0.431843
5852.00000 0.431882
5853.00000 0.431921
5854.00000 0.431962
5855.00000 0.432004
5856.00000 0.432046
5857.00000 0.43209
5858.00000 0.432135
5859.00000 0.432181
5860.00000 0.432228
5861.00000 0.432223
5862.00000 0.432219
5863.00000 0.432216
5864.00000 0.432212
5865.00000 0.432209
5866.00000 0.432206
5867.00000 0.432202
5868.00000 0.432199
5869.00000 0.432195
5870.00000 0.432192
5871.00000 0.432157
5872.00000 0.432122
5873.00000 0.432087
5874.00000 0.432052
5875.00000 0.432016
5876.00000 0.431884
5877.00000 0.431751
5878.00000 0.431619
5879.00000 0.431486
5880.00000 0.431354
5881.00000 0.431079
5882.00000 0.430805
5883.00000 0.43053
5884.00000 0.430256
5885.00000 0.429981
5886.00000 0.429805
5887.00000 0.42963
5888.00000 0.429455
5889.00000 0.429279
5890.00000 0.429103
5891.00000 0.429104
5892.00000 0.429103
5893.00000 0.429101
5894.00000 0.429098
5895.00000 0.429092
5896.00000 0.428988
5897.00000 0.428882
5898.00000 0.428774
5899.00000 0.428664
5900.00000 0.428553
5901.00000 0.428682
5902.00000 0.42881
5903.00000 0.428935
5904.00000 0.429059
5905.00000 0.429181
5906.00000 0.429301
5907.00000 0.429419
5908.00000 0.429535
5909.00000 0.42965
5910.00000 0.429764
5911.00000 0.429644
5912.00000 0.429524
5913.00000 0.429404
5914.00000 0.429284
5915.00000 0.429165
5916.00000 0.42895
5917.00000 0.428735
5918.00000 0.42852
5919.00000 0.428306
5920.00000 0.428092
5921.00000 0.428025
5922.00000 0.427958
5923.00000 0.427892
5924.00000 0.427826
5925.00000 0.42776
5926.00000 0.427983
5927.00000 0.428207
5928.00000 0.42843
5929.00000 0.428652
5930.00000 0.428875
5931.00000 0.428911
5932.00000 0.428946
5933.00000 0.428982
5934.00000 0.429017
5935.00000 0.429053
5936.00000 0.428798
5937.00000 0.428544
5938.00000 0.428289
5939.00000 0.428035
5940.00000 0.427782
5941.00000 0.427368
5942.00000 0.426955
5943.00000 0.426543
5944.00000 0.426133
5945.00000 0.425724
5946.00000 0.425896
5947.00000 0.426068
5948.00000 0.426242
5949.00000 0.426418
5950.00000 0.426595
5951.00000 0.426839
5952.00000 0.427084
5953.00000 0.427331
5954.00000 0.427579
5955.00000 0.427829
5956.00000 0.427887
5957.00000 0.427947
5958.00000 0.428008
5959.00000 0.42807
5960.00000 0.428134
5961.00000 0.428096
5962.00000 0.428058
5963.00000 0.428021
5964.00000 0.427984
5965.00000 0.427947
5966.00000 0.427813
5967.00000 0.427679
5968.00000 0.427545
5969.00000 0.427411
5970.00000 0.427277
5971.00000 0.427247
5972.00000 0.427218
5973.00000 0.427188
5974.00000 0.427158
5975.00000 0.427128
5976.00000 0.427193
5977.00000 0.427259
5978.00000 0.427325
5979.00000 0.427391
5980.00000 0.427457
5981.00000 0.427459
5982.00000 0.427461
5983.00000 0.427463
5984.00000 0.427465
5985.00000 0.427468
5986.00000 0.427471
5987.00000 0.427475
5988.00000 0.42748
5989.00000 0.427484
5990.00000 0.427488
5991.00000 0.42755
5992.00000 0.42761
5993.00000 0.42767
5994.00000 0.427728
5995.00000 0.427784
5996.00000 0.427742
5997.00000 0.427698
5998.00000 0.427653
5999.00000 0.427605
6000.00000 0.427556
6001.00000 0.427594
6002.00000 0.427631
6003.00000 0.427665
6004.00000 0.427698
6005.00000 0.427729
6006.00000 0.427662
6007.00000 0.427593
6008.00000 0.427523
6009.00000 0.427451
6010.00000 0.427378
6011.00000 0.427369
6012.00000 0.42736
6013.00000 0.427351
6014.00000 0.427342
6015.00000 0.427333
6016.00000 0.427326
6017.00000 0.427319
6018.00000 0.427312
6019.00000 0.427305
6020.00000 0.427298
6021.00000 0.427319
6022.00000 0.42734
6023.00000 0.427361
6024.00000 0.427382
6025.00000 0.427404
6026.00000 0.427329
6027.00000 0.427254
6028.00000 0.427179
6029.00000 0.427104
6030.00000 0.427028
6031.00000 0.427015
6032.00000 0.427002
6033.00000 0.426988
6034.00000 0.426975
6035.00000 0.426962
6036.00000 0.427044
6037.00000 0.427127
6038.00000 0.427209
6039.00000 0.427292
6040.00000 0.427376
6041.00000 0.427339
6042.00000 0.427302
6043.00000 0.427267
6044.00000 0.427232
6045.00000 0.427199
6046.00000 0.427262
6047.00000 0.427327
6048.00000 0.427392
6049.00000 0.427459
6050.00000 0.427526
6051.00000 0.427518
6052.00000 0.42751
6053.00000 0.427503
6054.00000 0.427496
6055.00000 0.427489
6056.00000 0.427579
6057.00000 0.427669
6058.00000 0.427759
6059.00000 0.427849
6060.00000 0.42794
6061.00000 0.427946
6062.00000 0.427951
6063.00000 0.427957
6064.00000 0.427962
6065.00000 0.427967
6066.00000 0.428068
6067.00000 0.428168
6068.00000 0.428269
6069.00000 0.428369
6070.00000 0.42847
6071.00000 0.42846
6072.00000 0.428451
6073.00000 0.428442
6074.00000 0.428432
6075.00000 0.428423
6076.00000 0.428509
6077.00000 0.428595
6078.00000 0.428682
6079.00000 0.428768
6080.00000 0.428854
6081.00000 0.42889
6082.00000 0.428926
6083.00000 0.428962
6084.00000 0.428997
6085.00000 0.429033
6086.00000 0.429165
6087.00000 0.429296
6088.00000 0.429428
6089.00000 0.429559
6090.00000 0.42969
6091.00000 0.429742
6092.00000 0.429794
6093.00000 0.429846
6094.00000 0.429898
6095.00000 0.429949
6096.00000 0.430097
6097.00000 0.430244
6098.00000 0.430392
6099.00000 0.43054
6100.00000 0.430687
6101.00000 0.430838
6102.00000 0.43099
6103.00000 0.431141
6104.00000 0.431292
6105.00000 0.431444
6106.00000 0.431499
6107.00000 0.431554
6108.00000 0.43161
6109.00000 0.431665
6110.00000 0.431721
6111.00000 0.431848
6112.00000 0.431974
6113.00000 0.432101
6114.00000 0.432228
6115.00000 0.432355
6116.00000 0.432386
6117.00000 0.432417
6118.00000 0.432447
6119.00000 0.432478
6120.00000 0.432509
6121.00000 0.432709
6122.00000 0.432909
6123.00000 0.433109
6124.00000 0.433309
6125.00000 0.433508
6126.00000 0.433612
6127.00000 0.433716
6128.00000 0.43382
6129.00000 0.433924
6130.00000 0.434028
6131.00000 0.434162
6132.00000 0.434297
6133.00000 0.434431
6134.00000 0.434566
6135.00000 0.4347
6136.00000 0.434835
6137.00000 0.434969
6138.00000 0.435104
6139.00000 0.435238
6140.00000 0.435373
6141.00000 0.435454
6142.00000 0.435536
6143.00000 0.435617
6144.00000 0.435698
6145.00000 0.43578
6146.00000 0.435958
6147.00000 0.436136
6148.00000 0.436313
6149.00000 0.436491
6150.00000 0.436669
6151.00000 0.436717
6152.00000 0.436764
6153.00000 0.436811
6154.00000 0.436858
6155.00000 0.436906
6156.00000 0.437049
6157.00000 0.437193
6158.00000 0.437337
6159.00000 0.437481
6160.00000 0.437625
6161.00000 0.437737
6162.00000 0.437849
6163.00000 0.437961
6164.00000 0.438073
6165.00000 0.438185
6166.00000 0.438394
6167.00000 0.438603
6168.00000 0.438812
6169.00000 0.439021
6170.00000 0.43923
6171.00000 0.439268
6172.00000 0.439307
6173.00000 0.439345
6174.00000 0.439383
6175.00000 0.439422
6176.00000 0.439557
6177.00000 0.439692
6178.00000 0.439827
6179.00000 0.439963
6180.00000 0.440098
6181.00000 0.440177
6182.00000 0.440255
6183.00000 0.440334
6184.00000 0.440412
6185.00000 0.440491
6186.00000 0.44057
6187.00000 0.440648
6188.00000 0.440727
6189.00000 0.440805
6190.00000 0.440884
6191.00000 0.44103
6192.00000 0.441176
6193.00000 0.441322
6194.00000 0.441468
6195.00000 0.441614
6196.00000 0.441662
6197.00000 0.441711
6198.00000 0.44176
6199.00000 0.441809
6200.00000 0.441858
6201.00000 0.441982
6202.00000 0.442107
6203.00000 0.442231
6204.00000 0.442356
6205.00000 0.442481
6206.00000 0.442508
6207.00000 0.442535
6208.00000 0.442563
6209.00000 0.44259
6210.00000 0.442618
6211.00000 0.442674
6212.00000 0.44273
6213.00000 0.442786
6214.00000 0.442842
6215.00000 0.442898
6216.00000 0.443052
6217.00000 0.443205
6218.00000 0.443359
6219.00000 0.443512
6220.00000 0.443666
6221.00000 0.443711
6222.00000 0.443757
6223.00000 0.443802
6224.00000 0.443848
6225.00000 0.443894
6226.00000 0.444037
6227.00000 0.44418
6228.00000 0.444323
6229.00000 0.444466
6230.00000 0.444609
6231.00000 0.444633
6232.00000 0.444658
6233.00000 0.444682
6234.00000 0.444707
6235.00000 0.444731
6236.00000 0.444755
6237.00000 0.444779
6238.00000 0.444803
6239.00000 0.444826
6240.00000 0.44485
6241.00000 0.44494
6242.00000 0.445031
6243.00000 0.445121
6244.00000 0.445213
6245.00000 0.445304
6246.00000 0.445298
6247.00000 0.445293
6248.00000 0.445288
6249.00000 0.445284
6250.00000 0.44528
6251.00000 0.445334
6252.00000 0.445388
6253.00000 0.445444
6254.00000 0.4455
6255.00000 0.445557
6256.00000 0.445714
6257.00000 0.445871
6258.00000 0.44603
6259.00000 0.44619
6260.00000 0.44635
6261.00000 0.446351
6262.00000 0.446352
6263.00000 0.446354
6264.00000 0.446356
6265.00000 0.446358
6266.00000 0.446263
6267.00000 0.446167
6268.00000 0.446071
6269.00000 0.445975
6270.00000 0.44588
6271.00000 0.444991
6272.00000 0.444101
6273.00000 0.443212
6274.00000 0.442322
6275.00000 0.441433
6276.00000 0.440054
6277.00000 0.438676
6278.00000 0.437299
6279.00000 0.435921
6280.00000 0.434544
6281.00000 0.435039
6282.00000 0.435535
6283.00000 0.43603
6284.00000 0.436526
6285.00000 0.437022
6286.00000 0.437813
6287.00000 0.438604
6288.00000 0.439395
6289.00000 0.440186
6290.00000 0.440977
6291.00000 0.440942
6292.00000 0.440906
6293.00000 0.440869
6294.00000 0.44083
6295.00000 0.440789
6296.00000 0.440844
6297.00000 0.440897
6298.00000 0.440948
6299.00000 0.440997
6300.00000 0.441044
6301.00000 0.441416
6302.00000 0.441785
6303.00000 0.442153
6304.00000 0.442519
6305.00000 0.442882
6306.00000 0.443147
6307.00000 0.443409
6308.00000 0.44367
6309.00000 0.443929
6310.00000 0.444187
6311.00000 0.444357
6312.00000 0.444526
6313.00000 0.444694
6314.00000 0.444863
6315.00000 0.445033
6316.00000 0.445204
6317.00000 0.445375
6318.00000 0.445546
6319.00000 0.445717
6320.00000 0.445889
6321.00000 0.446059
6322.00000 0.446229
6323.00000 0.4464
6324.00000 0.44657
6325.00000 0.446741
6326.00000 0.446814
6327.00000 0.446887
6328.00000 0.44696
6329.00000 0.447032
6330.00000 0.447105
6331.00000 0.447123
6332.00000 0.447141
6333.00000 0.447159
6334.00000 0.447177
6335.00000 0.447196
6336.00000 0.447214
6337.00000 0.447232
6338.00000 0.44725
6339.00000 0.447269
6340.00000 0.447288
6341.00000 0.447263
6342.00000 0.447238
6343.00000 0.447215
6344.00000 0.447193
6345.00000 0.447171
6346.00000 0.447249
6347.00000 0.447327
6348.00000 0.447406
6349.00000 0.447487
6350.00000 0.447568
6351.00000 0.44756
6352.00000 0.447553
6353.00000 0.447547
6354.00000 0.447541
6355.00000 0.447535
6356.00000 0.447627
6357.00000 0.447719
6358.00000 0.447812
6359.00000 0.447905
6360.00000 0.447998
6361.00000 0.447933
6362.00000 0.447867
6363.00000 0.447802
6364.00000 0.447736
6365.00000 0.44767
6366.00000 0.447701
6367.00000 0.447732
6368.00000 0.447763
6369.00000 0.447794
6370.00000 0.447825
6371.00000 0.447809
6372.00000 0.447794
6373.00000 0.447779
6374.00000 0.447764
6375.00000 0.447749
6376.00000 0.447831
6377.00000 0.447913
6378.00000 0.447995
6379.00000 0.448077
6380.00000 0.448158
6381.00000 0.448147
6382.00000 0.448136
6383.00000 0.448125
6384.00000 0.448114
6385.00000 0.448102
6386.00000 0.448188
6387.00000 0.448274
6388.00000 0.44836
6389.00000 0.448445
6390.00000 0.448531
6391.00000 0.448512
6392.00000 0.448493
6393.00000 0.448475
6394.00000 0.448456
6395.00000 0.448437
6396.00000 0.448418
6397.00000 0.448399
6398.00000 0.44838
6399.00000 0.448361
6400.00000 0.448342
6401.00000 0.448427
6402.00000 0.448512
6403.00000 0.448597
6404.00000 0.448682
6405.00000 0.448767
6406.00000 0.448755
6407.00000 0.448743
6408.00000 0.448731
6409.00000 0.44872
6410.00000 0.448708
6411.00000 0.448795
6412.00000 0.448882
6413.00000 0.448969
6414.00000 0.449057
6415.00000 0.449144
6416.00000 0.449134
6417.00000 0.449125
6418.00000 0.449115
6419.00000 0.449105
6420.00000 0.449096
6421.00000 0.449082
6422.00000 0.449067
6423.00000 0.449053
6424.00000 0.449039
6425.00000 0.449025
6426.00000 0.449108
6427.00000 0.449191
6428.00000 0.449274
6429.00000 0.449357
6430.00000 0.449439
6431.00000 0.44943
6432.00000 0.449421
6433.00000 0.449412
6434.00000 0.449403
6435.00000 0.449394
6436.00000 0.449385
6437.00000 0.449376
6438.00000 0.449367
6439.00000 0.449357
6440.00000 0.449348
6441.00000 0.449491
6442.00000 0.449634
6443.00000 0.449778
6444.00000 0.449921
6445.00000 0.450064
6446.00000 0.45011
6447.00000 0.450156
6448.00000 0.450202
6449.00000 0.450249
6450.00000 0.450295
6451.00000 0.450287
6452.00000 0.450279
6453.00000 0.450271
6454.00000 0.450263
6455.00000 0.450255
6456.00000 0.45015
6457.00000 0.450045
6458.00000 0.44994
6459.00000 0.449835
6460.00000 0.44973
6461.00000 0.449608
6462.00000 0.449485
6463.00000 0.449362
6464.00000 0.449239
6465.00000 0.449117
6466.00000 0.448897
6467.00000 0.448677
6468.00000 0.448458
6469.00000 0.448238
6470.00000 0.448019
6471.00000 0.447974
6472.00000 0.44793
6473.00000 0.447885
6474.00000 0.44784
6475.00000 0.447796
6476.00000 0.447751
6477.00000 0.447706
6478.00000 0.447661
6479.00000 0.447617
6480.00000 0.447572
6481.00000 0.447748
6482.00000 0.447925
6483.00000 0.448101
6484.00000 0.448278
6485.00000 0.448454
6486.00000 0.448534
6487.00000 0.448614
6488.00000 0.448695
6489.00000 0.448775
6490.00000 0.448856
6491.00000 0.448898
6492.00000 0.448941
6493.00000 0.448983
6494.00000 0.449024
6495.00000 0.449064
6496.00000 0.449395
6497.00000 0.449725
6498.00000 0.450054
6499.00000 0.450382
6500.00000 0.450709
6501.00000 0.450835
6502.00000 0.450959
6503.00000 0.451083
6504.00000 0.451205
6505.00000 0.451327
6506.00000 0.451157
6507.00000 0.450986
6508.00000 0.450815
6509.00000 0.450644
6510.00000 0.450472
6511.00000 0.450186
6512.00000 0.449899
6513.00000 0.449612
6514.00000 0.449325
6515.00000 0.449039
6516.00000 0.448946
6517.00000 0.448853
6518.00000 0.44876
6519.00000 0.448666
6520.00000 0.448572
6521.00000 0.44889
6522.00000 0.449208
6523.00000 0.449525
6524.00000 0.449841
6525.00000 0.450157
6526.00000 0.450279
6527.00000 0.450401
6528.00000 0.450522
6529.00000 0.450643
6530.00000 0.450764
6531.00000 0.450724
6532.00000 0.450684
6533.00000 0.450644
6534.00000 0.450605
6535.00000 0.450565
6536.00000 0.450623
6537.00000 0.45068
6538.00000 0.450737
6539.00000 0.450795
6540.00000 0.450853
6541.00000 0.450704
6542.00000 0.450555
6543.00000 0.450407
6544.00000 0.45026
6545.00000 0.450115
6546.00000 0.450067
6547.00000 0.45002
6548.00000 0.449974
6549.00000 0.449929
6550.00000 0.449886
6551.00000 0.449887
6552.00000 0.44989
6553.00000 0.449894
6554.00000 0.449899
6555.00000 0.449904
6556.00000 0.450007
6557.00000 0.45011
6558.00000 0.450214
6559.00000 0.450319
6560.00000 0.450424
6561.00000 0.450524
6562.00000 0.450624
6563.00000 0.450724
6564.00000 0.450824
6565.00000 0.450923
6566.00000 0.451022
6567.00000 0.451121
6568.00000 0.45122
6569.00000 0.451319
6570.00000 0.451418
6571.00000 0.451367
6572.00000 0.451315
6573.00000 0.451263
6574.00000 0.451212
6575.00000 0.45116
6576.00000 0.451205
6577.00000 0.45125
6578.00000 0.451294
6579.00000 0.451339
6580.00000 0.451384
6581.00000 0.451532
6582.00000 0.45168
6583.00000 0.451828
6584.00000 0.451976
6585.00000 0.452124
6586.00000 0.452272
6587.00000 0.45242
6588.00000 0.452568
6589.00000 0.452716
6590.00000 0.452864
6591.00000 0.452866
6592.00000 0.452868
6593.00000 0.45287
6594.00000 0.452871
6595.00000 0.452873
6596.00000 0.452971
6597.00000 0.45307
6598.00000 0.453168
6599.00000 0.453266
6600.00000 0.453365
6601.00000 0.453347
6602.00000 0.45333
6603.00000 0.453313
6604.00000 0.453295
6605.00000 0.453278
6606.00000 0.453357
6607.00000 0.453436
6608.00000 0.453515
6609.00000 0.453594
6610.00000 0.453673
6611.00000 0.453631
6612.00000 0.453589
6613.00000 0.453547
6614.00000 0.453505
6615.00000 0.453464
6616.00000 0.453518
6617.00000 0.453573
6618.00000 0.453627
6619.00000 0.453682
6620.00000 0.453736
6621.00000 0.453727
6622.00000 0.453718
6623.00000 0.453709
6624.00000 0.4537
6625.00000 0.453691
6626.00000 0.453682
6627.00000 0.453673
6628.00000 0.453664
6629.00000 0.453655
6630.00000 0.453646
6631.00000 0.453692
6632.00000 0.453738
6633.00000 0.453783
6634.00000 0.453829
6635.00000 0.453875
6636.00000 0.453825
6637.00000 0.453775
6638.00000 0.453726
6639.00000 0.453677
6640.00000 0.453627
6641.00000 0.453589
6642.00000 0.453551
6643.00000 0.453512
6644.00000 0.453472
6645.00000 0.453432
6646.00000 0.453487
6647.00000 0.453542
6648.00000 0.453595
6649.00000 0.453647
6650.00000 0.453699
6651.00000 0.453687
6652.00000 0.453675
6653.00000 0.453662
6654.00000 0.453647
6655.00000 0.453632
6656.00000 0.453616
6657.00000 0.453599
6658.00000 0.453582
6659.00000 0.453564
6660.00000 0.453546
6661.00000 0.453574
6662.00000 0.453603
6663.00000 0.453631
6664.00000 0.45366
6665.00000 0.453689
6666.00000 0.453623
6667.00000 0.453557
6668.00000 0.453491
6669.00000 0.453425
6670.00000 0.453359
6671.00000 0.453297
6672.00000 0.453234
6673.00000 0.453171
6674.00000 0.453108
6675.00000 0.453045
6676.00000 0.453076
6677.00000 0.453106
6678.00000 0.453136
6679.00000 0.453165
6680.00000 0.453194
6681.00000 0.45317
6682.00000 0.453146
6683.00000 0.453121
6684.00000 0.453096
6685.00000 0.453072
6686.00000 0.453046
6687.00000 0.453021
6688.00000 0.452995
6689.00000 0.45297
6690.00000 0.452945
6691.00000 0.45303
6692.00000 0.453117
6693.00000 0.453204
6694.00000 0.453293
6695.00000 0.453383
6696.00000 0.45338
6697.00000 0.453377
6698.00000 0.453376
6699.00000 0.453377
6700.00000 0.453378
6701.00000 0.453302
6702.00000 0.453227
6703.00000 0.453153
6704.00000 0.45308
6705.00000 0.453007
6706.00000 0.453031
6707.00000 0.453055
6708.00000 0.45308
6709.00000 0.453106
6710.00000 0.453132
6711.00000 0.453058
6712.00000 0.452984
6713.00000 0.452911
6714.00000 0.452837
6715.00000 0.452763
6716.00000 0.452688
6717.00000 0.452613
6718.00000 0.452539
6719.00000 0.452464
6720.00000 0.452389
6721.00000 0.452405
6722.00000 0.452422
6723.00000 0.452438
6724.00000 0.452454
6725.00000 0.452471
6726.00000 0.452391
6727.00000 0.452312
6728.00000 0.452233
6729.00000 0.452154
6730.00000 0.452074
6731.00000 0.452024
6732.00000 0.451973
6733.00000 0.451922
6734.00000 0.451872
6735.00000 0.451821
6736.00000 0.45177
6737.00000 0.451719
6738.00000 0.451669
6739.00000 0.451618
6740.00000 0.451567
6741.00000 0.451585
6742.00000 0.451603
6743.00000 0.451621
6744.00000 0.451639
6745.00000 0.451657
6746.00000 0.45158
6747.00000 0.451502
6748.00000 0.451425
6749.00000 0.451348
6750.00000 0.45127
6751.00000 0.451204
6752.00000 0.451138
6753.00000 0.451072
6754.00000 0.451005
6755.00000 0.450939
6756.00000 0.450873
6757.00000 0.450806
6758.00000 0.45074
6759.00000 0.450674
6760.00000 0.450608
6761.00000 0.450619
6762.00000 0.450631
6763.00000 0.450642
6764.00000 0.450654
6765.00000 0.450665
6766.00000 0.450582
6767.00000 0.450262
6768.00000 0.449943
6769.00000 0.448963
6770.00000 0.447983
6771.00000 0.447063
6772.00000 0.446143
6773.00000 0.445223
6774.00000 0.444304
6775.00000 0.443384
6776.00000 0.442558
6777.00000 0.441731
6778.00000 0.440904
6779.00000 0.440077
6780.00000 0.439249
6781.00000 0.438308
6782.00000 0.437368
6783.00000 0.436451
6784.00000 0.435534
6785.00000 0.434617
6786.00000 0.433701
6787.00000 0.432784
6788.00000 0.431868
6789.00000 0.430951
6790.00000 0.430035
6791.00000 0.429062
6792.00000 0.428089
6793.00000 0.427093
6794.00000 0.426097
6795.00000 0.425125
6796.00000 0.424154
6797.00000 0.423182
6798.00000 0.422211
6799.00000 0.421241
6800.00000 0.420271
6801.00000 0.41941
6802.00000 0.41855
6803.00000 0.417006
6804.00000 0.415462
6805.00000 0.413705
6806.00000 0.411862
6807.00000 0.409995
6808.00000 0.408129
6809.00000 0.406287
6810.00000 0.404446
6811.00000 0.402576
6812.00000 0.400707
6813.00000 0.398815
6814.00000 0.396924
6815.00000 0.395057
6816.00000 0.393191
6817.00000 0.391326
6818.00000 0.389461
6819.00000 0.387574
6820.00000 0.385687
6821.00000 0.383853
6822.00000 0.382019
6823.00000 0.380186
6824.00000 0.378353
6825.00000 0.376497
6826.00000 0.374721
6827.00000 0.372967
6828.00000 0.371213
6829.00000 0.369459
6830.00000 0.367705
6831.00000 0.365847
6832.00000 0.363989
6833.00000 0.362155
6834.00000 0.360322
6835.00000 0.35849
6836.00000 0.356658
6837.00000 0.354827
6838.00000 0.352997
6839.00000 0.351143
6840.00000 0.34929
6841.00000 0.34743
6842.00000 0.345571
6843.00000 0.343712
6844.00000 0.341853
6845.00000 0.339971
6846.00000 0.338089
6847.00000 0.336231
6848.00000 0.334373
6849.00000 0.332516
6850.00000 0.330658
6851.00000 0.328813
6852.00000 0.326967
6853.00000 0.325145
6854.00000 0.323322
6855.00000 0.3215
6856.00000 0.319342
6857.00000 0.317164
6858.00000 0.31499
6859.00000 0.312844
6860.00000 0.310701
6861.00000 0.305907
6862.00000 0.301148
6863.00000 0.296402
6864.00000 0.291691
6865.00000 0.287039
6866.00000 0.278119
6867.00000 0.269287
6868.00000 0.260541
6869.00000 0.251862
6870.00000 0.24327
6871.00000 0.238465
6872.00000 0.2337
6873.00000 0.228977
6874.00000 0.224295
6875.00000 0.219636
6876.00000 0.221916
6877.00000 0.224168
6878.00000 0.226372
6879.00000 0.22853
6880.00000 0.230641
6881.00000 0.23206
6882.00000 0.233439
6883.00000 0.2348
6884.00000 0.236122
6885.00000 0.237407
6886.00000 0.235033
6887.00000 0.232669
6888.00000 0.230317
6889.00000 0.227954
6890.00000 0.225602
6891.00000 0.224029
6892.00000 0.222455
6893.00000 0.220883
6894.00000 0.219311
6895.00000 0.21772
6896.00000 0.217116
6897.00000 0.216518
6898.00000 0.215907
6899.00000 0.215283
6900.00000 0.214645
6901.00000 0.213812
6902.00000 0.212967
6903.00000 0.212132
6904.00000 0.211286
6905.00000 0.210428
6906.00000 0.209656
6907.00000 0.20885
6908.00000 0.208031
6909.00000 0.20722
6910.00000 0.206396
6911.00000 0.205339
6912.00000 0.204273
6913.00000 0.203176
6914.00000 0.202068
6915.00000 0.200973
6916.00000 0.199823
6917.00000 0.198665
6918.00000 0.197498
6919.00000 0.196301
6920.00000 0.195094
6921.00000 0.193838
6922.00000 0.192574
6923.00000 0.191303
6924.00000 0.190024
6925.00000 0.188715
6926.00000 0.187316
6927.00000 0.185934
6928.00000 0.184546
6929.00000 0.183152
6930.00000 0.181752
6931.00000 0.180117
6932.00000 0.17848
6933.00000 0.176863
6934.00000 0.175245
6935.00000 0.173624
6936.00000 0.171891
6937.00000 0.170157
6938.00000 0.168424
6939.00000 0.166669
6940.00000 0.164913
6941.00000 0.163222
6942.00000 0.161531
6943.00000 0.159839
6944.00000 0.158146
6945.00000 0.156429
6946.00000 0.154811
6947.00000 0.153213
6948.00000 0.151611
6949.00000 0.150007
6950.00000 0.148399
6951.00000 0.146693
6952.00000 0.144986
6953.00000 0.1433
6954.00000 0.141613
6955.00000 0.139925
6956.00000 0.138176
6957.00000 0.136405
6958.00000 0.134634
6959.00000 0.132886
6960.00000 0.131139
6961.00000 0.129546
6962.00000 0.12795
6963.00000 0.126327
6964.00000 0.124699
6965.00000 0.123091
6966.00000 0.121504
6967.00000 0.119912
6968.00000 0.118316
6969.00000 0.116691
6970.00000 0.115062
6971.00000 0.113318
6972.00000 0.111574
6973.00000 0.10983
6974.00000 0.108084
6975.00000 0.106315
6976.00000 0.104502
6977.00000 0.102712
6978.00000 0.100924
6979.00000 0.0991358
6980.00000 0.097349
6981.00000 0.0955036
6982.00000 0.0936605
6983.00000 0.0918427
6984.00000 0.0900271
6985.00000 0.0882138
6986.00000 0.0863662
6987.00000 0.0845224
6988.00000 0.0826823
6989.00000 0.0808228
6990.00000 0.078967
6991.00000 0.0772142
6992.00000 0.0754617
6993.00000 0.0737094
6994.00000 0.0719573
6995.00000 0.0701825
6996.00000 0.0684368
6997.00000 0.0667128
6998.00000 0.0649877
6999.00000 0.0632612
7000.00000 0.0615335
7001.00000 0.0597649
7002.00000 0.057996
7003.00000 0.0562498
7004.00000 0.0545034
7005.00000 0.0527567
7006.00000 0.0510098
7007.00000 0.0492395
7008.00000 0.047469
7009.00000 0.0457212
7010.00000 0.0439732
7011.00000 0.0430946
7012.00000 0.0422162
7013.00000 0.0413379
7014.00000 0.0404598
7015.00000 0.0395817
7016.00000 0.0387119
7017.00000 0.0378188
7018.00000 0.0369254
7019.00000 0.0360549
7020.00000 0.035184
7021.00000 0.0343072
7022.00000 0.0334303
7023.00000 0.0325535
7024.00000 0.0316768
7025.00000 0.0308
7026.00000 0.029936
7027.00000 0.0290712
7028.00000 0.0282057
7029.00000 0.0273164
7030.00000 0.0264265
7031.00000 0.0255725
7032.00000 0.0247169
7033.00000 0.0238596
7034.00000 0.0230008
7035.00000 0.0221402
7036.00000 0.0212603
7037.00000 0.0203802
7038.00000 0.0194999
7039.00000 0.0186195
7040.00000 0.0177389
7041.00000 0.0168322
7042.00000 0.0159256
7043.00000 0.0150424
7044.00000 0.0141592
7045.00000 0.0132763
7046.00000 0.0123934
7047.00000 0.0115107
7048.00000 0.0106281
7049.00000 0.00974556
7050.00000 0.0088632
7051.00000 0.00798215
7052.00000 0.00710095
7053.00000 0.00619642
7054.00000 0.00529174
7055.00000 0.00441013
7056.00000 0.00352912
7057.00000 0.0026476
7058.00000 0.00176558
7059.00000 0.000883042
7060.00000 0.0
