# %ECSV 0.9
# ---
# datatype:
# - {name: wavelength, unit: Angstrom, datatype: float32}
# - {name: response, datatype: float32}
# meta: !!omap
# - {band_name: f_3986_1047}
# - {group_name: CTIO}
wavelength response
2884.50000 0.0
3205.00000 0.002
3210.00000 0.002
3215.00000 0.003
3220.00000 0.004
3225.00000 0.006
3230.00000 0.007
3235.00000 0.009
3240.00000 0.011
3245.00000 0.013
3250.00000 0.016
3255.00000 0.019
3260.00000 0.023
3265.00000 0.026
3270.00000 0.03
3275.00000 0.035
3280.00000 0.04
3285.00000 0.045
3290.00000 0.05
3295.00000 0.056
3300.00000 0.062
3305.00000 0.068
3310.00000 0.074
3315.00000 0.08
3320.00000 0.087
3325.00000 0.094
3330.00000 0.102
3335.00000 0.109
3340.00000 0.117
3345.00000 0.125
3350.00000 0.134
3355.00000 0.142
3360.00000 0.151
3365.00000 0.159
3370.00000 0.168
3375.00000 0.176
3380.00000 0.184
3385.00000 0.193
3390.00000 0.201
3395.00000 0.21
3400.00000 0.218
3405.00000 0.227
3410.00000 0.235
3415.00000 0.243
3420.00000 0.251
3425.00000 0.259
3430.00000 0.267
3435.00000 0.275
3440.00000 0.283
3445.00000 0.29
3450.00000 0.298
3455.00000 0.305
3460.00000 0.313
3465.00000 0.32
3470.00000 0.327
3475.00000 0.334
3480.00000 0.341
3485.00000 0.348
3490.00000 0.355
3495.00000 0.361
3500.00000 0.367
3505.00000 0.374
3510.00000 0.38
3515.00000 0.386
3520.00000 0.392
3525.00000 0.397
3530.00000 0.402
3535.00000 0.408
3540.00000 0.413
3545.00000 0.419
3550.00000 0.424
3555.00000 0.429
3560.00000 0.435
3565.00000 0.44
3570.00000 0.445
3575.00000 0.45
3580.00000 0.455
3585.00000 0.459
3590.00000 0.464
3595.00000 0.468
3600.00000 0.473
3605.00000 0.477
3610.00000 0.481
3615.00000 0.485
3620.00000 0.489
3625.00000 0.493
3630.00000 0.497
3635.00000 0.5
3640.00000 0.504
3645.00000 0.507
3650.00000 0.511
3655.00000 0.514
3660.00000 0.517
3665.00000 0.521
3670.00000 0.524
3675.00000 0.527
3680.00000 0.53
3685.00000 0.533
3690.00000 0.535
3695.00000 0.538
3700.00000 0.541
3705.00000 0.544
3710.00000 0.546
3715.00000 0.549
3720.00000 0.551
3725.00000 0.553
3730.00000 0.555
3735.00000 0.558
3740.00000 0.559
3745.00000 0.562
3750.00000 0.563
3755.00000 0.566
3760.00000 0.568
3765.00000 0.569
3770.00000 0.571
3775.00000 0.573
3780.00000 0.575
3785.00000 0.577
3790.00000 0.579
3795.00000 0.582
3800.00000 0.584
3805.00000 0.586
3810.00000 0.588
3815.00000 0.59
3820.00000 0.592
3825.00000 0.594
3830.00000 0.597
3835.00000 0.599
3840.00000 0.601
3845.00000 0.603
3850.00000 0.605
3855.00000 0.607
3860.00000 0.609
3865.00000 0.611
3870.00000 0.613
3875.00000 0.614
3880.00000 0.616
3885.00000 0.617
3890.00000 0.619
3895.00000 0.62
3900.00000 0.622
3905.00000 0.623
3910.00000 0.623
3915.00000 0.624
3920.00000 0.625
3925.00000 0.626
3930.00000 0.627
3935.00000 0.627
3940.00000 0.627
3945.00000 0.627
3950.00000 0.628
3955.00000 0.627
3960.00000 0.627
3965.00000 0.627
3970.00000 0.627
3975.00000 0.627
3980.00000 0.626
3985.00000 0.626
3990.00000 0.625
3995.00000 0.625
4000.00000 0.624
4005.00000 0.623
4010.00000 0.622
4015.00000 0.621
4020.00000 0.62
4025.00000 0.619
4030.00000 0.618
4035.00000 0.618
4040.00000 0.617
4045.00000 0.615
4050.00000 0.615
4055.00000 0.614
4060.00000 0.613
4065.00000 0.611
4070.00000 0.61
4075.00000 0.609
4080.00000 0.608
4085.00000 0.607
4090.00000 0.605
4095.00000 0.604
4100.00000 0.602
4105.00000 0.601
4110.00000 0.599
4115.00000 0.597
4120.00000 0.595
4125.00000 0.594
4130.00000 0.592
4135.00000 0.59
4140.00000 0.588
4145.00000 0.586
4150.00000 0.583
4155.00000 0.581
4160.00000 0.579
4165.00000 0.577
4170.00000 0.575
4175.00000 0.573
4180.00000 0.571
4185.00000 0.568
4190.00000 0.566
4195.00000 0.564
4200.00000 0.561
4205.00000 0.558
4210.00000 0.555
4215.00000 0.552
4220.00000 0.549
4225.00000 0.546
4230.00000 0.543
4235.00000 0.54
4240.00000 0.536
4245.00000 0.533
4250.00000 0.529
4255.00000 0.526
4260.00000 0.523
4265.00000 0.519
4270.00000 0.516
4275.00000 0.512
4280.00000 0.509
4285.00000 0.505
4290.00000 0.502
4295.00000 0.498
4300.00000 0.494
4305.00000 0.491
4310.00000 0.487
4315.00000 0.483
4320.00000 0.479
4325.00000 0.475
4330.00000 0.471
4335.00000 0.467
4340.00000 0.463
4345.00000 0.459
4350.00000 0.455
4355.00000 0.451
4360.00000 0.448
4365.00000 0.444
4370.00000 0.44
4375.00000 0.436
4380.00000 0.432
4385.00000 0.429
4390.00000 0.425
4395.00000 0.421
4400.00000 0.418
4405.00000 0.414
4410.00000 0.41
4415.00000 0.406
4420.00000 0.402
4425.00000 0.397
4430.00000 0.393
4435.00000 0.388
4440.00000 0.384
4445.00000 0.379
4450.00000 0.374
4455.00000 0.369
4460.00000 0.364
4465.00000 0.36
4470.00000 0.354
4475.00000 0.349
4480.00000 0.344
4485.00000 0.339
4490.00000 0.334
4495.00000 0.329
4500.00000 0.324
4505.00000 0.319
4510.00000 0.314
4515.00000 0.309
4520.00000 0.304
4525.00000 0.299
4530.00000 0.294
4535.00000 0.289
4540.00000 0.284
4545.00000 0.28
4550.00000 0.274
4555.00000 0.269
4560.00000 0.264
4565.00000 0.259
4570.00000 0.253
4575.00000 0.248
4580.00000 0.243
4585.00000 0.237
4590.00000 0.232
4595.00000 0.227
4600.00000 0.221
4605.00000 0.216
4610.00000 0.211
4615.00000 0.206
4620.00000 0.2
4625.00000 0.195
4630.00000 0.189
4635.00000 0.184
4640.00000 0.178
4645.00000 0.172
4650.00000 0.166
4655.00000 0.161
4660.00000 0.155
4665.00000 0.149
4670.00000 0.143
4675.00000 0.138
4680.00000 0.133
4685.00000 0.127
4690.00000 0.122
4695.00000 0.116
4700.00000 0.111
4705.00000 0.106
4710.00000 0.101
4715.00000 0.097
4720.00000 0.092
4725.00000 0.088
4730.00000 0.083
4735.00000 0.079
4740.00000 0.075
4745.00000 0.072
4750.00000 0.068
4755.00000 0.064
4760.00000 0.061
4765.00000 0.058
4770.00000 0.055
4775.00000 0.052
4780.00000 0.049
4785.00000 0.046
4790.00000 0.044
4795.00000 0.041
4800.00000 0.039
4805.00000 0.037
4810.00000 0.034
4815.00000 0.032
4820.00000 0.031
4825.00000 0.029
4830.00000 0.027
4835.00000 0.025
4840.00000 0.024
4845.00000 0.022
4850.00000 0.021
4855.00000 0.02
4860.00000 0.018
4865.00000 0.017
4870.00000 0.016
4875.00000 0.015
4880.00000 0.014
4885.00000 0.013
4890.00000 0.012
4895.00000 0.011
4900.00000 0.011
4905.00000 0.01
4910.00000 0.009
4915.00000 0.009
4920.00000 0.008
4925.00000 0.008
4930.00000 0.007
4935.00000 0.007
4940.00000 0.006
4945.00000 0.006
4950.00000 0.006
4955.00000 0.005
4960.00000 0.005
4965.00000 0.005
4970.00000 0.004
4975.00000 0.004
4980.00000 0.004
4985.00000 0.004
4990.00000 0.004
4995.00000 0.003
5000.00000 0.003
5500.00000 0.0
