# %ECSV 0.9
# ---
# datatype:
# - {name: wavelength, unit: Angstrom, datatype: float32}
# - {name: response, datatype: float32}
# meta: !!omap
# - {band_name: f_6152_625}
# - {group_name: CTIO}
wavelength response
5143.50000 0.0
5715.00000 0.002
5720.00000 0.002
5725.00000 0.004
5730.00000 0.005
5735.00000 0.007
5740.00000 0.01
5745.00000 0.014
5750.00000 0.018
5755.00000 0.023
5760.00000 0.03
5765.00000 0.038
5770.00000 0.047
5775.00000 0.058
5780.00000 0.07
5785.00000 0.083
5790.00000 0.098
5795.00000 0.114
5800.00000 0.131
5805.00000 0.15
5810.00000 0.169
5815.00000 0.189
5820.00000 0.21
5825.00000 0.231
5830.00000 0.251
5835.00000 0.272
5840.00000 0.292
5845.00000 0.313
5850.00000 0.332
5855.00000 0.352
5860.00000 0.37
5865.00000 0.388
5870.00000 0.405
5875.00000 0.421
5880.00000 0.436
5885.00000 0.45
5890.00000 0.464
5895.00000 0.476
5900.00000 0.487
5905.00000 0.497
5910.00000 0.507
5915.00000 0.516
5920.00000 0.524
5925.00000 0.532
5930.00000 0.539
5935.00000 0.546
5940.00000 0.552
5945.00000 0.557
5950.00000 0.561
5955.00000 0.565
5960.00000 0.569
5965.00000 0.572
5970.00000 0.574
5975.00000 0.576
5980.00000 0.578
5985.00000 0.579
5990.00000 0.58
5995.00000 0.58
6000.00000 0.581
6005.00000 0.581
6010.00000 0.58
6015.00000 0.58
6020.00000 0.579
6025.00000 0.578
6030.00000 0.577
6035.00000 0.575
6040.00000 0.574
6045.00000 0.572
6050.00000 0.57
6055.00000 0.568
6060.00000 0.566
6065.00000 0.564
6070.00000 0.562
6075.00000 0.559
6080.00000 0.557
6085.00000 0.554
6090.00000 0.551
6095.00000 0.548
6100.00000 0.546
6105.00000 0.543
6110.00000 0.54
6115.00000 0.537
6120.00000 0.534
6125.00000 0.531
6130.00000 0.528
6135.00000 0.525
6140.00000 0.521
6145.00000 0.518
6150.00000 0.515
6155.00000 0.511
6160.00000 0.508
6165.00000 0.504
6170.00000 0.501
6175.00000 0.497
6180.00000 0.493
6185.00000 0.49
6190.00000 0.486
6195.00000 0.483
6200.00000 0.479
6205.00000 0.475
6210.00000 0.472
6215.00000 0.468
6220.00000 0.464
6225.00000 0.461
6230.00000 0.457
6235.00000 0.453
6240.00000 0.45
6245.00000 0.446
6250.00000 0.443
6255.00000 0.439
6260.00000 0.435
6265.00000 0.431
6270.00000 0.428
6275.00000 0.424
6280.00000 0.421
6285.00000 0.417
6290.00000 0.413
6295.00000 0.41
6300.00000 0.406
6305.00000 0.402
6310.00000 0.399
6315.00000 0.395
6320.00000 0.392
6325.00000 0.388
6330.00000 0.385
6335.00000 0.381
6340.00000 0.378
6345.00000 0.374
6350.00000 0.371
6355.00000 0.367
6360.00000 0.364
6365.00000 0.36
6370.00000 0.357
6375.00000 0.353
6380.00000 0.349
6385.00000 0.346
6390.00000 0.342
6395.00000 0.338
6400.00000 0.335
6405.00000 0.331
6410.00000 0.328
6415.00000 0.325
6420.00000 0.321
6425.00000 0.318
6430.00000 0.314
6435.00000 0.311
6440.00000 0.308
6445.00000 0.304
6450.00000 0.301
6455.00000 0.298
6460.00000 0.294
6465.00000 0.291
6470.00000 0.288
6475.00000 0.284
6480.00000 0.281
6485.00000 0.278
6490.00000 0.275
6495.00000 0.272
6500.00000 0.269
6505.00000 0.266
6510.00000 0.262
6515.00000 0.259
6520.00000 0.256
6525.00000 0.253
6530.00000 0.25
6535.00000 0.247
6540.00000 0.244
6545.00000 0.242
6550.00000 0.239
6555.00000 0.236
6560.00000 0.233
6565.00000 0.231
6570.00000 0.228
6575.00000 0.225
6580.00000 0.222
6585.00000 0.219
6590.00000 0.216
6595.00000 0.214
6600.00000 0.211
6605.00000 0.208
6610.00000 0.205
6615.00000 0.203
6620.00000 0.2
6625.00000 0.197
6630.00000 0.195
6635.00000 0.192
6640.00000 0.19
6645.00000 0.187
6650.00000 0.184
6655.00000 0.182
6660.00000 0.18
6665.00000 0.177
6670.00000 0.175
6675.00000 0.172
6680.00000 0.17
6685.00000 0.168
6690.00000 0.165
6695.00000 0.163
6700.00000 0.161
6705.00000 0.158
6710.00000 0.156
6715.00000 0.154
6720.00000 0.152
6725.00000 0.15
6730.00000 0.148
6735.00000 0.145
6740.00000 0.143
6745.00000 0.141
6750.00000 0.139
6755.00000 0.137
6760.00000 0.135
6765.00000 0.134
6770.00000 0.132
6775.00000 0.13
6780.00000 0.128
6785.00000 0.126
6790.00000 0.124
6795.00000 0.122
6800.00000 0.12
6805.00000 0.119
6810.00000 0.117
6815.00000 0.115
6820.00000 0.113
6825.00000 0.111
6830.00000 0.109
6835.00000 0.108
6840.00000 0.106
6845.00000 0.104
6850.00000 0.103
6855.00000 0.101
6860.00000 0.099
6865.00000 0.098
6870.00000 0.096
6875.00000 0.095
6880.00000 0.093
6885.00000 0.092
6890.00000 0.09
6895.00000 0.089
6900.00000 0.087
6905.00000 0.086
6910.00000 0.085
6915.00000 0.083
6920.00000 0.082
6925.00000 0.081
6930.00000 0.079
6935.00000 0.078
6940.00000 0.077
6945.00000 0.075
6950.00000 0.074
6955.00000 0.073
6960.00000 0.072
6965.00000 0.07
6970.00000 0.069
6975.00000 0.068
6980.00000 0.067
6985.00000 0.066
6990.00000 0.065
6995.00000 0.064
7000.00000 0.063
7005.00000 0.062
7010.00000 0.061
7015.00000 0.06
7020.00000 0.059
7025.00000 0.057
7030.00000 0.056
7035.00000 0.055
7040.00000 0.054
7045.00000 0.053
7050.00000 0.053
7055.00000 0.052
7060.00000 0.051
7065.00000 0.05
7070.00000 0.049
7075.00000 0.048
7080.00000 0.047
7085.00000 0.046
7090.00000 0.045
7095.00000 0.045
7100.00000 0.044
7105.00000 0.043
7110.00000 0.042
7115.00000 0.042
7120.00000 0.041
7125.00000 0.04
7130.00000 0.039
7135.00000 0.039
7140.00000 0.038
7145.00000 0.037
7150.00000 0.037
7155.00000 0.036
7160.00000 0.035
7165.00000 0.035
7170.00000 0.034
7175.00000 0.033
7180.00000 0.033
7185.00000 0.032
7190.00000 0.032
7195.00000 0.031
7200.00000 0.031
7205.00000 0.03
7210.00000 0.029
7215.00000 0.029
7220.00000 0.028
7225.00000 0.028
7230.00000 0.027
7235.00000 0.027
7240.00000 0.026
7245.00000 0.026
7250.00000 0.025
7255.00000 0.025
7260.00000 0.024
7265.00000 0.024
7270.00000 0.023
7275.00000 0.023
7280.00000 0.023
7285.00000 0.022
7290.00000 0.022
7295.00000 0.021
7300.00000 0.021
7305.00000 0.021
7310.00000 0.02
7315.00000 0.02
7320.00000 0.019
7325.00000 0.019
7330.00000 0.019
7335.00000 0.018
7340.00000 0.018
7345.00000 0.018
7350.00000 0.017
7355.00000 0.017
7360.00000 0.017
7365.00000 0.016
7370.00000 0.016
7375.00000 0.016
7380.00000 0.015
7385.00000 0.015
7390.00000 0.015
7395.00000 0.015
7400.00000 0.014
7405.00000 0.014
7410.00000 0.014
7415.00000 0.014
7420.00000 0.013
7425.00000 0.013
7430.00000 0.013
7435.00000 0.013
7440.00000 0.012
7445.00000 0.012
7450.00000 0.012
7455.00000 0.012
7460.00000 0.011
7465.00000 0.011
7470.00000 0.011
7475.00000 0.011
7480.00000 0.011
7485.00000 0.01
7490.00000 0.01
7495.00000 0.01
7500.00000 0.01
7505.00000 0.01
7510.00000 0.009
7515.00000 0.009
7520.00000 0.009
7525.00000 0.009
7530.00000 0.009
7535.00000 0.009
7540.00000 0.008
7545.00000 0.008
7550.00000 0.008
7555.00000 0.008
7560.00000 0.008
7565.00000 0.008
7570.00000 0.008
7575.00000 0.007
7580.00000 0.007
7585.00000 0.007
7590.00000 0.007
7595.00000 0.007
7600.00000 0.007
7605.00000 0.007
7610.00000 0.007
7615.00000 0.006
7620.00000 0.006
7625.00000 0.006
7630.00000 0.006
7635.00000 0.006
7640.00000 0.006
7645.00000 0.006
7650.00000 0.006
7655.00000 0.006
7660.00000 0.005
7665.00000 0.005
7670.00000 0.005
7675.00000 0.005
7680.00000 0.005
7685.00000 0.005
7690.00000 0.005
7695.00000 0.005
7700.00000 0.005
7705.00000 0.005
7710.00000 0.005
7715.00000 0.005
7720.00000 0.004
7725.00000 0.004
7730.00000 0.004
7735.00000 0.004
7740.00000 0.004
7745.00000 0.004
7750.00000 0.004
7755.00000 0.004
7760.00000 0.004
7765.00000 0.004
7770.00000 0.004
7775.00000 0.004
7780.00000 0.004
7785.00000 0.004
7790.00000 0.003
7795.00000 0.003
7800.00000 0.003
7805.00000 0.003
7810.00000 0.003
7815.00000 0.003
7820.00000 0.003
7825.00000 0.003
7830.00000 0.003
7835.00000 0.003
7840.00000 0.003
7845.00000 0.003
7850.00000 0.003
7855.00000 0.003
7860.00000 0.003
7865.00000 0.003
7870.00000 0.003
7875.00000 0.003
7880.00000 0.003
7885.00000 0.003
7890.00000 0.003
7895.00000 0.002
7900.00000 0.002
7905.00000 0.002
7910.00000 0.002
7915.00000 0.002
7920.00000 0.002
7925.00000 0.002
7930.00000 0.002
7935.00000 0.002
7940.00000 0.002
7945.00000 0.002
7950.00000 0.002
7955.00000 0.002
7960.00000 0.002
7965.00000 0.002
7970.00000 0.002
7975.00000 0.002
7980.00000 0.002
7985.00000 0.002
7990.00000 0.002
8000.00000 0.002
10000.00000 0.001
10010.00000 0.001
10020.00000 0.001
10030.00000 0.001
10040.00000 0.001
10050.00000 0.001
10060.00000 0.001
10070.00000 0.001
10080.00000 0.001
10090.00000 0.001
10100.00000 0.001
10110.00000 0.001
10120.00000 0.001
10130.00000 0.001
10140.00000 0.001
10150.00000 0.001
10160.00000 0.001
10170.00000 0.001
10180.00000 0.001
10190.00000 0.001
10200.00000 0.001
10210.00000 0.001
10220.00000 0.001
10230.00000 0.001
10240.00000 0.001
10250.00000 0.001
10260.00000 0.001
10270.00000 0.001
10280.00000 0.002
10290.00000 0.002
10300.00000 0.002
10310.00000 0.002
10320.00000 0.002
10330.00000 0.002
10340.00000 0.002
10350.00000 0.002
10360.00000 0.002
10370.00000 0.002
10380.00000 0.002
10390.00000 0.002
10400.00000 0.002
10410.00000 0.002
10420.00000 0.002
10430.00000 0.002
10440.00000 0.002
10450.00000 0.002
10460.00000 0.002
10470.00000 0.002
10480.00000 0.002
10490.00000 0.002
10500.00000 0.002
10510.00000 0.002
10520.00000 0.002
10530.00000 0.002
10540.00000 0.002
10550.00000 0.002
10560.00000 0.002
10570.00000 0.002
10580.00000 0.002
10590.00000 0.002
10600.00000 0.002
10610.00000 0.002
10620.00000 0.002
10630.00000 0.002
10640.00000 0.003
10650.00000 0.003
10660.00000 0.003
10670.00000 0.003
10680.00000 0.003
10690.00000 0.003
10700.00000 0.003
10710.00000 0.003
10720.00000 0.003
10730.00000 0.003
10740.00000 0.003
10750.00000 0.003
10760.00000 0.003
10770.00000 0.003
10780.00000 0.003
10790.00000 0.003
10800.00000 0.003
10810.00000 0.003
10820.00000 0.003
10830.00000 0.003
10840.00000 0.003
10850.00000 0.003
10860.00000 0.003
10870.00000 0.003
10880.00000 0.004
10890.00000 0.004
10900.00000 0.004
10910.00000 0.004
10920.00000 0.004
10930.00000 0.004
10940.00000 0.004
10950.00000 0.004
10960.00000 0.004
10970.00000 0.004
10980.00000 0.004
10990.00000 0.004
11000.00000 0.004
11010.00000 0.004
11020.00000 0.004
11030.00000 0.004
11040.00000 0.004
11050.00000 0.004
11060.00000 0.005
11070.00000 0.005
11080.00000 0.005
11090.00000 0.005
11100.00000 0.005
11110.00000 0.005
11120.00000 0.005
11130.00000 0.005
11140.00000 0.005
11150.00000 0.005
11160.00000 0.005
11170.00000 0.005
11180.00000 0.005
11190.00000 0.005
11200.00000 0.005
11210.00000 0.005
11220.00000 0.006
11230.00000 0.006
11240.00000 0.006
11250.00000 0.006
11260.00000 0.006
11270.00000 0.006
11280.00000 0.006
11290.00000 0.006
11300.00000 0.006
11310.00000 0.006
11320.00000 0.006
11330.00000 0.006
11340.00000 0.007
11350.00000 0.007
11360.00000 0.007
11370.00000 0.007
11380.00000 0.007
11390.00000 0.007
11400.00000 0.007
11410.00000 0.007
11420.00000 0.007
11430.00000 0.007
11440.00000 0.007
11450.00000 0.007
11460.00000 0.008
11470.00000 0.008
11480.00000 0.008
11490.00000 0.008
11500.00000 0.008
11510.00000 0.008
11520.00000 0.008
11530.00000 0.008
11540.00000 0.008
11550.00000 0.008
11560.00000 0.009
11570.00000 0.009
11580.00000 0.009
11590.00000 0.009
11600.00000 0.009
11610.00000 0.009
11620.00000 0.009
11630.00000 0.009
11640.00000 0.009
11650.00000 0.01
11660.00000 0.01
11670.00000 0.01
11680.00000 0.01
11690.00000 0.01
11700.00000 0.01
11710.00000 0.01
11720.00000 0.01
11730.00000 0.011
11740.00000 0.011
11750.00000 0.011
11760.00000 0.011
11770.00000 0.011
11780.00000 0.011
11790.00000 0.011
11800.00000 0.012
11810.00000 0.012
11820.00000 0.012
11830.00000 0.012
11840.00000 0.012
11850.00000 0.012
11860.00000 0.012
11870.00000 0.013
11880.00000 0.013
11890.00000 0.013
11900.00000 0.013
11910.00000 0.013
11920.00000 0.013
11930.00000 0.014
11940.00000 0.014
11950.00000 0.014
11960.00000 0.014
11970.00000 0.014
11980.00000 0.014
11990.00000 0.015
12000.00000 0.015
13200.00000 0.0
