# %ECSV 0.9
# ---
# datatype:
# - {name: wavelength, unit: Angstrom, datatype: float32}
# - {name: response, datatype: float32}
# meta: !!omap
# - {band_name: f_4000_1030}
# - {group_name: CTIO}
wavelength response
2884.50000 0.0
3205.00000 0.003
3210.00000 0.003
3215.00000 0.004
3220.00000 0.005
3225.00000 0.007
3230.00000 0.008
3235.00000 0.01
3240.00000 0.012
3245.00000 0.014
3250.00000 0.017
3255.00000 0.02
3260.00000 0.023
3265.00000 0.026
3270.00000 0.03
3275.00000 0.034
3280.00000 0.038
3285.00000 0.042
3290.00000 0.047
3295.00000 0.052
3300.00000 0.057
3305.00000 0.062
3310.00000 0.067
3315.00000 0.072
3320.00000 0.078
3325.00000 0.084
3330.00000 0.091
3335.00000 0.097
3340.00000 0.104
3345.00000 0.111
3350.00000 0.118
3355.00000 0.125
3360.00000 0.133
3365.00000 0.14
3370.00000 0.147
3375.00000 0.154
3380.00000 0.162
3385.00000 0.169
3390.00000 0.177
3395.00000 0.184
3400.00000 0.191
3405.00000 0.199
3410.00000 0.206
3415.00000 0.213
3420.00000 0.22
3425.00000 0.228
3430.00000 0.235
3435.00000 0.242
3440.00000 0.249
3445.00000 0.255
3450.00000 0.262
3455.00000 0.269
3460.00000 0.276
3465.00000 0.283
3470.00000 0.289
3475.00000 0.296
3480.00000 0.303
3485.00000 0.309
3490.00000 0.315
3495.00000 0.322
3500.00000 0.328
3505.00000 0.334
3510.00000 0.34
3515.00000 0.346
3520.00000 0.352
3525.00000 0.357
3530.00000 0.362
3535.00000 0.368
3540.00000 0.373
3545.00000 0.379
3550.00000 0.385
3555.00000 0.39
3560.00000 0.396
3565.00000 0.401
3570.00000 0.406
3575.00000 0.412
3580.00000 0.417
3585.00000 0.422
3590.00000 0.427
3595.00000 0.432
3600.00000 0.436
3605.00000 0.441
3610.00000 0.446
3615.00000 0.45
3620.00000 0.455
3625.00000 0.459
3630.00000 0.463
3635.00000 0.467
3640.00000 0.472
3645.00000 0.476
3650.00000 0.48
3655.00000 0.484
3660.00000 0.488
3665.00000 0.492
3670.00000 0.495
3675.00000 0.499
3680.00000 0.503
3685.00000 0.506
3690.00000 0.509
3695.00000 0.513
3700.00000 0.516
3705.00000 0.52
3710.00000 0.523
3715.00000 0.526
3720.00000 0.529
3725.00000 0.532
3730.00000 0.535
3735.00000 0.537
3740.00000 0.54
3745.00000 0.543
3750.00000 0.545
3755.00000 0.547
3760.00000 0.55
3765.00000 0.552
3770.00000 0.555
3775.00000 0.558
3780.00000 0.56
3785.00000 0.563
3790.00000 0.565
3795.00000 0.568
3800.00000 0.57
3805.00000 0.573
3810.00000 0.576
3815.00000 0.578
3820.00000 0.581
3825.00000 0.583
3830.00000 0.586
3835.00000 0.589
3840.00000 0.591
3845.00000 0.594
3850.00000 0.596
3855.00000 0.598
3860.00000 0.601
3865.00000 0.603
3870.00000 0.605
3875.00000 0.607
3880.00000 0.609
3885.00000 0.611
3890.00000 0.613
3895.00000 0.614
3900.00000 0.616
3905.00000 0.617
3910.00000 0.618
3915.00000 0.619
3920.00000 0.62
3925.00000 0.621
3930.00000 0.622
3935.00000 0.623
3940.00000 0.623
3945.00000 0.624
3950.00000 0.624
3955.00000 0.624
3960.00000 0.625
3965.00000 0.625
3970.00000 0.624
3975.00000 0.624
3980.00000 0.624
3985.00000 0.624
3990.00000 0.623
3995.00000 0.623
4000.00000 0.622
4005.00000 0.622
4010.00000 0.621
4015.00000 0.62
4020.00000 0.62
4025.00000 0.619
4030.00000 0.618
4035.00000 0.617
4040.00000 0.617
4045.00000 0.616
4050.00000 0.615
4055.00000 0.614
4060.00000 0.613
4065.00000 0.612
4070.00000 0.611
4075.00000 0.61
4080.00000 0.609
4085.00000 0.608
4090.00000 0.607
4095.00000 0.605
4100.00000 0.604
4105.00000 0.603
4110.00000 0.601
4115.00000 0.599
4120.00000 0.598
4125.00000 0.596
4130.00000 0.594
4135.00000 0.592
4140.00000 0.59
4145.00000 0.588
4150.00000 0.586
4155.00000 0.584
4160.00000 0.582
4165.00000 0.58
4170.00000 0.578
4175.00000 0.576
4180.00000 0.575
4185.00000 0.572
4190.00000 0.57
4195.00000 0.568
4200.00000 0.565
4205.00000 0.562
4210.00000 0.56
4215.00000 0.557
4220.00000 0.554
4225.00000 0.551
4230.00000 0.547
4235.00000 0.544
4240.00000 0.541
4245.00000 0.538
4250.00000 0.534
4255.00000 0.531
4260.00000 0.527
4265.00000 0.524
4270.00000 0.521
4275.00000 0.517
4280.00000 0.514
4285.00000 0.51
4290.00000 0.507
4295.00000 0.503
4300.00000 0.5
4305.00000 0.496
4310.00000 0.492
4315.00000 0.488
4320.00000 0.484
4325.00000 0.48
4330.00000 0.476
4335.00000 0.472
4340.00000 0.468
4345.00000 0.464
4350.00000 0.46
4355.00000 0.456
4360.00000 0.453
4365.00000 0.449
4370.00000 0.445
4375.00000 0.441
4380.00000 0.437
4385.00000 0.433
4390.00000 0.43
4395.00000 0.426
4400.00000 0.423
4405.00000 0.419
4410.00000 0.415
4415.00000 0.411
4420.00000 0.406
4425.00000 0.402
4430.00000 0.398
4435.00000 0.393
4440.00000 0.388
4445.00000 0.384
4450.00000 0.379
4455.00000 0.374
4460.00000 0.369
4465.00000 0.364
4470.00000 0.359
4475.00000 0.353
4480.00000 0.348
4485.00000 0.343
4490.00000 0.338
4495.00000 0.333
4500.00000 0.327
4505.00000 0.322
4510.00000 0.317
4515.00000 0.312
4520.00000 0.307
4525.00000 0.302
4530.00000 0.297
4535.00000 0.292
4540.00000 0.287
4545.00000 0.282
4550.00000 0.277
4555.00000 0.272
4560.00000 0.267
4565.00000 0.261
4570.00000 0.256
4575.00000 0.25
4580.00000 0.245
4585.00000 0.239
4590.00000 0.234
4595.00000 0.228
4600.00000 0.223
4605.00000 0.218
4610.00000 0.213
4615.00000 0.207
4620.00000 0.202
4625.00000 0.196
4630.00000 0.19
4635.00000 0.184
4640.00000 0.179
4645.00000 0.173
4650.00000 0.167
4655.00000 0.161
4660.00000 0.155
4665.00000 0.149
4670.00000 0.144
4675.00000 0.138
4680.00000 0.133
4685.00000 0.127
4690.00000 0.121
4695.00000 0.116
4700.00000 0.111
4705.00000 0.106
4710.00000 0.101
4715.00000 0.096
4720.00000 0.092
4725.00000 0.087
4730.00000 0.083
4735.00000 0.079
4740.00000 0.075
4745.00000 0.071
4750.00000 0.067
4755.00000 0.064
4760.00000 0.06
4765.00000 0.057
4770.00000 0.054
4775.00000 0.051
4780.00000 0.048
4785.00000 0.045
4790.00000 0.043
4795.00000 0.04
4800.00000 0.038
4805.00000 0.036
4810.00000 0.034
4815.00000 0.032
4820.00000 0.03
4825.00000 0.028
4830.00000 0.026
4835.00000 0.025
4840.00000 0.023
4845.00000 0.022
4850.00000 0.02
4855.00000 0.019
4860.00000 0.018
4865.00000 0.017
4870.00000 0.015
4875.00000 0.014
4880.00000 0.013
4885.00000 0.012
4890.00000 0.012
4895.00000 0.011
4900.00000 0.01
4905.00000 0.009
4910.00000 0.009
4915.00000 0.008
4920.00000 0.008
4925.00000 0.007
4930.00000 0.007
4935.00000 0.006
4940.00000 0.006
4945.00000 0.006
4950.00000 0.005
4955.00000 0.005
4960.00000 0.005
4965.00000 0.004
4970.00000 0.004
4975.00000 0.004
4980.00000 0.004
4985.00000 0.003
4990.00000 0.003
4995.00000 0.003
5000.00000 0.003
5500.00000 0.0
