# %ECSV 0.9
# ---
# datatype:
# - {name: wavelength, unit: Angstrom, datatype: float32}
# - {name: response, datatype: float32}
# meta: !!omap
# - {band_name: C}
# - {group_name: MosaicII}
wavelength response
2203.19995 0.0
2448.00000 0.0461
2452.00000 0.0458
2456.00000 0.0455
2460.00000 0.0452
2464.00000 0.0449
2468.00000 0.0446
2472.00000 0.0443
2476.00000 0.044
2480.00000 0.0437
2484.00000 0.0434
2488.00000 0.0431
2492.00000 0.0428
2496.00000 0.0425
2500.00000 0.0422
2504.00000 0.0419
2508.00000 0.0416
2512.00000 0.0413
2516.00000 0.041
2520.00000 0.0407
2524.00000 0.0404
2528.00000 0.04
2532.00000 0.0397
2536.00000 0.0394
2540.00000 0.0391
2544.00000 0.0388
2548.00000 0.0385
2552.00000 0.0382
2556.00000 0.0379
2560.00000 0.0376
2564.00000 0.0373
2568.00000 0.037
2572.00000 0.0367
2576.00000 0.0364
2580.00000 0.0361
2584.00000 0.0358
2588.00000 0.0355
2592.00000 0.0352
2596.00000 0.0349
2600.00000 0.0346
2604.00000 0.0343
2608.00000 0.034
2612.00000 0.0337
2616.00000 0.0334
2620.00000 0.0331
2624.00000 0.0328
2628.00000 0.0325
2632.00000 0.0322
2636.00000 0.0319
2640.00000 0.0316
2644.00000 0.0313
2648.00000 0.0309
2652.00000 0.0306
2656.00000 0.0303
2660.00000 0.03
2664.00000 0.0297
2668.00000 0.0294
2672.00000 0.0291
2676.00000 0.0288
2680.00000 0.0285
2684.00000 0.0282
2688.00000 0.0279
2692.00000 0.0276
2696.00000 0.0273
2700.00000 0.027
2704.00000 0.0267
2708.00000 0.0264
2712.00000 0.0261
2716.00000 0.0258
2720.00000 0.0255
2724.00000 0.0252
2728.00000 0.0249
2732.00000 0.0246
2736.00000 0.0243
2740.00000 0.024
2744.00000 0.0237
2748.00000 0.0234
2752.00000 0.0231
2756.00000 0.0228
2760.00000 0.0225
2764.00000 0.0222
2768.00000 0.0218
2772.00000 0.0215
2776.00000 0.0212
2780.00000 0.0209
2784.00000 0.0206
2788.00000 0.0203
2792.00000 0.02
2796.00000 0.0197
2800.00000 0.0194
2804.00000 0.0191
2808.00000 0.0188
2812.00000 0.0185
2816.00000 0.0182
2820.00000 0.0179
2824.00000 0.0176
2828.00000 0.0173
2832.00000 0.017
2836.00000 0.0167
2840.00000 0.0164
2844.00000 0.0161
2848.00000 0.0158
2852.00000 0.0155
2856.00000 0.0152
2860.00000 0.0149
2864.00000 0.0146
2868.00000 0.0143
2872.00000 0.014
2876.00000 0.0137
2880.00000 0.0134
2884.00000 0.0131
2888.00000 0.0127
2892.00000 0.0124
2896.00000 0.0121
2900.00000 0.0118
2904.00000 0.0115
2908.00000 0.0112
2912.00000 0.0109
2916.00000 0.0106
2920.00000 0.0103
2924.00000 0.01
2928.00000 0.0097
2932.00000 0.0094
2936.00000 0.0091
2940.00000 0.0088
2944.00000 0.0085
2948.00000 0.0082
2952.00000 0.0079
2956.00000 0.0076
2960.00000 0.0073
2964.00000 0.007
2968.00000 0.0067
2972.00000 0.0064
2976.00000 0.0061
2980.00000 0.0058
2984.00000 0.0055
2988.00000 0.0052
2992.00000 0.0049
2996.00000 0.0046
3000.00000 0.0043
3004.00000 0.004
3008.00000 0.0036
3012.00000 0.0033
3016.00000 0.003
3020.00000 0.0027
3024.00000 0.0024
3028.00000 0.0021
3032.00000 0.0018
3036.00000 0.0015
3040.00000 0.0012
3044.00000 0.001
3048.00000 0.0012
3052.00000 0.0013
3056.00000 0.002
3060.00000 0.0019
3064.00000 0.0006
3068.00000 0.0012
3072.00000 0.0014
3076.00000 0.0025
3080.00000 0.0027
3084.00000 0.0016
3088.00000 0.0016
3092.00000 0.0019
3096.00000 0.0015
3100.00000 0.0008
3104.00000 0.0025
3108.00000 0.0035
3112.00000 0.0031
3116.00000 0.0028
3120.00000 0.0024
3124.00000 0.0027
3128.00000 0.0035
3132.00000 0.0037
3136.00000 0.0051
3140.00000 0.0062
3144.00000 0.0073
3148.00000 0.0086
3152.00000 0.0106
3156.00000 0.0119
3160.00000 0.0143
3164.00000 0.0171
3168.00000 0.0201
3172.00000 0.0239
3176.00000 0.0282
3180.00000 0.0332
3184.00000 0.0386
3188.00000 0.0449
3192.00000 0.0512
3196.00000 0.0583
3200.00000 0.0663
3204.00000 0.0746
3208.00000 0.0838
3212.00000 0.0929
3216.00000 0.1022
3220.00000 0.1128
3224.00000 0.1241
3228.00000 0.1347
3232.00000 0.1453
3236.00000 0.1566
3240.00000 0.1683
3244.00000 0.1808
3248.00000 0.1921
3252.00000 0.204
3256.00000 0.216
3260.00000 0.2273
3264.00000 0.2401
3268.00000 0.2527
3272.00000 0.265
3276.00000 0.2769
3280.00000 0.2886
3284.00000 0.3013
3288.00000 0.3137
3292.00000 0.3246
3296.00000 0.3363
3300.00000 0.3472
3304.00000 0.3577
3308.00000 0.3685
3312.00000 0.379
3316.00000 0.3891
3320.00000 0.4003
3324.00000 0.4107
3328.00000 0.421
3332.00000 0.431
3336.00000 0.4406
3340.00000 0.4505
3344.00000 0.4599
3348.00000 0.47
3352.00000 0.4798
3356.00000 0.4874
3360.00000 0.495
3364.00000 0.5043
3368.00000 0.5122
3372.00000 0.5197
3376.00000 0.528
3380.00000 0.5365
3384.00000 0.5431
3388.00000 0.5506
3392.00000 0.558
3396.00000 0.5648
3400.00000 0.5726
3404.00000 0.5793
3408.00000 0.5849
3412.00000 0.5906
3416.00000 0.596
3420.00000 0.6014
3424.00000 0.607
3428.00000 0.6136
3432.00000 0.6191
3436.00000 0.6239
3440.00000 0.6292
3444.00000 0.6358
3448.00000 0.6414
3452.00000 0.6456
3456.00000 0.6507
3460.00000 0.6557
3464.00000 0.6603
3468.00000 0.6642
3472.00000 0.6689
3476.00000 0.6731
3480.00000 0.677
3484.00000 0.6803
3488.00000 0.6832
3492.00000 0.686
3496.00000 0.6907
3500.00000 0.6931
3504.00000 0.696
3508.00000 0.6993
3512.00000 0.7015
3516.00000 0.7057
3520.00000 0.7086
3524.00000 0.7109
3528.00000 0.713
3532.00000 0.7155
3536.00000 0.7204
3540.00000 0.7228
3544.00000 0.7245
3548.00000 0.7273
3552.00000 0.7293
3556.00000 0.7327
3560.00000 0.7339
3564.00000 0.7366
3568.00000 0.7394
3572.00000 0.742
3576.00000 0.7443
3580.00000 0.7482
3584.00000 0.7505
3588.00000 0.7511
3592.00000 0.7526
3596.00000 0.7546
3600.00000 0.7562
3604.00000 0.7585
3608.00000 0.7605
3612.00000 0.7623
3616.00000 0.7638
3620.00000 0.7642
3624.00000 0.7655
3628.00000 0.7678
3632.00000 0.7697
3636.00000 0.7708
3640.00000 0.7725
3644.00000 0.7711
3648.00000 0.7724
3652.00000 0.7736
3656.00000 0.7742
3660.00000 0.7754
3664.00000 0.7767
3668.00000 0.7776
3672.00000 0.7779
3676.00000 0.7776
3680.00000 0.7786
3684.00000 0.7782
3688.00000 0.7791
3692.00000 0.7784
3696.00000 0.7796
3700.00000 0.7798
3704.00000 0.7803
3708.00000 0.78
3712.00000 0.7812
3716.00000 0.7825
3720.00000 0.7829
3724.00000 0.7844
3728.00000 0.7836
3732.00000 0.7834
3736.00000 0.7846
3740.00000 0.7857
3744.00000 0.7867
3748.00000 0.788
3752.00000 0.7878
3756.00000 0.7888
3760.00000 0.7905
3764.00000 0.7922
3768.00000 0.7922
3772.00000 0.7915
3776.00000 0.7921
3780.00000 0.793
3784.00000 0.7935
3788.00000 0.7951
3792.00000 0.7957
3796.00000 0.7956
3800.00000 0.7954
3804.00000 0.7945
3808.00000 0.7943
3812.00000 0.7937
3816.00000 0.7936
3820.00000 0.795
3824.00000 0.7949
3828.00000 0.7945
3832.00000 0.7952
3836.00000 0.7958
3840.00000 0.7964
3844.00000 0.7964
3848.00000 0.7967
3852.00000 0.7963
3856.00000 0.7959
3860.00000 0.7971
3864.00000 0.7985
3868.00000 0.7969
3872.00000 0.797
3876.00000 0.7985
3880.00000 0.8
3884.00000 0.8003
3888.00000 0.7998
3892.00000 0.7984
3896.00000 0.7972
3900.00000 0.7977
3904.00000 0.7965
3908.00000 0.7964
3912.00000 0.7962
3916.00000 0.7963
3920.00000 0.7956
3924.00000 0.7945
3928.00000 0.7939
3932.00000 0.792
3936.00000 0.7909
3940.00000 0.7899
3944.00000 0.7872
3948.00000 0.786
3952.00000 0.7849
3956.00000 0.7834
3960.00000 0.7829
3964.00000 0.7805
3968.00000 0.7775
3972.00000 0.7751
3976.00000 0.7731
3980.00000 0.7717
3984.00000 0.7694
3988.00000 0.7668
3992.00000 0.7658
3996.00000 0.7633
4000.00000 0.7591
4004.00000 0.7563
4008.00000 0.7528
4012.00000 0.7508
4016.00000 0.7472
4020.00000 0.7444
4024.00000 0.7398
4028.00000 0.7364
4032.00000 0.7337
4036.00000 0.7299
4040.00000 0.7269
4044.00000 0.7237
4048.00000 0.7206
4052.00000 0.7173
4056.00000 0.7142
4060.00000 0.7117
4064.00000 0.7085
4068.00000 0.7054
4072.00000 0.7027
4076.00000 0.6986
4080.00000 0.6949
4084.00000 0.6938
4088.00000 0.6918
4092.00000 0.6883
4096.00000 0.6849
4100.00000 0.6828
4104.00000 0.6808
4108.00000 0.6776
4112.00000 0.6744
4116.00000 0.6718
4120.00000 0.6675
4124.00000 0.6647
4128.00000 0.663
4132.00000 0.6592
4136.00000 0.6555
4140.00000 0.652
4144.00000 0.6501
4148.00000 0.6467
4152.00000 0.6425
4156.00000 0.6394
4160.00000 0.6372
4164.00000 0.6325
4168.00000 0.629
4172.00000 0.6258
4176.00000 0.6228
4180.00000 0.6201
4184.00000 0.6175
4188.00000 0.613
4192.00000 0.6096
4196.00000 0.6055
4200.00000 0.6018
4204.00000 0.598
4208.00000 0.5949
4212.00000 0.5904
4216.00000 0.5859
4220.00000 0.5831
4224.00000 0.5811
4228.00000 0.5779
4232.00000 0.5738
4236.00000 0.5704
4240.00000 0.5666
4244.00000 0.5616
4248.00000 0.5573
4252.00000 0.5532
4256.00000 0.55
4260.00000 0.5452
4264.00000 0.5399
4268.00000 0.5357
4272.00000 0.5321
4276.00000 0.5284
4280.00000 0.5228
4284.00000 0.5177
4288.00000 0.513
4292.00000 0.5078
4296.00000 0.5031
4300.00000 0.4996
4304.00000 0.4954
4308.00000 0.4912
4312.00000 0.4866
4316.00000 0.4818
4320.00000 0.4773
4324.00000 0.4727
4328.00000 0.468
4332.00000 0.4627
4336.00000 0.4573
4340.00000 0.4534
4344.00000 0.4484
4348.00000 0.4441
4352.00000 0.4391
4356.00000 0.4339
4360.00000 0.4281
4364.00000 0.4249
4368.00000 0.4209
4372.00000 0.4179
4376.00000 0.4138
4380.00000 0.41
4384.00000 0.4051
4388.00000 0.4011
4392.00000 0.3975
4396.00000 0.3937
4400.00000 0.3897
4404.00000 0.3851
4408.00000 0.381
4412.00000 0.377
4416.00000 0.3734
4420.00000 0.3692
4424.00000 0.3654
4428.00000 0.3623
4432.00000 0.3575
4436.00000 0.3537
4440.00000 0.3495
4444.00000 0.3449
4448.00000 0.3407
4452.00000 0.3369
4456.00000 0.3327
4460.00000 0.3263
4464.00000 0.3211
4468.00000 0.3177
4472.00000 0.313
4476.00000 0.3084
4480.00000 0.3035
4484.00000 0.2979
4488.00000 0.293
4492.00000 0.2882
4496.00000 0.283
4500.00000 0.277
4504.00000 0.2721
4508.00000 0.2684
4512.00000 0.2644
4516.00000 0.2596
4520.00000 0.2553
4524.00000 0.2506
4528.00000 0.2464
4532.00000 0.2426
4536.00000 0.239
4540.00000 0.235
4544.00000 0.2311
4548.00000 0.2273
4552.00000 0.2224
4556.00000 0.2183
4560.00000 0.2149
4564.00000 0.2106
4568.00000 0.2057
4572.00000 0.2015
4576.00000 0.1971
4580.00000 0.1922
4584.00000 0.1878
4588.00000 0.183
4592.00000 0.1792
4596.00000 0.1751
4600.00000 0.1708
4604.00000 0.1667
4608.00000 0.1613
4612.00000 0.1563
4616.00000 0.1526
4620.00000 0.1502
4624.00000 0.1454
4628.00000 0.1408
4632.00000 0.1365
4636.00000 0.1315
4640.00000 0.1274
4644.00000 0.1236
4648.00000 0.1194
4652.00000 0.1148
4656.00000 0.1098
4660.00000 0.1061
4664.00000 0.1025
4668.00000 0.099
4672.00000 0.0942
4676.00000 0.0904
4680.00000 0.0857
4684.00000 0.0816
4688.00000 0.0776
4692.00000 0.0739
4696.00000 0.0702
4700.00000 0.0666
4704.00000 0.0633
4708.00000 0.0595
4712.00000 0.0554
4716.00000 0.0517
4720.00000 0.049
4724.00000 0.0461
4728.00000 0.0434
4732.00000 0.0405
4736.00000 0.0387
4740.00000 0.0363
4744.00000 0.034
4748.00000 0.0317
4752.00000 0.0298
4756.00000 0.0284
4760.00000 0.0257
4764.00000 0.0238
4768.00000 0.0225
4772.00000 0.0211
4776.00000 0.0197
4780.00000 0.0188
4784.00000 0.0169
4788.00000 0.0154
4792.00000 0.0137
4796.00000 0.0133
4800.00000 0.0127
4804.00000 0.0111
4808.00000 0.0104
4812.00000 0.0094
4816.00000 0.0086
4820.00000 0.008
4824.00000 0.0072
4828.00000 0.0067
4832.00000 0.0068
4836.00000 0.0058
4840.00000 0.005
4844.00000 0.0043
5328.39990 0.0
