# %ECSV 0.9
# ---
# datatype:
# - {name: wavelength, unit: Angstrom, datatype: float32}
# - {name: response, datatype: float32}
# meta: !!omap
# - {band_name: V}
# - {group_name: MosaicII}
wavelength response
4251.60010 0.0
4724.00000 0.0051
4728.00000 0.0052
4732.00000 0.0053
4736.00000 0.0057
4740.00000 0.0068
4744.00000 0.0081
4748.00000 0.0088
4752.00000 0.0101
4756.00000 0.0114
4760.00000 0.0133
4764.00000 0.0156
4768.00000 0.0175
4772.00000 0.0201
4776.00000 0.0231
4780.00000 0.0265
4784.00000 0.0311
4788.00000 0.036
4792.00000 0.0414
4796.00000 0.0476
4800.00000 0.0543
4804.00000 0.0619
4808.00000 0.0693
4812.00000 0.0786
4816.00000 0.0886
4820.00000 0.0997
4824.00000 0.1105
4828.00000 0.1234
4832.00000 0.1372
4836.00000 0.1515
4840.00000 0.168
4844.00000 0.1851
4848.00000 0.2029
4852.00000 0.2237
4856.00000 0.2476
4860.00000 0.2651
4864.00000 0.2775
4868.00000 0.2909
4872.00000 0.3074
4876.00000 0.3246
4880.00000 0.3427
4884.00000 0.3635
4888.00000 0.3872
4892.00000 0.4114
4896.00000 0.4333
4900.00000 0.4547
4904.00000 0.4752
4908.00000 0.4953
4912.00000 0.5141
4916.00000 0.5318
4920.00000 0.5497
4924.00000 0.5674
4928.00000 0.5832
4932.00000 0.599
4936.00000 0.6148
4940.00000 0.6297
4944.00000 0.6441
4948.00000 0.6575
4952.00000 0.6708
4956.00000 0.6827
4960.00000 0.6943
4964.00000 0.7048
4968.00000 0.7142
4972.00000 0.7243
4976.00000 0.7348
4980.00000 0.7443
4984.00000 0.7529
4988.00000 0.7603
4992.00000 0.7677
4996.00000 0.7747
5000.00000 0.7816
5004.00000 0.7885
5008.00000 0.7942
5012.00000 0.8007
5016.00000 0.8074
5020.00000 0.8138
5024.00000 0.8194
5028.00000 0.8223
5032.00000 0.8256
5036.00000 0.8287
5040.00000 0.8329
5044.00000 0.8364
5048.00000 0.8401
5052.00000 0.8432
5056.00000 0.8459
5060.00000 0.8488
5064.00000 0.8518
5068.00000 0.8549
5072.00000 0.8566
5076.00000 0.8578
5080.00000 0.8585
5084.00000 0.8613
5088.00000 0.8632
5092.00000 0.864
5096.00000 0.8654
5100.00000 0.8667
5104.00000 0.8676
5108.00000 0.8673
5112.00000 0.8672
5116.00000 0.869
5120.00000 0.8697
5124.00000 0.8712
5128.00000 0.8712
5132.00000 0.8717
5136.00000 0.8717
5140.00000 0.8717
5144.00000 0.8712
5148.00000 0.8716
5152.00000 0.8729
5156.00000 0.8738
5160.00000 0.874
5164.00000 0.8744
5168.00000 0.8746
5172.00000 0.8753
5176.00000 0.8754
5180.00000 0.8751
5184.00000 0.8746
5188.00000 0.8753
5192.00000 0.8761
5196.00000 0.8751
5200.00000 0.874
5204.00000 0.8737
5208.00000 0.8733
5212.00000 0.8732
5216.00000 0.874
5220.00000 0.8749
5224.00000 0.8754
5228.00000 0.8752
5232.00000 0.8739
5236.00000 0.8722
5240.00000 0.8717
5244.00000 0.8708
5248.00000 0.8692
5252.00000 0.8681
5256.00000 0.8684
5260.00000 0.8692
5264.00000 0.8686
5268.00000 0.8667
5272.00000 0.8664
5276.00000 0.866
5280.00000 0.8643
5284.00000 0.8646
5288.00000 0.8641
5292.00000 0.8624
5296.00000 0.861
5300.00000 0.8607
5304.00000 0.8605
5308.00000 0.8598
5312.00000 0.8596
5316.00000 0.8586
5320.00000 0.8576
5324.00000 0.8563
5328.00000 0.8548
5332.00000 0.8541
5336.00000 0.8536
5340.00000 0.8524
5344.00000 0.8505
5348.00000 0.8492
5352.00000 0.8492
5356.00000 0.8485
5360.00000 0.8472
5364.00000 0.8453
5368.00000 0.8422
5372.00000 0.8398
5376.00000 0.8392
5380.00000 0.8386
5384.00000 0.8377
5388.00000 0.8361
5392.00000 0.8336
5396.00000 0.8319
5400.00000 0.8311
5404.00000 0.8307
5408.00000 0.8287
5412.00000 0.826
5416.00000 0.8231
5420.00000 0.8213
5424.00000 0.8194
5428.00000 0.8178
5432.00000 0.816
5436.00000 0.814
5440.00000 0.8106
5444.00000 0.8087
5448.00000 0.8068
5452.00000 0.8049
5456.00000 0.802
5460.00000 0.7996
5464.00000 0.7987
5468.00000 0.797
5472.00000 0.7941
5476.00000 0.7904
5480.00000 0.7871
5484.00000 0.7854
5488.00000 0.7832
5492.00000 0.7808
5496.00000 0.7777
5500.00000 0.7754
5504.00000 0.7722
5508.00000 0.769
5512.00000 0.7655
5516.00000 0.7627
5520.00000 0.7597
5524.00000 0.7558
5528.00000 0.7534
5532.00000 0.7515
5536.00000 0.7486
5540.00000 0.7452
5544.00000 0.7407
5548.00000 0.7369
5552.00000 0.7339
5556.00000 0.7316
5560.00000 0.7294
5564.00000 0.7263
5568.00000 0.7227
5572.00000 0.7197
5576.00000 0.7162
5580.00000 0.7129
5584.00000 0.7086
5588.00000 0.7061
5592.00000 0.7032
5596.00000 0.6992
5600.00000 0.6947
5604.00000 0.6913
5608.00000 0.6876
5612.00000 0.6836
5616.00000 0.6799
5620.00000 0.6767
5624.00000 0.674
5628.00000 0.6705
5632.00000 0.6669
5636.00000 0.6629
5640.00000 0.659
5644.00000 0.654
5648.00000 0.6495
5652.00000 0.6463
5656.00000 0.6432
5660.00000 0.6395
5664.00000 0.6345
5668.00000 0.6295
5672.00000 0.6241
5676.00000 0.6197
5680.00000 0.6155
5684.00000 0.6121
5688.00000 0.6089
5692.00000 0.6045
5696.00000 0.5999
5700.00000 0.5953
5704.00000 0.5911
5708.00000 0.5867
5712.00000 0.5816
5716.00000 0.5775
5720.00000 0.5737
5724.00000 0.5694
5728.00000 0.5645
5732.00000 0.5594
5736.00000 0.5551
5740.00000 0.5503
5744.00000 0.5459
5748.00000 0.5417
5752.00000 0.5378
5756.00000 0.534
5760.00000 0.5297
5764.00000 0.524
5768.00000 0.5184
5772.00000 0.5131
5776.00000 0.5072
5780.00000 0.5016
5784.00000 0.4983
5788.00000 0.4954
5792.00000 0.4914
5796.00000 0.4867
5800.00000 0.4812
5804.00000 0.476
5808.00000 0.4702
5812.00000 0.4638
5816.00000 0.4597
5820.00000 0.4556
5824.00000 0.452
5828.00000 0.4483
5832.00000 0.4452
5836.00000 0.4415
5840.00000 0.4359
5844.00000 0.4291
5848.00000 0.4224
5852.00000 0.4168
5856.00000 0.4126
5860.00000 0.4089
5864.00000 0.4044
5868.00000 0.3987
5872.00000 0.3934
5876.00000 0.3883
5880.00000 0.3835
5884.00000 0.3795
5888.00000 0.3756
5892.00000 0.3723
5896.00000 0.3684
5900.00000 0.3636
5904.00000 0.3586
5908.00000 0.3529
5912.00000 0.3477
5916.00000 0.3436
5920.00000 0.3387
5924.00000 0.3337
5928.00000 0.3275
5932.00000 0.3222
5936.00000 0.3188
5940.00000 0.3154
5944.00000 0.3113
5948.00000 0.3066
5952.00000 0.302
5956.00000 0.2978
5960.00000 0.2941
5964.00000 0.29
5968.00000 0.2858
5972.00000 0.2816
5976.00000 0.277
5980.00000 0.2723
5984.00000 0.2678
5988.00000 0.2626
5992.00000 0.2585
5996.00000 0.2544
6000.00000 0.2507
6004.00000 0.247
6008.00000 0.2431
6012.00000 0.2392
6016.00000 0.2355
6020.00000 0.2322
6024.00000 0.2281
6028.00000 0.2236
6032.00000 0.2194
6036.00000 0.2159
6040.00000 0.2118
6044.00000 0.2084
6048.00000 0.2048
6052.00000 0.2009
6056.00000 0.1968
6060.00000 0.1925
6064.00000 0.1889
6068.00000 0.1854
6072.00000 0.1812
6076.00000 0.1782
6080.00000 0.1752
6084.00000 0.1725
6088.00000 0.1693
6092.00000 0.1661
6096.00000 0.1629
6100.00000 0.1592
6104.00000 0.1567
6108.00000 0.1539
6112.00000 0.1509
6116.00000 0.1482
6120.00000 0.1458
6124.00000 0.1428
6128.00000 0.1395
6132.00000 0.1365
6136.00000 0.1333
6140.00000 0.1304
6144.00000 0.1283
6148.00000 0.1259
6152.00000 0.1225
6156.00000 0.1193
6160.00000 0.1168
6164.00000 0.1145
6168.00000 0.1124
6172.00000 0.1096
6176.00000 0.1064
6180.00000 0.1037
6184.00000 0.1021
6188.00000 0.1007
6192.00000 0.0985
6196.00000 0.0956
6200.00000 0.0928
6204.00000 0.0915
6208.00000 0.0904
6212.00000 0.0879
6216.00000 0.0852
6220.00000 0.0822
6224.00000 0.0806
6228.00000 0.0792
6232.00000 0.0772
6236.00000 0.0756
6240.00000 0.0734
6244.00000 0.071
6248.00000 0.0688
6252.00000 0.0663
6256.00000 0.0658
6260.00000 0.0649
6264.00000 0.0632
6268.00000 0.061
6272.00000 0.0591
6276.00000 0.0573
6280.00000 0.0563
6284.00000 0.055
6288.00000 0.0537
6292.00000 0.0522
6296.00000 0.0506
6300.00000 0.0485
6304.00000 0.0473
6308.00000 0.0459
6312.00000 0.0447
6316.00000 0.0435
6320.00000 0.0428
6324.00000 0.0417
6328.00000 0.041
6332.00000 0.0395
6336.00000 0.0378
6340.00000 0.0368
6344.00000 0.036
6348.00000 0.035
6352.00000 0.0342
6356.00000 0.0326
6360.00000 0.0313
6364.00000 0.0308
6368.00000 0.0298
6372.00000 0.0291
6376.00000 0.028
6380.00000 0.0273
6384.00000 0.0261
6388.00000 0.0258
6392.00000 0.0247
6396.00000 0.0241
6400.00000 0.0238
6404.00000 0.0226
6408.00000 0.0214
6412.00000 0.0205
6416.00000 0.0203
6420.00000 0.0198
6424.00000 0.0197
6428.00000 0.0186
6432.00000 0.0176
6436.00000 0.0171
6440.00000 0.0168
6444.00000 0.0168
6448.00000 0.0164
6452.00000 0.0156
6456.00000 0.0149
6460.00000 0.0143
6464.00000 0.0137
6468.00000 0.013
6472.00000 0.013
6476.00000 0.0126
6480.00000 0.0118
6484.00000 0.0117
6488.00000 0.011
6492.00000 0.0104
6496.00000 0.01
6500.00000 0.01
6504.00000 0.0103
6508.00000 0.0101
6512.00000 0.0092
6516.00000 0.0088
6520.00000 0.0082
6524.00000 0.0078
6528.00000 0.0077
6532.00000 0.0073
6536.00000 0.0069
6540.00000 0.0068
6544.00000 0.0063
6548.00000 0.006
6552.00000 0.0057
6556.00000 0.0051
6560.00000 0.005
6564.00000 0.005
6568.00000 0.005
6572.00000 0.005
6576.00000 0.005
6580.00000 0.0048
6584.00000 0.0043
6588.00000 0.0044
6592.00000 0.004
7251.20020 0.0
