# %ECSV 0.9
# ---
# datatype:
# - {name: wavelength, unit: Angstrom, datatype: float32}
# - {name: response, datatype: float32}
# meta: !!omap
# - {band_name: F954W_4}
# - {group_name: ALHAMBRA}
wavelength response
8332.72266 0.0
9258.58105 0.000868
9260.33203 0.002131
9262.06348 0.002289
9263.71777 0.001182
9265.91113 0.002521
9267.65039 0.001497
9269.38281 0.001572
9271.02930 0.003239
9273.22949 0.001416
9274.96777 0.002441
9276.71289 0.002603
9278.81543 0.00134
9280.54785 0.003223
9282.29883 0.001885
9284.03125 0.002756
9286.13379 0.00322
9287.88477 0.001724
9289.61621 0.003367
9291.36816 0.002509
9293.46387 0.002909
9295.19531 0.004334
9296.94727 0.002986
9298.67871 0.004154
9300.87988 0.004724
9302.53320 0.004126
9304.26562 0.005831
9305.99707 0.006028
9307.74805 0.006261
9309.94824 0.009893
9311.58301 0.010435
9313.33398 0.012725
9315.06641 0.01758
9316.79785 0.020494
9318.99805 0.027623
9320.74902 0.036508
9322.48047 0.04626
9324.21191 0.058782
9325.96387 0.075156
9327.69531 0.096035
9329.53223 0.123041
9331.36719 0.156752
9333.09863 0.195079
9334.92969 0.242151
9336.84863 0.292296
9338.67969 0.348169
9340.61230 0.403967
9342.61719 0.464709
9344.55176 0.517399
9346.56250 0.568862
9348.56250 0.615129
9350.68457 0.653786
9352.69531 0.685365
9354.79883 0.710888
9356.89551 0.73215
9359.01758 0.750808
9361.11328 0.766748
9363.21680 0.777029
9365.41797 0.796321
9367.51367 0.815522
9369.62988 0.828731
9371.81738 0.846232
9374.01758 0.856963
9376.13281 0.873133
9378.31445 0.882219
9380.51465 0.892525
9382.71582 0.897987
9384.91602 0.900344
9387.11621 0.90084
9389.31738 0.897971
9391.49707 0.895919
9393.69922 0.896406
9395.81445 0.89199
9397.99512 0.891719
9400.19629 0.889932
9402.39648 0.888955
9404.59668 0.889796
9406.79785 0.892807
9408.97754 0.897036
9411.17969 0.894375
9413.37891 0.900946
9415.48242 0.899729
9417.68359 0.902119
9419.88281 0.907305
9422.08398 0.900682
9424.28418 0.906343
9426.47852 0.91186
9428.66602 0.909859
9430.86719 0.908151
9433.06738 0.907651
9435.26660 0.90657
9437.46875 0.908438
9439.64844 0.90683
9441.84961 0.908936
9444.04980 0.902598
9446.25098 0.910111
9448.45117 0.900525
9450.64551 0.905193
9452.83301 0.903444
9455.03320 0.90624
9457.23438 0.901908
9459.43457 0.902883
9461.63477 0.899626
9463.81543 0.903983
9466.01562 0.90052
9468.21680 0.90623
9470.41699 0.899636
9472.61816 0.897271
9474.81250 0.904091
9477.00000 0.89859
9479.20020 0.903332
9481.39941 0.908842
9483.60156 0.892376
9485.80078 0.894211
9487.99512 0.9
9490.18262 0.90323
9492.38379 0.896563
9494.58398 0.900272
9496.78418 0.897293
9498.97852 0.89202
9501.16504 0.895963
9503.36719 0.898509
9505.56641 0.892693
9507.76758 0.896426
9509.86426 0.893693
9512.06445 0.886423
9514.26465 0.895151
9516.46582 0.889861
9518.66602 0.890433
9520.84766 0.894821
9523.04688 0.893494
9525.24805 0.896363
9527.44824 0.887989
9529.64844 0.89775
9531.83008 0.895483
9534.03027 0.897912
9536.23145 0.898799
9538.43164 0.896059
9540.63281 0.899584
9542.83301 0.898065
9545.01367 0.900101
9547.21484 0.899418
9549.41406 0.90288
9551.61523 0.899808
9553.81543 0.900678
9555.99707 0.894536
9558.19727 0.902103
9560.39844 0.897084
9562.59863 0.902823
9564.79785 0.896035
9567.00000 0.899749
9569.17969 0.893894
9571.38086 0.89445
9573.58105 0.895013
9575.78223 0.890955
9577.98242 0.892977
9580.18262 0.889783
9582.27832 0.892269
9584.48047 0.896037
9586.66797 0.893173
9588.86816 0.893092
9591.06152 0.893218
9593.26270 0.89771
9595.46289 0.891568
9597.66309 0.889905
9599.85059 0.885135
9602.05176 0.873595
9604.24609 0.869808
9606.44531 0.861305
9608.54883 0.844212
9610.75000 0.843311
9612.94922 0.829831
9615.04590 0.820571
9617.24707 0.813298
9619.34961 0.808822
9621.55078 0.808625
9623.64648 0.805434
9625.76270 0.811477
9627.96289 0.814588
9630.06543 0.817722
9632.26660 0.817753
9634.36328 0.811655
9636.56250 0.795802
9638.66602 0.765558
9640.78223 0.721961
9642.88477 0.662195
9644.89648 0.593075
9646.91504 0.513118
9648.91406 0.432976
9650.84668 0.358214
9652.68359 0.285064
9654.49902 0.227085
9656.32812 0.175292
9658.16504 0.136053
9659.91602 0.1063
9661.73242 0.083294
9663.48340 0.065061
9665.21484 0.050568
9666.94727 0.040017
9668.69824 0.032264
9670.43066 0.025107
9672.18164 0.01944
9673.91406 0.016102
9675.64551 0.014109
9677.76758 0.00942
9679.49902 0.009088
9681.23047 0.007266
9682.98242 0.005406
9684.71387 0.005552
9686.91504 0.00402
9688.56152 0.002944
9690.30078 0.003947
9692.03223 0.002619
9694.23145 0.003321
9695.98340 0.003252
9697.61719 0.001472
9699.36230 0.002476
9701.56348 0.001624
9703.30176 0.001629
9704.94922 0.002867
9706.68066 0.001392
9708.88086 0.002168
9710.61230 0.001009
9712.36328 0.000696
10683.59961 0.0
