# %ECSV 0.9
# ---
# datatype:
# - {name: wavelength, unit: Angstrom, datatype: float32}
# - {name: response, datatype: float32}
# meta: !!omap
# - {band_name: V}
# - {group_name: Astralux}
wavelength response
3872.09888 0.0
4302.33203 0.002247
4305.58203 0.002254
4308.83105 0.00226
4312.08105 0.002267
4315.33105 0.002274
4318.58105 0.00228
4321.83203 0.002287
4325.08203 0.002293
4328.33203 0.0023
4331.58203 0.002306
4334.83203 0.002313
4338.08203 0.002319
4341.33301 0.002326
4344.58301 0.002333
4347.83301 0.002339
4351.08301 0.002346
4354.33398 0.002352
4357.58398 0.002359
4360.83496 0.002365
4364.08594 0.002372
4367.33594 0.002378
4370.58691 0.002385
4373.83789 0.002391
4377.08789 0.002399
4380.33887 0.002406
4383.58984 0.002416
4386.84082 0.002428
4390.09180 0.002444
4393.34277 0.002468
4396.59424 0.002504
4399.84521 0.002558
4403.09619 0.002635
4406.34717 0.00274
4409.59814 0.002879
4412.84912 0.003052
4416.10107 0.003255
4419.35205 0.003479
4422.60303 0.003712
4425.85400 0.003936
4429.10596 0.004136
4432.35693 0.004298
4435.60889 0.004412
4438.85986 0.004474
4442.11182 0.004488
4445.36279 0.004458
4448.61523 0.004394
4451.86719 0.004306
4455.11816 0.004203
4458.37012 0.004092
4461.62207 0.00398
4464.87402 0.003869
4468.12500 0.003762
4471.37695 0.003662
4474.62891 0.003569
4477.88086 0.003483
4481.13379 0.003404
4484.38623 0.003334
4487.63818 0.003271
4490.89014 0.003215
4494.14209 0.003168
4497.39502 0.003128
4500.64697 0.003096
4503.89893 0.003071
4507.15088 0.003055
4510.40381 0.003046
4513.65576 0.003044
4516.90918 0.003051
4520.16211 0.003065
4523.41406 0.003087
4526.66699 0.003117
4529.91895 0.003154
4533.17188 0.003199
4536.42480 0.003252
4539.67822 0.003312
4542.93115 0.003381
4546.18408 0.003457
4549.43701 0.00354
4552.68896 0.003632
4555.94189 0.003731
4559.19482 0.003838
4562.44922 0.003953
4565.70215 0.004075
4568.95508 0.004205
4572.20801 0.004343
4575.46094 0.004488
4578.71484 0.004641
4581.96777 0.004802
4585.22217 0.004971
4588.47510 0.005148
4591.72900 0.005332
4594.98193 0.005523
4598.23584 0.005723
4601.48877 0.00593
4604.74316 0.006145
4607.99707 0.006368
4611.25000 0.006599
4614.50391 0.006837
4617.75781 0.007083
4621.01221 0.007336
4624.26611 0.007598
4627.52002 0.007867
4630.77393 0.008144
4634.02783 0.008428
4637.28223 0.00872
4640.53711 0.00902
4643.79102 0.009328
4647.04492 0.009643
4650.29883 0.009967
4653.55420 0.010298
4656.80811 0.010636
4660.06299 0.010982
4663.31689 0.011336
4666.57080 0.011697
4669.82617 0.012065
4673.08105 0.012439
4676.33496 0.012819
4679.58984 0.013205
4682.84521 0.0136
4686.10010 0.014005
4689.35400 0.014424
4692.60889 0.014864
4695.86377 0.015327
4699.11914 0.015813
4702.37500 0.016318
4705.62891 0.01683
4708.88379 0.01733
4712.14014 0.017794
4715.39502 0.0182
4718.64990 0.018532
4721.90479 0.018787
4725.16113 0.018973
4728.41602 0.019114
4731.67188 0.019245
4734.92676 0.019402
4738.18311 0.019621
4741.43799 0.019928
4744.69385 0.02033
4747.95020 0.020822
4751.20508 0.02139
4754.46094 0.022019
4757.71680 0.022703
4760.97314 0.023452
4764.22900 0.024297
4767.48389 0.025288
4770.74121 0.026479
4773.99707 0.027928
4777.25195 0.029682
4780.50879 0.031776
4783.76514 0.034235
4787.02100 0.037073
4790.27686 0.040299
4793.53418 0.043926
4796.79004 0.047976
4800.04688 0.052475
4803.30322 0.057464
4806.56006 0.06298
4809.81592 0.06906
4813.07324 0.075726
4816.33008 0.082988
4819.58594 0.090839
4822.84277 0.099261
4826.10010 0.108235
4829.35596 0.117745
4832.61279 0.127783
4835.87109 0.13835
4839.12695 0.149456
4842.38379 0.161107
4845.64209 0.173312
4848.89893 0.186068
4852.15576 0.199363
4855.41309 0.213176
4858.66992 0.227477
4861.92822 0.242236
4865.18506 0.257412
4868.44287 0.272962
4871.70020 0.288833
4874.95801 0.30496
4878.21484 0.321266
4881.47314 0.337666
4884.72998 0.354069
4887.98779 0.370391
4891.24609 0.386561
4894.50391 0.402538
4897.76221 0.418305
4901.02002 0.433872
4904.27783 0.44926
4907.53613 0.464502
4910.79297 0.479619
4914.05176 0.494614
4917.31006 0.509468
4920.56787 0.524141
4923.82715 0.538586
4927.08496 0.552748
4930.34277 0.566584
4933.60205 0.58006
4936.85986 0.593165
4940.11914 0.605904
4943.37695 0.618292
4946.63623 0.630349
4949.89502 0.642093
4953.15283 0.65353
4956.41211 0.66466
4959.66992 0.675477
4962.93018 0.68597
4966.18799 0.696141
4969.44678 0.705993
4972.70703 0.715534
4975.96484 0.724769
4979.22510 0.733698
4982.48389 0.742308
4985.74316 0.750575
4989.00195 0.758473
4992.26221 0.765984
4995.52100 0.773097
4998.77979 0.779831
5002.04004 0.786228
5005.29883 0.792347
5008.55908 0.798263
5011.81787 0.804043
5015.07812 0.809743
5018.33789 0.815393
5021.59814 0.821004
5024.85693 0.826557
5028.11719 0.832025
5031.37695 0.837365
5034.63721 0.842533
5037.89697 0.847482
5041.15723 0.852182
5044.41699 0.85661
5047.67822 0.860756
5050.93799 0.864633
5054.19824 0.868269
5057.45801 0.871694
5060.71924 0.874949
5063.97900 0.878068
5067.24023 0.881085
5070.50000 0.884024
5073.76123 0.886903
5077.02100 0.88973
5080.28223 0.892511
5083.54297 0.895248
5086.80420 0.897944
5090.06494 0.900592
5093.32617 0.90319
5096.58691 0.905733
5099.84814 0.908207
5103.10889 0.910602
5106.37012 0.912899
5109.63086 0.915076
5112.89209 0.917114
5116.15381 0.918995
5119.41504 0.920703
5122.67578 0.922223
5125.93799 0.923555
5129.19922 0.924706
5132.46094 0.925691
5135.72314 0.926542
5138.98389 0.927297
5142.24609 0.927998
5145.50781 0.928685
5148.77002 0.929391
5152.03076 0.930129
5155.29297 0.930899
5158.55518 0.931682
5161.81689 0.932449
5165.07910 0.933175
5168.34082 0.93384
5171.60400 0.934444
5174.86621 0.934997
5178.12793 0.935523
5181.39111 0.936044
5184.65283 0.936583
5187.91602 0.937151
5191.17822 0.937749
5194.43994 0.938368
5197.70312 0.938991
5200.96582 0.939598
5204.22900 0.940165
5207.49121 0.940674
5210.75391 0.941111
5214.01709 0.941467
5217.27979 0.941732
5220.54297 0.941899
5223.80615 0.941955
5227.06885 0.941892
5230.33301 0.941701
5233.59619 0.941394
5236.85889 0.940984
5240.12207 0.940506
5243.38477 0.939995
5246.64893 0.939494
5249.91309 0.939021
5253.17578 0.938592
5256.43896 0.938199
5259.70312 0.937822
5262.96680 0.937447
5266.23096 0.937062
5269.49512 0.936671
5272.75781 0.936288
5276.02197 0.935944
5279.28711 0.935661
5282.54980 0.935452
5285.81396 0.935309
5289.07910 0.935199
5292.34277 0.935073
5295.60693 0.934881
5298.87207 0.934579
5302.13623 0.934142
5305.39990 0.933569
5308.66504 0.932878
5311.92920 0.932099
5315.19385 0.931268
5318.45801 0.930413
5321.72412 0.929546
5324.98779 0.928665
5328.25293 0.927742
5331.51807 0.926739
5334.78320 0.925611
5338.04785 0.924319
5341.31299 0.922836
5344.57812 0.921159
5347.84277 0.919309
5351.10791 0.917331
5354.37402 0.915288
5357.63916 0.913246
5360.90479 0.911271
5364.16992 0.909405
5367.43604 0.907667
5370.70117 0.906041
5373.96680 0.904488
5377.23193 0.90295
5380.49805 0.901372
5383.76416 0.899712
5387.02979 0.89795
5390.29590 0.896097
5393.56201 0.894176
5396.82812 0.892227
5400.09424 0.89028
5403.35986 0.888357
5406.62598 0.886459
5409.89307 0.884577
5413.15918 0.882688
5416.42480 0.880776
5419.69092 0.87883
5422.95801 0.876857
5426.22510 0.874868
5429.49121 0.872883
5432.75781 0.870917
5436.02490 0.86897
5439.29199 0.867031
5442.55908 0.865078
5445.82520 0.863078
5449.09180 0.861002
5452.35889 0.85883
5455.62598 0.856555
5458.89404 0.854189
5462.16113 0.851755
5465.42822 0.849288
5468.69482 0.846827
5471.96191 0.844408
5475.22998 0.842054
5478.49805 0.839774
5481.76514 0.837557
5485.03320 0.835378
5488.29980 0.833193
5491.56787 0.830952
5494.83594 0.828606
5498.10400 0.82611
5501.37207 0.823438
5504.64014 0.82059
5507.90820 0.817586
5511.17578 0.814473
5514.44385 0.811311
5517.71191 0.808161
5520.97998 0.805074
5524.24902 0.80208
5527.51709 0.799184
5530.78613 0.796367
5534.05420 0.793599
5537.32324 0.790843
5540.59082 0.788064
5543.85986 0.785235
5547.12793 0.782339
5550.39697 0.779374
5553.66699 0.776344
5556.93506 0.773268
5560.20410 0.770165
5563.47314 0.767057
5566.74219 0.76396
5570.01221 0.760876
5573.28076 0.757795
5576.54980 0.754695
5579.81885 0.751543
5583.08887 0.748304
5586.35791 0.744952
5589.62793 0.741477
5592.89697 0.737879
5596.16699 0.734182
5599.43701 0.730416
5602.70703 0.726613
5605.97705 0.722801
5609.24609 0.718998
5612.51611 0.715217
5615.78711 0.711456
5619.05713 0.707708
5622.32715 0.703971
5625.59717 0.700237
5628.86719 0.696499
5632.13721 0.69275
5635.40820 0.688981
5638.67822 0.685187
5641.94922 0.681359
5645.21924 0.677494
5648.49023 0.673596
5651.76123 0.669671
5655.03076 0.665735
5658.30176 0.661803
5661.57324 0.657889
5664.84424 0.654001
5668.11523 0.650143
5671.38623 0.646303
5674.65723 0.642468
5677.92920 0.638614
5681.20020 0.634724
5684.47119 0.63078
5687.74316 0.626774
5691.01416 0.622705
5694.28613 0.618581
5697.55713 0.614413
5700.82910 0.610215
5704.10107 0.606002
5707.37207 0.601777
5710.64404 0.597545
5713.91602 0.593299
5717.18799 0.589036
5720.45996 0.584754
5723.73193 0.580454
5727.00391 0.576145
5730.27588 0.57184
5733.54785 0.56755
5736.82080 0.563284
5740.09277 0.559044
5743.36621 0.554827
5746.63818 0.550624
5749.91113 0.546425
5753.18408 0.542227
5756.45605 0.538031
5759.72900 0.533846
5763.00195 0.529681
5766.27490 0.525548
5769.54785 0.521448
5772.82080 0.517377
5776.09424 0.513321
5779.36719 0.509262
5782.64111 0.505187
5785.91406 0.501088
5789.18701 0.496966
5792.45996 0.492833
5795.73389 0.488705
5799.00781 0.484595
5802.28076 0.480508
5805.55518 0.47644
5808.82910 0.472379
5812.10303 0.468303
5815.37598 0.464194
5818.64990 0.460036
5821.92383 0.455827
5825.19824 0.45157
5828.47217 0.447279
5831.74707 0.442969
5835.02100 0.438656
5838.29492 0.43435
5841.56885 0.430063
5844.84424 0.425801
5848.11914 0.421574
5851.39307 0.417386
5854.66797 0.413248
5857.94189 0.409162
5861.21680 0.405129
5864.49219 0.401147
5867.76709 0.397205
5871.04199 0.393288
5874.31689 0.389382
5877.59180 0.385471
5880.86816 0.381543
5884.14307 0.37759
5887.41797 0.37361
5890.69287 0.369607
5893.96924 0.365586
5897.24414 0.361557
5900.52002 0.357529
5903.79590 0.353512
5907.07080 0.349513
5910.34717 0.345543
5913.62305 0.341606
5916.89893 0.33771
5920.17480 0.333858
5923.45117 0.330051
5926.72705 0.32629
5930.00293 0.32257
5933.27881 0.318883
5936.55615 0.315221
5939.83203 0.311572
5943.10791 0.307926
5946.38477 0.30427
5949.66211 0.300597
5952.93799 0.296904
5956.21484 0.293189
5959.49219 0.289462
5962.76904 0.285737
5966.04492 0.282033
5969.32324 0.278368
5972.60010 0.274756
5975.87695 0.271201
5979.15381 0.267696
5982.43115 0.264221
5985.70801 0.260751
5988.98584 0.257256
5992.26318 0.253717
5995.54102 0.250129
5998.81787 0.2465
6002.09619 0.242859
6005.37402 0.239241
6008.65186 0.235686
6011.93018 0.232227
6015.20801 0.228881
6018.48486 0.225649
6021.76416 0.22252
6025.04199 0.219468
6028.31982 0.216464
6031.59814 0.213484
6034.87598 0.21051
6038.15479 0.207535
6041.43408 0.204561
6044.71191 0.201597
6047.99121 0.198659
6051.27002 0.195755
6054.54785 0.19289
6057.82715 0.190066
6061.10596 0.187276
6064.38477 0.184514
6067.66406 0.181776
6070.94287 0.17906
6074.22217 0.176369
6077.50098 0.173707
6080.78076 0.171079
6084.06006 0.168488
6087.33887 0.165931
6090.61914 0.163406
6093.89795 0.160905
6097.17822 0.158424
6100.45801 0.155959
6103.73779 0.153505
6107.01807 0.151063
6110.29785 0.148628
6113.57812 0.146202
6116.85693 0.143783
6120.13818 0.141367
6123.41797 0.138957
6126.69824 0.136552
6129.97900 0.134158
6133.25879 0.131782
6136.54004 0.129437
6139.81982 0.127136
6143.10107 0.124889
6146.38086 0.122706
6149.66309 0.120585
6152.94287 0.118525
6156.22412 0.116514
6159.50488 0.11454
6162.78613 0.112591
6166.06689 0.110656
6169.34912 0.108731
6172.62988 0.106813
6175.91113 0.104903
6179.19189 0.103007
6182.47412 0.101128
6185.75586 0.099273
6189.03711 0.097444
6192.31885 0.095646
6195.60107 0.093881
6198.88281 0.092152
6202.16504 0.090461
6205.44678 0.088811
6208.72900 0.087202
6212.01123 0.085637
6215.29297 0.084114
6218.57520 0.082631
6221.85693 0.081182
6225.14014 0.079762
6228.42188 0.078364
6231.70508 0.07698
6234.98779 0.075603
6238.27100 0.07423
6241.55322 0.072855
6244.83594 0.071476
6248.11914 0.070093
6251.40186 0.068708
6254.68506 0.067325
6257.96777 0.06595
6261.25098 0.064591
6264.53516 0.063258
6267.81787 0.061958
6271.10205 0.060694
6274.38477 0.05947
6277.66797 0.058283
6280.95215 0.057128
6284.23584 0.055996
6287.52002 0.054876
6290.80420 0.053759
6294.08691 0.052638
6297.37207 0.051509
6300.65576 0.050375
6303.93994 0.049241
6307.22412 0.048116
6310.50781 0.047013
6313.79297 0.045942
6317.07715 0.044912
6320.36182 0.043932
6323.64600 0.043005
6326.93115 0.042131
6330.21582 0.041307
6333.50000 0.040526
6336.78613 0.039781
6340.06982 0.03906
6343.35498 0.038353
6346.64111 0.037648
6349.92578 0.036936
6353.21094 0.036212
6356.49707 0.035475
6359.78223 0.034729
6363.06689 0.033985
6366.35303 0.033249
6369.63916 0.032531
6372.92383 0.031835
6376.20996 0.031165
6379.49609 0.030518
6382.78223 0.029892
6386.06787 0.029284
6389.35400 0.028693
6392.64014 0.028116
6395.92578 0.027554
6399.21191 0.027006
6402.49902 0.026469
6405.78613 0.025941
6409.07178 0.025419
6412.35791 0.024901
6415.64600 0.024383
6418.93213 0.023863
6422.21924 0.023341
6425.50586 0.022817
6428.79297 0.02229
6432.08008 0.021762
6435.36719 0.021238
6438.65381 0.02072
6441.94092 0.020217
6445.22900 0.019734
6448.51611 0.019279
6451.80420 0.018855
6455.09082 0.018462
6458.37891 0.018096
6461.66699 0.01775
6464.95508 0.017414
6468.24316 0.01708
6471.53076 0.01674
6474.81787 0.016391
6478.10693 0.016033
6481.39502 0.015669
6484.68311 0.015306
6487.97217 0.014948
6491.25977 0.0146
6494.54785 0.014264
6497.83691 0.013943
6501.12500 0.013637
6504.41504 0.013344
6507.70312 0.013063
6510.99219 0.012794
6514.28076 0.012535
6517.56982 0.012282
6520.85889 0.012032
6524.14795 0.011779
6527.43799 0.011518
6530.72705 0.011247
6534.01709 0.010964
6537.30615 0.01067
6540.59619 0.010369
6543.88477 0.010067
6547.17480 0.00977
6550.46484 0.009486
6553.75488 0.009222
6557.04395 0.008982
6560.33398 0.008769
6563.62500 0.008586
6566.91504 0.00843
6570.20605 0.008298
6573.49609 0.008187
6576.78613 0.00809
6580.07715 0.008003
6583.36719 0.007918
6586.65820 0.007825
6589.94922 0.007718
6593.23877 0.007589
6596.52979 0.007435
6599.82080 0.007257
6603.11182 0.007059
6606.40283 0.006852
6609.69482 0.006645
6612.98584 0.006448
6616.27686 0.006268
6619.56885 0.00611
6622.85986 0.005974
6626.15186 0.005858
6629.44287 0.005757
6632.73486 0.005671
6636.02686 0.005594
6639.31885 0.005526
6642.61084 0.005466
6645.90283 0.005411
6649.19482 0.005359
6652.48779 0.005305
6655.77979 0.005245
6659.07178 0.005172
6662.36523 0.005081
6665.65723 0.004969
6668.95020 0.004839
6672.24316 0.004691
6675.53613 0.004531
6678.82812 0.004367
6682.12207 0.004205
6685.41504 0.004051
6688.70801 0.003909
6692.00098 0.003778
6695.29395 0.003661
6698.58691 0.003553
6701.88086 0.003455
6705.17383 0.003363
6708.46777 0.003279
6711.76221 0.003202
6715.05518 0.003133
6718.34912 0.003073
6721.64307 0.003022
6724.93701 0.002979
6728.23096 0.002945
6731.52490 0.002919
6734.81885 0.002899
6738.11377 0.002884
6741.40820 0.002872
6744.70312 0.002863
6747.99805 0.002858
6751.29199 0.002856
6754.58691 0.002858
6757.88086 0.002861
6761.17578 0.002863
6764.47119 0.00286
6767.76611 0.002847
6771.06201 0.002819
6774.35693 0.002775
6777.65186 0.002714
6780.94678 0.002641
6784.24316 0.002561
6787.53906 0.002481
6790.83398 0.002408
6794.12891 0.002345
6797.42480 0.002294
6800.72119 0.002252
6804.01807 0.002216
6807.31299 0.002181
6810.60889 0.00214
6813.90479 0.002093
6817.20215 0.002039
6820.49805 0.001979
6823.79395 0.001917
6827.09082 0.001856
6830.38818 0.001801
6833.68506 0.001753
6836.98096 0.001713
6840.27783 0.00168
6843.57520 0.001653
6846.87207 0.001631
6850.16895 0.001612
6853.46582 0.001597
6856.76416 0.001583
6860.06104 0.001571
6863.35791 0.001559
6866.65576 0.001548
6869.95410 0.001536
6873.25098 0.001525
6876.54883 0.001517
6879.84717 0.001511
6883.14502 0.001506
6886.44287 0.001501
6889.74121 0.001491
6893.03906 0.001474
6896.33691 0.001449
6899.63477 0.001415
6902.93408 0.001377
6906.23193 0.001339
6909.53076 0.001306
6912.83008 0.001281
6916.12793 0.001264
6919.42676 0.001255
6922.72607 0.00125
6926.02490 0.001246
6929.32422 0.001242
6932.62305 0.001234
6935.92285 0.001224
6939.22217 0.001213
6942.52100 0.0012
6945.82080 0.001186
6949.12109 0.001171
6952.41992 0.001152
6955.72021 0.001129
6959.02002 0.001101
6962.31982 0.001066
6965.62012 0.001027
6968.91992 0.000985
6972.22021 0.000944
6975.52002 0.000905
6978.82080 0.000872
6982.12109 0.000847
6985.42090 0.00083
6988.72217 0.000821
6992.02295 0.000819
6995.32422 0.000795
6998.62500 0.000754
7001.92480 0.000713
7005.22705 0.000671
7008.52783 0.00063
7011.82910 0.000589
7015.12988 0.000548
7018.43213 0.000507
7021.73291 0.000466
7025.03516 0.000425
7028.33594 0.000384
7031.63818 0.000342
7034.93994 0.000301
7038.24219 0.00026
7041.54297 0.000219
7044.84619 0.000178
7749.33105 0.0
