# %ECSV 0.9
# ---
# datatype:
# - {name: wavelength, unit: Angstrom, datatype: float32}
# - {name: response, datatype: float32}
# meta: !!omap
# - {band_name: f_532_83}
# - {group_name: CAHA}
wavelength response
4098.93311 0.0
4554.37012 0.004012
4557.62109 0.00419
4560.87207 0.004371
4564.12402 0.004556
4567.37500 0.004745
4570.62598 0.004936
4573.87695 0.005132
4577.12891 0.00533
4580.37988 0.005533
4583.63184 0.005738
4586.88379 0.005947
4590.13623 0.00616
4593.38721 0.006376
4596.63916 0.006596
4599.89111 0.006819
4603.14307 0.007045
4606.39502 0.007275
4609.64697 0.007508
4612.89893 0.007745
4616.15088 0.007986
4619.40283 0.00823
4622.65576 0.008477
4625.90820 0.008728
4629.16113 0.008982
4632.41309 0.00924
4635.66602 0.009501
4638.91797 0.009765
4642.16992 0.010034
4645.42285 0.010305
4648.67578 0.01058
4651.92920 0.010859
4655.18213 0.011141
4658.43506 0.011429
4661.68799 0.011728
4664.93994 0.012051
4668.19287 0.012431
4671.44580 0.012909
4674.70020 0.013517
4677.95312 0.014242
4681.20605 0.015009
4684.45898 0.015714
4687.71289 0.016292
4690.96582 0.016757
4694.22021 0.017192
4697.47314 0.017695
4700.72705 0.018311
4703.97998 0.019019
4707.23389 0.019764
4710.48779 0.020534
4713.74219 0.021381
4716.99609 0.022365
4720.25000 0.023483
4723.50391 0.024674
4726.75781 0.025877
4730.01221 0.027064
4733.26611 0.028236
4736.52002 0.029435
4739.77393 0.030738
4743.02881 0.032226
4746.28320 0.033929
4749.53809 0.035827
4752.79199 0.037883
4756.04688 0.040084
4759.30078 0.04243
4762.55615 0.04491
4765.81104 0.047489
4769.06592 0.050139
4772.32080 0.052863
4775.57617 0.055695
4778.83105 0.058661
4782.08496 0.061756
4785.34082 0.064964
4788.59619 0.06831
4791.85107 0.071849
4795.10596 0.075599
4798.36182 0.079512
4801.61719 0.083519
4804.87305 0.087614
4808.12793 0.091869
4811.38281 0.096375
4814.63916 0.101182
4817.89502 0.106273
4821.14990 0.111603
4824.40576 0.117143
4827.66211 0.122894
4830.91797 0.128872
4834.17383 0.135074
4837.43018 0.141468
4840.68604 0.148043
4843.94189 0.154848
4847.19922 0.161983
4850.45508 0.169507
4853.71094 0.177379
4856.96680 0.185477
4860.22412 0.193717
4863.47998 0.202111
4866.73682 0.21072
4869.99414 0.219558
4873.25000 0.228557
4876.50684 0.237632
4879.76416 0.246748
4883.02100 0.255947
4886.27783 0.265323
4889.53516 0.274972
4892.79199 0.284911
4896.04883 0.295036
4899.30615 0.305174
4902.56299 0.315208
4905.81982 0.32513
4909.07812 0.334982
4912.33496 0.344801
4915.59277 0.354616
4918.85010 0.36444
4922.10791 0.374254
4925.36621 0.38403
4928.62305 0.393763
4931.88086 0.403485
4935.13916 0.413228
4938.39600 0.422994
4941.65479 0.432709
4944.91309 0.442218
4948.17090 0.451356
4951.42920 0.460047
4954.68701 0.468336
4957.94482 0.476309
4961.20410 0.483987
4964.46191 0.49137
4967.72119 0.498549
4970.97900 0.505696
4974.23779 0.51289
4977.49609 0.520016
4980.75488 0.526885
4984.01416 0.533413
4987.27197 0.539639
4990.53076 0.545583
4993.79102 0.551152
4997.04883 0.556219
5000.30908 0.560801
5003.56689 0.565128
5006.82715 0.569492
5010.08594 0.57401
5013.34521 0.578571
5016.60400 0.582989
5019.86377 0.587132
5023.12402 0.590901
5026.38281 0.594146
5029.64307 0.59673
5032.90186 0.598693
5036.16211 0.600322
5039.42188 0.601997
5042.68213 0.603955
5045.94189 0.606186
5049.20215 0.608522
5052.46191 0.610808
5055.72217 0.612979
5058.98193 0.615013
5062.24316 0.616852
5065.50293 0.618386
5068.76318 0.61952
5072.02393 0.620258
5075.28418 0.620727
5078.54492 0.621129
5081.80615 0.621621
5085.06592 0.622247
5088.32715 0.622944
5091.58789 0.623614
5094.84912 0.624155
5098.10986 0.624491
5101.37109 0.624582
5104.63184 0.624485
5107.89307 0.624353
5111.15381 0.624359
5114.41602 0.6246
5117.67676 0.625069
5120.93799 0.625661
5124.20020 0.626193
5127.46094 0.62649
5130.72314 0.626524
5133.98389 0.626467
5137.24609 0.626544
5140.50781 0.626825
5143.77002 0.627162
5147.03223 0.62732
5150.29395 0.627122
5153.55615 0.62654
5156.81787 0.625724
5160.08008 0.624925
5163.34180 0.62435
5166.60498 0.624076
5169.86719 0.624054
5173.12988 0.624171
5176.39209 0.624269
5179.65479 0.624199
5182.91699 0.623914
5186.18018 0.623517
5189.44287 0.623184
5192.70605 0.623019
5195.96924 0.622977
5199.23193 0.622918
5202.49512 0.622735
5205.75781 0.622432
5209.02100 0.622105
5212.28418 0.621874
5215.54785 0.621824
5218.81104 0.621977
5222.07422 0.622247
5225.33789 0.622468
5228.60205 0.622495
5231.86523 0.622296
5235.12891 0.621954
5238.39307 0.621606
5241.65723 0.621362
5244.91992 0.621235
5248.18506 0.621121
5251.44922 0.620881
5254.71191 0.620431
5257.97705 0.619797
5261.24121 0.619098
5264.50488 0.618494
5267.77002 0.618104
5271.03418 0.61795
5274.29883 0.617973
5277.56299 0.61805
5280.82812 0.618054
5284.09277 0.617896
5287.35693 0.617585
5290.62305 0.617224
5293.88721 0.616932
5297.15186 0.616759
5300.41699 0.616669
5303.68311 0.616593
5306.94824 0.616469
5310.21289 0.616271
5313.47900 0.616018
5316.74414 0.615775
5320.00879 0.615599
5323.27490 0.61549
5326.54102 0.615359
5329.80615 0.61506
5333.07178 0.614489
5336.33691 0.613666
5339.60400 0.612739
5342.87012 0.611917
5346.13477 0.611375
5349.40088 0.611149
5352.66699 0.611117
5355.93408 0.611093
5359.20020 0.610977
5362.46680 0.610796
5365.73291 0.610625
5369.00000 0.610514
5372.26611 0.610483
5375.53320 0.610502
5378.79883 0.610455
5382.06592 0.610168
5385.33301 0.60955
5388.60010 0.608712
5391.86719 0.607908
5395.13379 0.607334
5398.40088 0.606985
5401.66797 0.606717
5404.93604 0.606412
5408.20312 0.606081
5411.47119 0.605846
5414.73779 0.605831
5418.00488 0.606041
5421.27295 0.606336
5424.54102 0.60652
5427.80908 0.606486
5431.07715 0.606286
5434.34424 0.606079
5437.61182 0.606011
5440.87988 0.606131
5444.14795 0.606375
5447.41699 0.606619
5450.68506 0.606736
5453.95312 0.606673
5457.22217 0.606482
5460.49023 0.606268
5463.75879 0.606096
5467.02686 0.605948
5470.29590 0.605758
5473.56494 0.605455
5476.83398 0.605022
5480.10303 0.604531
5483.37207 0.604129
5486.64111 0.603931
5489.91016 0.603912
5493.17920 0.603896
5496.44824 0.603683
5499.71680 0.603168
5502.98682 0.602392
5506.25586 0.601491
5509.52588 0.600595
5512.79492 0.599773
5516.06494 0.599059
5519.33496 0.598486
5522.60498 0.598043
5525.87500 0.597632
5529.14502 0.597121
5532.41504 0.596448
5535.68506 0.595648
5538.95508 0.594819
5542.22607 0.594038
5545.49609 0.593303
5548.76611 0.592515
5552.03711 0.591531
5555.30811 0.590249
5558.57812 0.588637
5561.84912 0.586733
5565.12012 0.584632
5568.39014 0.58248
5571.66113 0.580446
5574.93213 0.578667
5578.20312 0.577173
5581.47510 0.575881
5584.74609 0.574646
5588.01709 0.573344
5591.28906 0.571914
5594.56006 0.570355
5597.83203 0.568682
5601.10303 0.566898
5604.37500 0.564995
5607.64600 0.562939
5610.91797 0.5607
5614.18994 0.558294
5617.46191 0.555808
5620.73389 0.553335
5624.00586 0.550907
5627.27783 0.548488
5630.55078 0.546022
5633.82324 0.543477
5637.09619 0.540854
5640.36816 0.538153
5643.64111 0.535352
5646.91309 0.532436
5650.18604 0.529402
5653.45801 0.526221
5656.73096 0.522802
5660.00391 0.51903
5663.27686 0.514827
5666.55078 0.510179
5669.82422 0.505102
5673.09717 0.499608
5676.37012 0.49371
5679.64404 0.487451
5682.91699 0.480906
5686.18994 0.4741
5689.46387 0.466935
5692.73779 0.459215
5696.01221 0.450793
5699.28613 0.44168
5702.56006 0.43203
5705.83301 0.42201
5709.10791 0.411679
5712.38184 0.40098
5715.65576 0.389829
5718.93018 0.378233
5722.20508 0.36632
5725.47900 0.35425
5728.75293 0.342078
5732.02783 0.329709
5735.30322 0.317018
5738.57812 0.304
5741.85303 0.290801
5745.12695 0.2776
5748.40186 0.264508
5751.67676 0.251583
5754.95312 0.238912
5758.22803 0.226635
5761.50293 0.214866
5764.77783 0.203608
5768.05420 0.192777
5771.33008 0.182293
5774.60498 0.17213
5777.88086 0.162281
5781.15723 0.152739
5784.43311 0.143532
5787.70801 0.134759
5790.98389 0.126537
5794.25977 0.118916
5797.53711 0.111838
5800.81299 0.105188
5804.08887 0.098866
5807.36523 0.092832
5810.64209 0.087092
5813.91797 0.08168
5817.19482 0.076636
5820.47217 0.071988
5823.74902 0.067726
5827.02490 0.063794
5830.30176 0.060123
5833.57910 0.056671
5836.85596 0.053439
5840.13281 0.050439
5843.41113 0.047665
5846.68799 0.045092
5849.96484 0.042694
5853.24316 0.040461
5856.52100 0.03838
5859.79785 0.036433
5863.07617 0.034603
5866.35400 0.032894
5869.63184 0.031309
5872.91016 0.029832
5876.18799 0.028435
5879.46582 0.027098
5882.74414 0.025826
5886.02197 0.024643
5889.29980 0.023566
5892.57910 0.022595
5895.85693 0.021711
5899.13623 0.020888
5902.41504 0.020106
5905.69287 0.019358
5908.97217 0.018632
5912.25098 0.017909
5915.52979 0.017177
5918.80908 0.016445
5922.08789 0.015736
5925.36816 0.015081
5928.64697 0.014506
5931.92578 0.014035
5935.20605 0.013666
5938.48486 0.013365
5941.76514 0.013072
5945.04395 0.012735
5948.32422 0.012338
5951.60400 0.011918
5954.88379 0.011538
5958.16406 0.011252
5961.44385 0.011067
5964.72510 0.010934
5968.00488 0.010791
5971.28516 0.010598
5974.56592 0.01035
5977.84619 0.010063
5981.12598 0.009763
5984.40723 0.009477
5987.68799 0.009226
5990.96924 0.009013
5994.25000 0.008828
5997.53076 0.008659
6000.81201 0.008504
6004.09277 0.008363
6007.37500 0.008228
6010.65576 0.008092
6013.93701 0.007961
6017.21924 0.007842
6020.50000 0.007729
6023.78223 0.007615
6027.06396 0.007504
6030.34619 0.007421
6033.62695 0.007386
6036.91016 0.0074
6040.19092 0.007427
6043.47412 0.007422
6046.75586 0.007345
6050.03809 0.007192
6053.31982 0.006989
6056.60303 0.006772
6059.88623 0.006575
6063.16797 0.006422
6066.45117 0.006337
6069.73389 0.00634
6073.01709 0.006424
6076.29980 0.006548
6079.58301 0.006645
6082.86621 0.006672
6086.14893 0.006623
6089.43311 0.006518
6092.71582 0.006375
6095.99902 0.006205
6099.28320 0.00602
6102.56592 0.005839
6105.85010 0.005687
6109.13379 0.005569
6112.41797 0.005481
6115.70215 0.005415
6118.98584 0.005375
6122.27002 0.005374
6125.55518 0.0054
6128.83887 0.005421
6132.12305 0.005404
6135.40820 0.005345
6138.69189 0.005277
6141.97705 0.005232
6145.26221 0.005214
6148.54590 0.005195
6151.83105 0.005146
6155.11621 0.005044
6158.40088 0.004886
6161.68701 0.004689
6164.97217 0.004505
6168.25684 0.004398
6171.54199 0.004407
6174.82812 0.00451
6178.11377 0.00465
6181.39893 0.004764
6184.68506 0.004814
6187.97119 0.004797
6191.25684 0.004731
6194.54297 0.004643
6197.82910 0.004553
6201.11523 0.004469
6821.22656 0.0
