# %ECSV 0.9
# ---
# datatype:
# - {name: wavelength, unit: Angstrom, datatype: float32}
# - {name: response, datatype: float32}
# meta: !!omap
# - {band_name: f_562_10}
# - {group_name: CAHA}
wavelength response
4956.41699 0.0
5507.12988 0.00411
5507.39990 0.004354
5507.66016 0.004202
5507.91992 0.004018
5508.18018 0.004371
5508.43994 0.004539
5508.70020 0.004344
5508.95996 0.004247
5509.22021 0.004518
5509.47998 0.004342
5509.75000 0.004551
5510.00977 0.004585
5510.27002 0.00423
5510.52979 0.00465
5510.79004 0.00467
5511.04980 0.004444
5511.31006 0.00445
5511.56982 0.004926
5511.83008 0.004789
5512.10010 0.004927
5512.35986 0.004965
5512.62012 0.004943
5512.87988 0.005077
5513.14014 0.005012
5513.39990 0.005027
5513.66016 0.005207
5513.91992 0.005299
5514.18994 0.005223
5514.45020 0.005117
5514.70996 0.005433
5514.97021 0.005285
5515.22998 0.005569
5515.49023 0.00565
5515.75000 0.005393
5516.00977 0.005489
5516.27979 0.005524
5516.54004 0.005669
5516.79980 0.00581
5517.06006 0.00583
5517.31982 0.005816
5517.58008 0.006009
5517.83984 0.005801
5518.10010 0.005869
5518.37012 0.005966
5518.62988 0.005956
5518.89014 0.006439
5519.14990 0.006174
5519.41016 0.006472
5519.66992 0.006457
5519.93018 0.006599
5520.18994 0.006543
5520.45020 0.00687
5520.72021 0.006511
5520.97998 0.006619
5521.24023 0.006943
5521.50000 0.007044
5521.75977 0.006913
5522.02002 0.007214
5522.27979 0.007293
5522.54004 0.00724
5522.81006 0.007445
5523.06982 0.007215
5523.33008 0.007333
5523.58984 0.007611
5523.85010 0.007763
5524.10986 0.007993
5524.37012 0.007838
5524.62988 0.008052
5524.89990 0.008171
5525.16016 0.008233
5525.41992 0.008219
5525.68018 0.008404
5525.93994 0.008537
5526.20020 0.008238
5526.45996 0.008463
5526.97998 0.00408
5527.25000 0.007668
5527.50977 0.008815
5527.77002 0.009205
5528.02979 0.00954
5528.29004 0.009438
5528.54980 0.009507
5528.81006 0.009566
5529.06982 0.009471
5529.33984 0.010125
5529.60010 0.009973
5529.85986 0.010399
5530.12012 0.010339
5530.37988 0.01081
5530.64014 0.010566
5530.89990 0.010732
5531.16016 0.010632
5531.43018 0.011155
5531.68994 0.011125
5531.95020 0.011512
5532.20996 0.011713
5532.47021 0.011536
5532.72998 0.011584
5532.99023 0.012074
5533.25000 0.01224
5533.50977 0.012259
5533.77979 0.01231
5534.04004 0.012605
5534.29980 0.013129
5534.56006 0.013045
5534.81982 0.012924
5535.08008 0.013562
5535.33984 0.013609
5535.60010 0.013637
5535.87012 0.014111
5536.12988 0.014096
5536.39014 0.014402
5536.64990 0.014452
5536.91016 0.01494
5537.16992 0.015006
5537.43018 0.015135
5537.68994 0.015036
5537.95996 0.015518
5538.22021 0.015882
5538.47998 0.016372
5538.74023 0.016271
5539.00000 0.016324
5539.25977 0.016698
5539.52002 0.017781
5539.77979 0.017522
5540.04004 0.017636
5540.31006 0.018149
5540.56982 0.01821
5540.83008 0.018664
5541.08984 0.019061
5541.35010 0.018916
5541.60986 0.019903
5541.87012 0.019828
5542.12988 0.020194
5542.39990 0.020735
5542.66016 0.021332
5542.91992 0.020992
5543.18018 0.021889
5543.43994 0.021631
5543.70020 0.022643
5543.95996 0.022752
5544.22021 0.023317
5544.49023 0.023278
5544.75000 0.023804
5545.00977 0.024404
5545.27002 0.024745
5545.52979 0.025424
5545.79004 0.026201
5546.04980 0.026139
5546.31006 0.026621
5546.56982 0.027027
5546.83984 0.027636
5547.10010 0.028281
5547.35986 0.028679
5547.62012 0.029015
5547.87988 0.029311
5548.14014 0.030854
5548.39990 0.030697
5548.66016 0.031579
5548.93018 0.032166
5549.18994 0.032752
5549.45020 0.033228
5549.70996 0.033492
5549.97021 0.03502
5550.22998 0.035393
5550.49023 0.035944
5550.75000 0.037594
5551.02002 0.037618
5551.27979 0.038557
5551.54004 0.038982
5551.79980 0.039466
5552.06006 0.040532
5552.31982 0.041464
5552.58008 0.042016
5552.83984 0.043272
5553.10010 0.043857
5553.37012 0.044867
5553.62988 0.045326
5553.89014 0.04664
5554.14990 0.047251
5554.41016 0.048016
5554.66992 0.050044
5554.93018 0.050138
5555.18994 0.051926
5555.45996 0.052823
5555.72021 0.053525
5555.97998 0.055065
5556.24023 0.055593
5556.50000 0.058133
5556.75977 0.058953
5557.02002 0.060319
5557.27979 0.060952
5557.54980 0.062829
5557.81006 0.063752
5558.06982 0.065786
5558.33008 0.066737
5558.58984 0.068482
5558.85010 0.068863
5559.10986 0.072048
5559.37012 0.072227
5559.62988 0.074757
5559.89990 0.076178
5560.16016 0.077963
5560.41992 0.079982
5560.68018 0.082335
5560.93994 0.082943
5561.20020 0.085476
5561.45996 0.087345
5561.72021 0.089321
5561.99023 0.090909
5562.25000 0.094159
5562.50977 0.095519
5562.77002 0.09804
5563.02979 0.100281
5563.29004 0.102431
5563.54980 0.105511
5563.81006 0.107468
5564.08008 0.11045
5564.33984 0.113824
5564.60010 0.115574
5564.85986 0.117368
5565.12012 0.120558
5565.37988 0.124418
5565.64014 0.127192
5565.89990 0.130022
5566.16992 0.133158
5566.43018 0.136436
5566.68994 0.138556
5566.95020 0.143131
5567.20996 0.146163
5567.47021 0.150777
5567.72998 0.152781
5567.99023 0.15668
5568.25000 0.160603
5568.52002 0.166042
5568.77979 0.168894
5569.04004 0.174609
5569.29980 0.176681
5569.56006 0.18198
5569.81982 0.185816
5570.08008 0.188776
5570.33984 0.19469
5570.60010 0.199715
5570.87012 0.204094
5571.12988 0.207659
5571.39014 0.215394
5571.64990 0.219322
5571.91016 0.223695
5572.16992 0.228522
5572.43018 0.234469
5572.68994 0.239329
5572.95996 0.246303
5573.22021 0.251693
5573.47998 0.258292
5573.74023 0.262177
5574.00000 0.27007
5574.25977 0.274188
5574.52002 0.28125
5574.77979 0.287289
5575.04980 0.293271
5575.31006 0.299226
5575.56982 0.306355
5575.83008 0.311802
5576.08984 0.319164
5576.35010 0.327066
5576.60986 0.331212
5576.87012 0.340066
5577.14014 0.346511
5577.39990 0.35585
5577.66016 0.363078
5577.91992 0.367564
5578.18018 0.375275
5578.43994 0.381535
5578.70020 0.390038
5578.95996 0.397581
5579.22021 0.405833
5579.49023 0.4098
5579.75000 0.418872
5580.00977 0.425307
5580.27002 0.433
5580.52979 0.441004
5580.79004 0.44914
5581.04980 0.455639
5581.31006 0.464214
5581.58008 0.46978
5581.83984 0.477491
5582.10010 0.484307
5582.35986 0.491827
5582.62012 0.498221
5582.87988 0.507147
5583.14014 0.510995
5583.39990 0.518488
5583.66992 0.527017
5583.93018 0.534364
5584.18994 0.538331
5584.45020 0.546472
5584.70996 0.550261
5584.97021 0.556393
5585.22998 0.565338
5585.49023 0.569834
5585.75000 0.57591
5586.02002 0.579008
5586.27979 0.587281
5586.54004 0.593262
5586.79980 0.600688
5587.06006 0.601927
5587.31982 0.609058
5587.58008 0.61352
5587.83984 0.618532
5588.10986 0.623478
5588.37012 0.625634
5588.62988 0.631335
5588.89014 0.63579
5589.14990 0.641874
5589.41016 0.642081
5589.66992 0.647698
5589.93018 0.650348
5590.20020 0.656142
5590.45996 0.654928
5590.72021 0.66069
5590.97998 0.662925
5591.24023 0.665007
5591.50000 0.668171
5591.75977 0.669418
5592.02002 0.675
5592.27979 0.674842
5592.54980 0.680436
5592.81006 0.676673
5593.06982 0.681719
5593.33008 0.680849
5593.58984 0.685065
5593.85010 0.685022
5594.10986 0.687042
5594.37012 0.690871
5594.64014 0.690651
5594.89990 0.693756
5595.16016 0.690851
5595.41992 0.692217
5595.68018 0.693333
5595.93994 0.698712
5596.20020 0.696872
5596.45996 0.698934
5596.72998 0.69852
5596.99023 0.697583
5597.25000 0.700675
5597.50977 0.699655
5597.77002 0.700824
5598.02979 0.701331
5598.29004 0.703841
5598.54980 0.702499
5598.81006 0.702474
5599.08008 0.70201
5599.33984 0.704083
5599.60010 0.700842
5599.85986 0.703146
5600.12012 0.702016
5600.37988 0.702642
5600.64014 0.701842
5600.89990 0.704077
5601.16992 0.703907
5601.43018 0.705334
5601.68994 0.703732
5601.95020 0.704082
5602.20996 0.70418
5602.47021 0.705202
5602.72998 0.702356
5602.99023 0.703417
5603.25977 0.700917
5603.52002 0.70492
5603.77979 0.702018
5604.04004 0.704051
5604.29980 0.701549
5604.56006 0.703073
5604.81982 0.704328
5605.08008 0.704233
5605.33984 0.701964
5605.60986 0.701307
5605.87012 0.698238
5606.12988 0.703436
5606.39014 0.704142
5606.64990 0.702955
5606.91016 0.702694
5607.16992 0.701889
5607.43018 0.701537
5607.70020 0.70218
5607.95996 0.700079
5608.22021 0.700665
5608.47998 0.70037
5608.74023 0.702535
5609.00000 0.697906
5609.25977 0.703474
5609.52002 0.699147
5609.79004 0.699203
5610.04980 0.698561
5610.31006 0.699081
5610.56982 0.701904
5610.83008 0.699594
5611.08984 0.702636
5611.35010 0.6987
5611.60986 0.697518
5611.87988 0.69654
5612.14014 0.698501
5612.39990 0.700075
5612.66016 0.695954
5612.91992 0.697293
5613.18018 0.702166
5613.43994 0.700592
5613.70020 0.700692
5613.95996 0.694054
5614.22998 0.698345
5614.49023 0.69948
5614.75000 0.69729
5615.00977 0.698068
5615.27002 0.697655
5615.52979 0.697779
5615.79004 0.695216
5616.04980 0.696076
5616.31982 0.696223
5616.58008 0.696107
5616.83984 0.696891
5617.10010 0.695427
5617.35986 0.69533
5617.62012 0.694453
5617.87988 0.694044
5618.14014 0.69496
5618.39990 0.696902
5618.66992 0.693555
5618.93018 0.69514
5619.18994 0.691506
5619.45020 0.694113
5619.70996 0.694004
5619.97021 0.694936
5620.22998 0.694401
5620.49023 0.690576
5620.75977 0.691281
5621.02002 0.691745
5621.27979 0.690529
5621.54004 0.691549
5621.79980 0.691518
5622.06006 0.687399
5622.31982 0.689007
5622.58008 0.689239
5622.85010 0.689586
5623.10986 0.689285
5623.37012 0.68726
5623.62988 0.686429
5623.89014 0.684601
5624.14990 0.686918
5624.41016 0.684225
5624.66992 0.687141
5624.93018 0.68429
5625.20020 0.681715
5625.45996 0.684578
5625.72021 0.684927
5625.97998 0.680579
5626.24023 0.68611
5626.50000 0.681154
5626.75977 0.680879
5627.02002 0.677539
5627.29004 0.680921
5627.54980 0.677812
5627.81006 0.678115
5628.06982 0.675087
5628.33008 0.675639
5628.58984 0.677835
5628.85010 0.675579
5629.10986 0.674332
5629.37988 0.676773
5629.64014 0.675215
5629.89990 0.671045
5630.16016 0.671287
5630.41992 0.669836
5630.68018 0.669761
5630.93994 0.670791
5631.20020 0.668126
5631.45996 0.668988
5631.72998 0.666266
5631.99023 0.667754
5632.25000 0.665922
5632.50977 0.664342
5632.77002 0.662624
5633.02979 0.664835
5633.29004 0.662015
5633.54980 0.662032
5633.81982 0.661903
5634.08008 0.663188
5634.33984 0.661336
5634.60010 0.659479
5634.85986 0.658653
5635.12012 0.657299
5635.37988 0.655476
5635.64014 0.654089
5635.91016 0.656998
5636.16992 0.653943
5636.43018 0.654991
5636.68994 0.655934
5636.95020 0.651389
5637.20996 0.652891
5637.47021 0.652327
5637.72998 0.652209
5637.99023 0.654106
5638.25977 0.651693
5638.52002 0.649344
5638.77979 0.649415
5639.04004 0.650018
5639.29980 0.649869
5639.56006 0.647799
5639.81982 0.648508
5640.08008 0.645615
5640.35010 0.648328
5640.60986 0.645008
5640.87012 0.645571
5641.12988 0.646226
5641.39014 0.64332
5641.64990 0.647542
5641.91016 0.645566
5642.16992 0.645168
5642.43994 0.643501
5642.70020 0.645145
5642.95996 0.642154
5643.22021 0.642995
5643.47998 0.642739
5643.74023 0.643364
5644.00000 0.644671
5644.25977 0.641666
5644.52002 0.641405
5644.79004 0.644869
5645.04980 0.641731
5645.31006 0.641463
5645.56982 0.641536
5645.83008 0.641122
5646.08984 0.640089
5646.35010 0.639885
5646.60986 0.639652
5646.87988 0.641955
5647.14014 0.643052
5647.39990 0.642076
5647.66016 0.641275
5647.91992 0.643201
5648.18018 0.641526
5648.43994 0.64301
5648.70020 0.639422
5648.97021 0.640203
5649.22998 0.641011
5649.49023 0.642239
5649.75000 0.640668
5650.00977 0.641627
5650.27002 0.64313
5650.52979 0.640507
5650.79004 0.640036
5651.04980 0.642822
5651.31982 0.643485
5651.58008 0.642808
5651.83984 0.639773
5652.10010 0.639355
5652.35986 0.640463
5652.62012 0.640872
5652.87988 0.640565
5653.14014 0.640571
5653.41016 0.640222
5653.66992 0.6392
5653.93018 0.639736
5654.18994 0.640823
5654.45020 0.642521
5654.70996 0.6398
5654.97021 0.637297
5655.22998 0.639769
5655.50000 0.637235
5655.75977 0.637836
5656.02002 0.638309
5656.27979 0.636043
5656.54004 0.634987
5656.79980 0.634588
5657.06006 0.632387
5657.31982 0.632639
5657.58008 0.632479
5657.85010 0.63367
5658.10986 0.631117
5658.37012 0.627415
5658.62988 0.625631
5658.89014 0.625918
5659.14990 0.622402
5659.41016 0.621219
5659.66992 0.621376
5659.93994 0.617279
5660.20020 0.617552
5660.45996 0.616482
5660.72021 0.609641
5660.97998 0.607243
5661.24023 0.604721
5661.50000 0.60155
5661.75977 0.598127
5662.02979 0.598592
5662.29004 0.59216
5662.54980 0.588474
5662.81006 0.586707
5663.06982 0.582654
5663.33008 0.577277
5663.58984 0.576634
5663.85010 0.568548
5664.10986 0.563907
5664.37988 0.56204
5664.64014 0.558048
5664.89990 0.551584
5665.16016 0.547152
5665.41992 0.541879
5665.68018 0.535274
5665.93994 0.529059
5666.20020 0.524157
5666.47021 0.518452
5666.72998 0.51282
5666.99023 0.507927
5667.25000 0.501612
5667.50977 0.494801
5667.77002 0.489118
5668.02979 0.480426
5668.29004 0.475594
5668.56006 0.469733
5668.81982 0.46285
5669.08008 0.455152
5669.33984 0.448848
5669.60010 0.444258
5669.85986 0.434623
5670.12012 0.429151
5670.37988 0.420109
5670.64990 0.413206
5670.91016 0.407782
5671.16992 0.401714
5671.43018 0.393701
5671.68994 0.384558
5671.95020 0.379261
5672.20996 0.373491
5672.47021 0.365756
5672.72998 0.358346
5673.00000 0.351037
5673.25977 0.344155
5673.52002 0.336547
5673.77979 0.330359
5674.04004 0.325818
5674.29980 0.317255
5674.56006 0.309341
5674.81982 0.303612
5675.08008 0.297386
5675.35010 0.292331
5675.60986 0.284173
5675.87012 0.279063
5676.12988 0.273037
5676.39014 0.26612
5676.64990 0.258888
5676.91016 0.256003
5677.16992 0.248367
5677.43994 0.243264
5677.70020 0.237397
5677.95996 0.23083
5678.22021 0.226746
5678.47998 0.220636
5678.74023 0.216626
5679.00000 0.2101
5679.25977 0.206388
5679.52979 0.200942
5679.79004 0.196259
5680.04980 0.19042
5680.31006 0.186212
5680.56982 0.182052
5680.83008 0.178906
5681.08984 0.173518
5681.35010 0.169185
5681.62012 0.165203
5681.87988 0.160278
5682.14014 0.157649
5682.39990 0.154139
5682.66016 0.149957
5682.91992 0.146309
5683.18018 0.142819
5683.43994 0.139657
5683.70020 0.135936
5683.97021 0.132454
5684.22998 0.129698
5684.49023 0.125583
5684.75000 0.123738
5685.00977 0.120855
5685.27002 0.117457
5685.52979 0.113271
5685.79004 0.111047
5686.06006 0.109059
5686.31982 0.105406
5686.58008 0.103349
5686.83984 0.100664
5687.10010 0.09894
5687.35986 0.096769
5687.62012 0.093668
5687.87988 0.091195
5688.14990 0.090199
5688.41016 0.087555
5688.66992 0.086256
5688.93018 0.084275
5689.18994 0.081578
5689.45020 0.079606
5689.70996 0.078237
5689.97021 0.076042
5690.22998 0.075004
5690.50000 0.073264
5690.75977 0.07088
5691.02002 0.069708
5691.27979 0.06761
5691.54004 0.066479
5691.79980 0.064103
5692.06006 0.062931
5692.31982 0.06255
5692.58984 0.060781
5692.85010 0.059084
5693.10986 0.058198
5693.37012 0.056343
5693.62988 0.055065
5693.89014 0.054389
5694.14990 0.053089
5694.41016 0.052059
5694.68018 0.05048
5694.93994 0.049314
5695.20020 0.048804
5695.45996 0.047906
5695.72021 0.045958
5695.97998 0.04546
5696.24023 0.043847
5696.50000 0.043399
5696.75977 0.042465
5697.02979 0.041406
5697.29004 0.040988
5697.54980 0.040103
5697.81006 0.038932
5698.06982 0.038402
5698.33008 0.037429
5698.58984 0.036677
5698.85010 0.035818
5699.12012 0.035533
5699.37988 0.034294
5699.64014 0.03399
5699.89990 0.033025
5700.16016 0.032802
5700.41992 0.032624
5700.68018 0.031681
5700.93994 0.030488
5701.20996 0.030159
5701.47021 0.029201
5701.72998 0.029095
5701.99023 0.028149
5702.25000 0.027969
5702.50977 0.027282
5702.77002 0.026993
5703.02979 0.026448
5703.29004 0.025664
5703.56006 0.025275
5703.81982 0.025031
5704.08008 0.02424
5704.33984 0.023888
5704.60010 0.023559
5704.85986 0.023252
5705.12012 0.022474
5705.37988 0.022554
5705.64990 0.021931
5705.91016 0.021345
5706.16992 0.021209
5706.43018 0.020675
5706.68994 0.020328
5706.95020 0.020206
5707.20996 0.019497
5707.47021 0.019426
5707.74023 0.018596
5708.00000 0.018524
5708.25977 0.018333
5708.52002 0.017925
5708.77979 0.017656
5709.04004 0.017405
5709.29980 0.017122
5709.56006 0.016979
5709.81982 0.016186
5710.08984 0.016346
5710.35010 0.015947
5710.60986 0.015741
5710.87012 0.015631
5711.12988 0.015303
5711.39014 0.014926
5711.64990 0.014625
5711.91016 0.014304
5712.18018 0.014286
5712.43994 0.014189
5712.70020 0.01364
5712.95996 0.013761
5713.22021 0.013158
5713.47998 0.013092
5713.74023 0.012902
5714.00000 0.012846
5714.27002 0.012691
5714.52979 0.012702
5714.79004 0.01224
5715.04980 0.012013
5715.31006 0.01168
5715.56982 0.011792
5715.83008 0.01152
5716.08984 0.011413
5716.35010 0.011263
5716.62012 0.010847
5716.87988 0.011153
5717.14014 0.010693
5717.39990 0.010496
5717.66016 0.010343
5717.91992 0.010364
5718.18018 0.010083
5718.43994 0.009912
5718.70996 0.009766
5718.97021 0.009628
5719.22998 0.009481
5719.49023 0.00936
5719.75000 0.009042
5720.00977 0.009261
5720.27002 0.009146
5720.52979 0.008896
5720.79980 0.009023
5721.06006 0.008451
5721.31982 0.008727
5721.58008 0.008396
5721.83984 0.008346
5722.10010 0.008167
5722.35986 0.00839
5722.62012 0.007929
5722.87988 0.00794
5723.14990 0.007759
5723.41016 0.007835
5723.66992 0.007669
5723.93018 0.007533
5724.18994 0.007513
5724.45020 0.007346
5724.70996 0.007108
5724.97021 0.007263
5725.24023 0.006942
5725.50000 0.007252
5725.75977 0.00662
5726.02002 0.006764
5726.27979 0.006635
5726.54004 0.007021
5726.79980 0.006516
5727.06006 0.006351
5727.33008 0.006237
5727.58984 0.006234
5727.85010 0.006413
5728.10986 0.006343
5728.37012 0.006094
5728.62988 0.006079
5728.89014 0.005961
5729.14990 0.006048
5729.41992 0.005869
5729.68018 0.006002
5729.93994 0.005671
5730.20020 0.005658
5730.45996 0.005623
5730.72021 0.005589
5730.97998 0.005527
5731.24023 0.00535
5731.50000 0.005329
5731.77002 0.005326
5732.02979 0.005117
5732.29004 0.004906
5732.54980 0.004954
5732.81006 0.005016
5733.06982 0.005001
5733.33008 0.004713
5733.58984 0.004878
5733.85010 0.004839
5734.12012 0.004657
5734.37988 0.004846
5734.64014 0.004769
5734.89990 0.004593
5735.16016 0.004628
5735.41992 0.004491
5735.68018 0.004598
5735.93994 0.004576
5736.20996 0.004447
5736.47021 0.004353
5736.72998 0.004539
5736.99023 0.004356
5737.25000 0.004216
5737.50977 0.004011
5737.77002 0.004184
5738.02979 0.004187
5738.29980 0.004227
5738.56006 0.00403
5738.81982 0.004105
6312.70166 0.0
