# %ECSV 0.9
# ---
# datatype:
# - {name: wavelength, unit: Angstrom, datatype: float32}
# - {name: response, datatype: float32}
# meta: !!omap
# - {band_name: f_657_11}
# - {group_name: CAHA}
wavelength response
5788.81787 0.0
6432.02002 0.004053
6432.27979 0.004046
6432.54004 0.004051
6432.79980 0.003884
6433.06006 0.004026
6433.33008 0.004281
6433.58984 0.004121
6433.85010 0.004189
6434.10986 0.004114
6434.37012 0.004276
6434.62988 0.004319
6434.89014 0.004413
6435.14990 0.004293
6435.41992 0.003858
6435.93994 0.000676
6436.20020 0.004215
6436.45996 0.004565
6436.72021 0.004477
6436.97998 0.004605
6437.24023 0.004732
6437.50000 0.004813
6437.77002 0.004749
6438.02979 0.004819
6438.29004 0.00502
6438.54980 0.005031
6438.81006 0.004969
6439.06982 0.005071
6439.33008 0.004916
6439.58984 0.005008
6439.85986 0.004965
6440.12012 0.005187
6440.37988 0.005236
6440.64014 0.005243
6440.89990 0.005335
6441.16016 0.005357
6441.41992 0.005564
6441.68018 0.005411
6441.95020 0.00555
6442.20996 0.005584
6442.47021 0.005749
6442.72998 0.005809
6442.99023 0.005781
6443.25000 0.005761
6443.50977 0.005809
6443.77002 0.006008
6444.02979 0.006119
6444.29980 0.006091
6444.56006 0.006094
6444.81982 0.006027
6445.08008 0.006267
6445.33984 0.006383
6445.60010 0.006378
6445.85986 0.006346
6446.12012 0.006437
6446.39014 0.006569
6446.64990 0.006604
6446.91016 0.006602
6447.16992 0.006635
6447.43018 0.006657
6447.68994 0.006865
6447.95020 0.007002
6448.20996 0.00694
6448.47998 0.007064
6448.74023 0.006996
6449.00000 0.007144
6449.25977 0.007464
6449.52002 0.007405
6449.77979 0.007495
6450.04004 0.007541
6450.29980 0.007588
6450.56006 0.007673
6450.83008 0.007819
6451.08984 0.007757
6451.35010 0.008043
6451.60986 0.007948
6451.87012 0.008225
6452.12988 0.008163
6452.39014 0.00835
6452.64990 0.008177
6452.91992 0.008305
6453.18018 0.008546
6453.43994 0.008858
6453.70020 0.008565
6453.95996 0.008632
6454.22021 0.008783
6454.47998 0.009081
6454.74023 0.009265
6455.00977 0.009278
6455.27002 0.009259
6455.52979 0.009452
6455.79004 0.009546
6456.04980 0.009755
6456.31006 0.009929
6456.56982 0.009898
6456.83008 0.009885
6457.08984 0.010369
6457.35986 0.010418
6457.62012 0.010363
6457.87988 0.010484
6458.14014 0.010648
6458.39990 0.010921
6458.66016 0.010837
6458.91992 0.011152
6459.18018 0.011197
6459.45020 0.011085
6459.70996 0.011401
6459.97021 0.011579
6460.22998 0.011732
6460.49023 0.011979
6460.75000 0.011853
6461.00977 0.011961
6461.27002 0.012245
6461.54004 0.012617
6461.79980 0.012709
6462.06006 0.012791
6462.31982 0.013018
6462.58008 0.013324
6462.83984 0.013763
6463.10010 0.013742
6463.35986 0.01349
6463.62012 0.013741
6463.89014 0.013883
6464.14990 0.014379
6464.41016 0.014548
6464.66992 0.014452
6464.93018 0.014915
6465.18994 0.01492
6465.45020 0.01526
6465.70996 0.015487
6465.97998 0.015678
6466.24023 0.015603
6466.50000 0.016204
6466.75977 0.016518
6467.02002 0.016527
6467.27979 0.016571
6467.54004 0.016571
6467.79980 0.017241
6468.06982 0.017544
6468.33008 0.017771
6468.58984 0.017951
6468.85010 0.017976
6469.10986 0.018388
6469.37012 0.019
6469.62988 0.019311
6469.89014 0.018971
6470.14990 0.019269
6470.41992 0.019808
6470.68018 0.020013
6470.93994 0.020553
6471.20020 0.020998
6471.45996 0.020911
6471.72021 0.020986
6471.97998 0.021416
6472.24023 0.021861
6472.50977 0.022407
6472.77002 0.022171
6473.02979 0.022937
6473.29004 0.023368
6473.54980 0.02379
6473.81006 0.024019
6474.06982 0.024292
6474.33008 0.024462
6474.60010 0.024917
6474.85986 0.025775
6475.12012 0.026489
6475.37988 0.026235
6475.64014 0.026462
6475.89990 0.026995
6476.16016 0.027989
6476.41992 0.028342
6476.68018 0.028426
6476.95020 0.028923
6477.20996 0.029347
6477.47021 0.030242
6477.72998 0.030701
6477.99023 0.03062
6478.25000 0.031022
6478.50977 0.031697
6478.77002 0.032782
6479.04004 0.033337
6479.29980 0.033458
6479.56006 0.033608
6479.81982 0.034201
6480.08008 0.035694
6480.33984 0.036097
6480.60010 0.036497
6480.85986 0.036587
6481.12012 0.037242
6481.39014 0.038162
6481.64990 0.039091
6481.91016 0.039621
6482.16992 0.040259
6482.43018 0.040358
6482.68994 0.041811
6482.95020 0.042724
6483.20996 0.043311
6483.47998 0.043507
6483.74023 0.043787
6484.00000 0.044923
6484.25977 0.04648
6484.52002 0.04729
6484.77979 0.047544
6485.04004 0.048056
6485.29980 0.049063
6485.56982 0.050137
6485.83008 0.051441
6486.08984 0.052278
6486.35010 0.0532
6486.60986 0.053168
6486.87012 0.054938
6487.12988 0.056592
6487.39014 0.057523
6487.66016 0.057623
6487.91992 0.059025
6488.18018 0.060145
6488.43994 0.06189
6488.70020 0.062815
6488.95996 0.062759
6489.22021 0.063914
6489.47998 0.065718
6489.74023 0.067382
6490.00977 0.068668
6490.27002 0.069532
6490.52979 0.070038
6490.79004 0.071957
6491.04980 0.074988
6491.31006 0.076123
6491.56982 0.076878
6491.83008 0.077597
6492.10010 0.078712
6492.35986 0.081765
6492.62012 0.083405
6492.87988 0.084989
6493.14014 0.084868
6493.39990 0.086716
6493.66016 0.089366
6493.91992 0.092375
6494.18994 0.092991
6494.45020 0.09366
6494.70996 0.095093
6494.97021 0.098616
6495.22998 0.101455
6495.49023 0.102329
6495.75000 0.103993
6496.00977 0.105646
6496.27002 0.108535
6496.54004 0.111592
6496.79980 0.113931
6497.06006 0.115336
6497.31982 0.116086
6497.58008 0.11958
6497.83984 0.122853
6498.10010 0.125867
6498.35986 0.127093
6498.62988 0.127795
6498.89014 0.131271
6499.14990 0.135331
6499.41016 0.139427
6499.66992 0.140339
6499.93018 0.142053
6500.18994 0.145103
6500.45020 0.150109
6500.72021 0.153394
6500.97998 0.15626
6501.24023 0.156631
6501.50000 0.159511
6501.75977 0.16376
6502.02002 0.16933
6502.27979 0.172045
6502.54004 0.174566
6502.79980 0.175837
6503.06982 0.182244
6503.33008 0.187225
6503.58984 0.190862
6503.85010 0.192677
6504.10986 0.195224
6504.37012 0.201221
6504.62988 0.205963
6504.89014 0.211256
6505.16016 0.213286
6505.41992 0.215523
6505.68018 0.221246
6505.93994 0.227097
6506.20020 0.234026
6506.45996 0.235275
6506.72021 0.238297
6506.97998 0.241518
6507.25000 0.250114
6507.50977 0.256707
6507.77002 0.260214
6508.02979 0.263227
6508.29004 0.266615
6508.54980 0.274732
6508.81006 0.281413
6509.06982 0.286818
6509.33008 0.288572
6509.60010 0.292244
6509.85986 0.300992
6510.12012 0.310027
6510.37988 0.315334
6510.64014 0.317697
6510.89990 0.322218
6511.16016 0.329301
6511.41992 0.338898
6511.68994 0.345984
6511.95020 0.348941
6512.20996 0.352185
6512.47021 0.358278
6512.72998 0.369366
6512.99023 0.377627
6513.25000 0.380398
6513.50977 0.384195
6513.77979 0.391822
6514.04004 0.400421
6514.29980 0.409697
6514.56006 0.41391
6514.81982 0.417408
6515.08008 0.422878
6515.33984 0.433413
6515.60010 0.443874
6515.85986 0.450335
6516.12988 0.450023
6516.39014 0.456893
6516.64990 0.466739
6516.91016 0.476884
6517.16992 0.483423
6517.43018 0.486624
6517.68994 0.491925
6517.95020 0.499616
6518.22021 0.510322
6518.47998 0.518427
6518.74023 0.522663
6519.00000 0.525033
6519.25977 0.531841
6519.52002 0.544474
6519.77979 0.549672
6520.04004 0.555766
6520.31006 0.558915
6520.56982 0.565536
6520.83008 0.574592
6521.08984 0.584262
6521.35010 0.59146
6521.60986 0.591407
6521.87012 0.598224
6522.12988 0.606729
6522.39990 0.612973
6522.66016 0.619381
6522.91992 0.621891
6523.18018 0.626472
6523.43994 0.635577
6523.70020 0.643245
6523.95996 0.650664
6524.22021 0.650357
6524.47998 0.653799
6524.75000 0.663653
6525.00977 0.669982
6525.27002 0.675181
6525.52979 0.678693
6525.79004 0.679891
6526.04980 0.68701
6526.31006 0.69503
6526.56982 0.700865
6526.83008 0.702835
6527.10010 0.703461
6527.35986 0.707842
6527.62012 0.715681
6527.87988 0.720629
6528.14014 0.72389
6528.39990 0.724816
6528.66016 0.726089
6528.91992 0.733537
6529.18994 0.739365
6529.45020 0.741849
6529.70996 0.7445
6529.97021 0.746242
6530.22998 0.75047
6530.49023 0.753542
6530.75000 0.756113
6531.00977 0.756839
6531.27979 0.758838
6531.54004 0.761901
6531.79980 0.766334
6532.06006 0.768806
6532.31982 0.770033
6532.58008 0.770587
6532.83984 0.771748
6533.10010 0.7779
6533.37012 0.783235
6533.62988 0.781119
6533.89014 0.78
6534.14990 0.783516
6534.41016 0.784668
6534.66992 0.789774
6534.93018 0.789052
6535.18994 0.789635
6535.45020 0.791809
6535.72021 0.793033
6535.97998 0.796653
6536.24023 0.796488
6536.50000 0.796742
6536.75977 0.79854
6537.02002 0.801049
6537.27979 0.800013
6537.54004 0.800511
6537.81006 0.799983
6538.06982 0.801419
6538.33008 0.802391
6538.58984 0.804037
6538.85010 0.806535
6539.10986 0.804162
6539.37012 0.804289
6539.62988 0.805406
6539.89990 0.80816
6540.16016 0.809477
6540.41992 0.807661
6540.68018 0.807763
6540.93994 0.807899
6541.20020 0.808535
6541.45996 0.811636
6541.72021 0.81162
6541.97998 0.811352
6542.25000 0.810415
6542.50977 0.811869
6542.77002 0.810265
6543.02979 0.810429
6543.29004 0.812566
6543.54980 0.812277
6543.81006 0.813262
6544.06982 0.815707
6544.33984 0.813026
6544.60010 0.813677
6544.85986 0.816182
6545.12012 0.814864
6545.37988 0.815296
6545.64014 0.813493
6545.89990 0.813721
6546.16016 0.813902
6546.43018 0.817673
6546.68994 0.817892
6546.95020 0.816411
6547.20996 0.816912
6547.47021 0.816612
6547.72998 0.816299
6547.99023 0.817258
6548.25000 0.81835
6548.50977 0.816061
6548.77979 0.816974
6549.04004 0.817142
6549.29980 0.817797
6549.56006 0.818066
6549.81982 0.81813
6550.08008 0.815208
6550.33984 0.817977
6550.60010 0.817031
6550.87012 0.820673
6551.12988 0.81959
6551.39014 0.818515
6551.64990 0.81603
6551.91016 0.819285
6552.16992 0.819886
6552.43018 0.820217
6552.68994 0.817661
6552.95996 0.822491
6553.22021 0.818893
6553.47998 0.822128
6553.74023 0.820941
6554.00000 0.819973
6554.25977 0.819434
6554.52002 0.819098
6554.77979 0.823176
6555.04004 0.820193
6555.31006 0.821501
6555.56982 0.820914
6555.83008 0.821578
6556.08984 0.820945
6556.35010 0.822467
6556.60986 0.820889
6556.87012 0.8233
6557.12988 0.821855
6557.39990 0.823204
6557.66016 0.82443
6557.91992 0.823974
6558.18018 0.825071
6558.43994 0.823743
6558.70020 0.823549
6558.95996 0.825145
6559.22021 0.825916
6559.49023 0.822845
6559.75000 0.825852
6560.00977 0.823513
6560.27002 0.824641
6560.52979 0.828353
6560.79004 0.826868
6561.04980 0.825272
6561.31006 0.824809
6561.56982 0.82558
6561.83984 0.825736
6562.10010 0.825904
6562.35986 0.826925
6562.62012 0.82353
6562.87988 0.824219
6563.14014 0.826957
6563.39990 0.825717
6563.66016 0.826031
6563.93018 0.825671
6564.18994 0.826054
6564.45020 0.827752
6564.70996 0.828701
6564.97021 0.826836
6565.22998 0.824839
6565.49023 0.826569
6565.75000 0.825874
6566.02002 0.826681
6566.27979 0.826048
6566.54004 0.827147
6566.79980 0.826129
6567.06006 0.827673
6567.31982 0.827905
6567.58008 0.825946
6567.83984 0.827882
6568.10010 0.828488
6568.37012 0.825085
6568.62988 0.82655
6568.89014 0.825492
6569.14990 0.827198
6569.41016 0.826446
6569.66992 0.825804
6569.93018 0.825831
6570.18994 0.828033
6570.45996 0.823744
6570.72021 0.825338
6570.97998 0.824755
6571.24023 0.826245
6571.50000 0.826045
6571.75977 0.826017
6572.02002 0.824161
6572.27979 0.826536
6572.54980 0.8249
6572.81006 0.824087
6573.06982 0.825491
6573.33008 0.823582
6573.58984 0.825067
6573.85010 0.822498
6574.10986 0.823858
6574.37012 0.82138
6574.62988 0.824813
6574.89990 0.82333
6575.16016 0.824579
6575.41992 0.823698
6575.68018 0.82049
6575.93994 0.823268
6576.20020 0.823445
6576.45996 0.823335
6576.72021 0.821715
6576.99023 0.824419
6577.25000 0.822336
6577.50977 0.822707
6577.77002 0.824093
6578.02979 0.820653
6578.29004 0.819629
6578.54980 0.821353
6578.81006 0.821888
6579.08008 0.823815
6579.33984 0.820857
6579.60010 0.818586
6579.85986 0.818546
6580.12012 0.817955
6580.37988 0.821762
6580.64014 0.81892
6580.89990 0.816147
6581.16992 0.815068
6581.43018 0.819384
6581.68994 0.817876
6581.95020 0.817075
6582.20996 0.815731
6582.47021 0.815184
6582.72998 0.817312
6582.99023 0.816654
6583.25000 0.817868
6583.52002 0.814842
6583.77979 0.813883
6584.04004 0.815457
6584.29980 0.815441
6584.56006 0.816832
6584.81982 0.81344
6585.08008 0.813014
6585.33984 0.813134
6585.60010 0.813255
6585.87012 0.814836
6586.12988 0.816919
6586.39014 0.810847
6586.64990 0.811973
6586.91016 0.812827
6587.16992 0.81179
6587.43018 0.81287
6587.68994 0.814267
6587.95996 0.811707
6588.22021 0.810547
6588.47998 0.810517
6588.74023 0.811988
6589.00000 0.813779
6589.25977 0.811855
6589.52002 0.809847
6589.77979 0.810963
6590.04980 0.812324
6590.31006 0.812866
6590.56982 0.812513
6590.83008 0.81042
6591.08984 0.809969
6591.35010 0.813289
6591.60986 0.811836
6591.87012 0.812922
6592.14014 0.811976
6592.39990 0.808625
6592.66016 0.809695
6592.91992 0.811505
6593.18018 0.81198
6593.43994 0.809821
6593.70020 0.809783
6593.95996 0.809809
6594.22021 0.810615
6594.49023 0.812765
6594.75000 0.813705
6595.00977 0.811128
6595.27002 0.809137
6595.52979 0.811907
6595.79004 0.812921
6596.04980 0.813834
6596.31006 0.810642
6596.58008 0.808449
6596.83984 0.811505
6597.10010 0.812465
6597.35986 0.813415
6597.62012 0.814888
6597.87988 0.813831
6598.14014 0.811333
6598.39990 0.812643
6598.66992 0.814455
6598.93018 0.812035
6599.18994 0.813082
6599.45020 0.812935
6599.70996 0.812504
6599.97021 0.815727
6600.22998 0.815141
6600.49023 0.813177
6600.75000 0.814171
6601.02002 0.814066
6601.27979 0.813506
6601.54004 0.815032
6601.79980 0.814295
6602.06006 0.813257
6602.31982 0.812029
6602.58008 0.813591
6602.83984 0.812244
6603.10986 0.815408
6603.37012 0.81112
6603.62988 0.809162
6603.89014 0.811352
6604.14990 0.81289
6604.41016 0.810765
6604.66992 0.812701
6604.93018 0.811465
6605.20020 0.808805
6605.45996 0.81155
6605.72021 0.810348
6605.97998 0.810634
6606.24023 0.809957
6606.50000 0.80835
6606.75977 0.807569
6607.02002 0.807989
6607.27979 0.806091
6607.54980 0.805212
6607.81006 0.805123
6608.06982 0.80409
6608.33008 0.804673
6608.58984 0.801958
6608.85010 0.802484
6609.10986 0.800242
6609.37012 0.798049
6609.64014 0.796816
6609.89990 0.796429
6610.16016 0.794797
6610.41992 0.794349
6610.68018 0.791486
6610.93994 0.788954
6611.20020 0.787758
6611.45996 0.784835
6611.72998 0.784266
6611.99023 0.782361
6612.25000 0.777687
6612.50977 0.774511
6612.77002 0.773247
6613.02979 0.772089
6613.29004 0.771627
6613.54980 0.766286
6613.81006 0.761987
6614.08008 0.758938
6614.33984 0.757053
6614.60010 0.753591
6614.85986 0.752401
6615.12012 0.746185
6615.37988 0.742485
6615.64014 0.739476
6615.89990 0.737521
6616.16992 0.734709
6616.43018 0.726462
6616.68994 0.721864
6616.95020 0.717286
6617.20996 0.713198
6617.47021 0.712119
6617.72998 0.705238
6617.99023 0.69954
6618.25977 0.692954
6618.52002 0.691396
6618.77979 0.68657
6619.04004 0.680916
6619.29980 0.67552
6619.56006 0.665917
6619.81982 0.662208
6620.08008 0.657861
6620.33984 0.654926
6620.60986 0.646911
6620.87012 0.636834
6621.12988 0.632992
6621.39014 0.629755
6621.64990 0.62246
6621.91016 0.617906
6622.16992 0.608925
6622.43018 0.601708
6622.70020 0.596459
6622.95996 0.590879
6623.22021 0.586218
6623.47998 0.576233
6623.74023 0.567163
6624.00000 0.560182
6624.25977 0.557314
6624.52002 0.551507
6624.79004 0.543519
6625.04980 0.534293
6625.31006 0.526269
6625.56982 0.52084
6625.83008 0.514434
6626.08984 0.510273
6626.35010 0.499625
6626.60986 0.489929
6626.87988 0.484273
6627.14014 0.479712
6627.39990 0.476382
6627.66016 0.467113
6627.91992 0.455867
6628.18018 0.448068
6628.43994 0.442958
6628.70020 0.43934
6628.95996 0.433316
6629.22998 0.424884
6629.49023 0.414676
6629.75000 0.406429
6630.00977 0.405248
6630.27002 0.400919
6630.52979 0.391355
6630.79004 0.382081
6631.04980 0.375045
6631.31982 0.371898
6631.58008 0.366904
6631.83984 0.361479
6632.10010 0.351557
6632.35986 0.343995
6632.62012 0.339814
6632.87988 0.336958
6633.14014 0.330995
6633.39990 0.32297
6633.66992 0.314751
6633.93018 0.307679
6634.18994 0.306169
6634.45020 0.30278
6634.70996 0.294861
6634.97021 0.286381
6635.22998 0.281239
6635.49023 0.277369
6635.75977 0.274903
6636.02002 0.271122
6636.27979 0.262964
6636.54004 0.254736
6636.79980 0.25087
6637.06006 0.248212
6637.31982 0.245611
6637.58008 0.241038
6637.85010 0.233118
6638.10986 0.22708
6638.37012 0.224803
6638.62988 0.223411
6638.89014 0.219109
6639.14990 0.213023
6639.41016 0.207437
6639.66992 0.202616
6639.93018 0.202653
6640.20020 0.199238
6640.45996 0.193085
6640.72021 0.188106
6640.97998 0.184238
6641.24023 0.182725
6641.50000 0.181303
6641.75977 0.17695
6642.02002 0.171623
6642.29004 0.16655
6642.54980 0.164066
6642.81006 0.163233
6643.06982 0.160987
6643.33008 0.155929
6643.58984 0.151417
6643.85010 0.14875
6644.10986 0.146903
6644.37988 0.146029
6644.64014 0.142863
6644.89990 0.137834
6645.16016 0.134369
6645.41992 0.132032
6645.68018 0.132066
6645.93994 0.129577
6646.20020 0.127076
6646.45996 0.122261
6646.72998 0.119952
6646.99023 0.119262
6647.25000 0.118272
6647.50977 0.115674
6647.77002 0.111875
6648.02979 0.108976
6648.29004 0.108485
6648.54980 0.106881
6648.81982 0.105285
6649.08008 0.102067
6649.33984 0.099314
6649.60010 0.097731
6649.85986 0.097196
6650.12012 0.096231
6650.37988 0.092824
6650.64014 0.091049
6650.91016 0.088883
6651.16992 0.087788
6651.43018 0.087584
6651.68994 0.085919
6651.95020 0.082956
6652.20996 0.080733
6652.47021 0.079491
6652.72998 0.079284
6652.99023 0.078381
6653.25977 0.076498
6653.52002 0.07392
6653.77979 0.072608
6654.04004 0.072235
6654.29980 0.07149
6654.56006 0.070661
6654.81982 0.068111
6655.08008 0.066323
6655.35010 0.065794
6655.60986 0.065111
6655.87012 0.064713
6656.12988 0.063014
6656.39014 0.061265
6656.64990 0.059238
6656.91016 0.05902
6657.16992 0.059253
6657.43994 0.057984
6657.70020 0.056427
6657.95996 0.054543
6658.22021 0.053524
6658.47998 0.053603
6658.74023 0.053364
6659.00000 0.052353
6659.25977 0.050078
6659.52002 0.049358
6659.79004 0.048827
6660.04980 0.049288
6660.31006 0.048138
6660.56982 0.046825
6660.83008 0.04571
6661.08984 0.04458
6661.35010 0.04456
6661.60986 0.044514
6661.87988 0.043678
6662.14014 0.042074
6662.39990 0.041338
6662.66016 0.040741
6662.91992 0.040676
6663.18018 0.03992
6663.43994 0.039095
6663.70020 0.037677
6663.97021 0.037455
6664.22998 0.037224
6664.49023 0.037154
6664.75000 0.036314
6665.00977 0.035188
6665.27002 0.034529
6665.52979 0.034224
6665.79004 0.034165
6666.04980 0.033874
6666.31982 0.032899
6666.58008 0.031792
6666.83984 0.031322
6667.10010 0.031317
6667.35986 0.03135
6667.62012 0.03087
6667.87988 0.029739
6668.14014 0.029089
6668.41016 0.028909
6668.66992 0.028969
6668.93018 0.028918
6669.18994 0.027912
6669.45020 0.027113
6669.70996 0.026798
6669.97021 0.026829
6670.22998 0.026779
6670.50000 0.026457
6670.75977 0.02489
6671.02002 0.024841
6671.27979 0.024695
6671.54004 0.024672
6671.79980 0.024392
6672.06006 0.023799
6672.31982 0.022512
6672.58008 0.02273
6672.85010 0.022581
6673.10986 0.022724
6673.37012 0.022204
6673.62988 0.021493
6673.89014 0.021066
6674.14990 0.020986
6674.41016 0.021282
6674.66992 0.020723
6674.93994 0.02031
6675.20020 0.019555
6675.45996 0.019342
6675.72021 0.019475
6675.97998 0.01966
6676.24023 0.019412
6676.50000 0.018485
6676.75977 0.018101
6677.02979 0.017835
6677.29004 0.018211
6677.54980 0.017953
6677.81006 0.017567
6678.06982 0.017037
6678.33008 0.016849
6678.58984 0.016881
6678.85010 0.016739
6679.10986 0.016545
6679.37988 0.016009
6679.64014 0.015782
6679.89990 0.015558
6680.16016 0.015677
6680.41992 0.015443
6680.68018 0.015426
6680.93994 0.014832
6681.20020 0.014596
6681.47021 0.014613
6681.72998 0.014702
6681.99023 0.014719
6682.25000 0.014022
6682.50977 0.013777
6682.77002 0.013634
6683.02979 0.013604
6683.29004 0.013526
6683.56006 0.013392
6683.81982 0.012763
6684.08008 0.012672
6684.33984 0.012699
6684.60010 0.012766
6684.85986 0.012572
6685.12012 0.012357
6685.37988 0.011796
6685.64990 0.011909
6685.91016 0.011846
6686.16992 0.011921
6686.43018 0.011822
6686.68994 0.011315
6686.95020 0.011123
6687.20996 0.011231
6687.47021 0.011131
6687.72998 0.011112
6688.00000 0.010614
6688.25977 0.010587
6688.52002 0.01036
6688.77979 0.010482
6689.04004 0.010348
6689.29980 0.010206
6689.56006 0.007494
6689.81982 0.007625
6690.08008 0.009603
6690.35010 0.009953
6690.60986 0.00981
6690.87012 0.009642
6691.12988 0.009257
6691.39014 0.009268
6691.64990 0.009211
6691.91016 0.009288
6692.16992 0.009287
6692.43994 0.008874
6692.70020 0.008739
6692.95996 0.00864
6693.22021 0.008843
6693.47998 0.008715
6693.74023 0.008533
6694.00000 0.008253
6694.25977 0.008194
6694.52979 0.008196
6694.79004 0.008265
6695.04980 0.008135
6695.31006 0.008087
6695.56982 0.007578
6695.83008 0.007793
6696.08984 0.007996
6696.35010 0.007679
6696.62012 0.007525
6696.87988 0.007413
6697.14014 0.007295
6697.39990 0.007287
6697.66016 0.007423
6697.91992 0.007107
6698.18018 0.007033
6698.43994 0.006904
6698.70020 0.006881
6698.97021 0.006893
6699.22998 0.006943
6699.49023 0.006815
6699.75000 0.006483
6700.00977 0.006588
6700.27002 0.006591
6700.52979 0.006589
6700.79004 0.006459
6701.06006 0.006532
6701.31982 0.006201
6701.58008 0.00603
6701.83984 0.006136
6702.10010 0.006142
6702.35986 0.006213
6702.62012 0.005923
6702.87988 0.005866
6703.14990 0.005966
6703.41016 0.005914
6703.66992 0.005965
6703.93018 0.005668
6704.18994 0.005554
6704.45020 0.005572
6704.70996 0.005405
6704.97021 0.005428
6705.22998 0.005486
6705.50000 0.005437
6705.75977 0.00525
6706.02002 0.005261
6706.27979 0.005307
6706.54004 0.005393
6706.79980 0.005334
6707.06006 0.005
6707.31982 0.0051
6707.58984 0.00508
6707.85010 0.005021
6708.10986 0.005031
6708.37012 0.004971
6708.62988 0.004851
6708.89014 0.004893
6709.14990 0.004791
6709.41016 0.004826
6709.68018 0.004825
6709.93994 0.00462
6710.20020 0.00459
6710.45996 0.004674
6710.72021 0.004564
6710.97998 0.004543
6711.24023 0.004516
6711.50000 0.004433
6711.75977 0.00442
6712.02979 0.00441
6712.29004 0.004367
6712.54980 0.004327
6712.81006 0.004228
6713.06982 0.004178
6713.33008 0.004236
6713.58984 0.004296
6713.85010 0.004165
6714.12012 0.00416
6714.37988 0.004067
7385.81787 0.0
