# %ECSV 0.9
# ---
# datatype:
# - {name: wavelength, unit: Angstrom, datatype: float32}
# - {name: response, datatype: float32}
# meta: !!omap
# - {band_name: f_588_6}
# - {group_name: CAHA}
wavelength response
5200.29004 0.0
5778.10010 0.004075
5778.35986 0.003949
5778.62012 0.003766
5778.87988 0.003793
5779.14014 0.004126
5779.39990 0.004189
5779.66016 0.003967
5779.91992 0.003846
5780.18018 0.003964
5780.43994 0.00433
5780.70996 0.004186
5780.97021 0.004096
5781.22998 0.004376
5781.49023 0.004407
5781.75000 0.004693
5782.00977 0.00428
5782.27002 0.003866
5782.52979 0.004187
5782.79004 0.004766
5783.04980 0.004523
5783.31006 0.0043
5783.56982 0.004597
5783.83008 0.004933
5784.08984 0.00474
5784.35010 0.004732
5784.62012 0.004966
5784.87988 0.005248
5785.14014 0.005349
5785.39990 0.004794
5785.66016 0.004838
5785.91992 0.005294
5786.18018 0.005506
5786.43994 0.005352
5786.70020 0.005055
5786.95996 0.005457
5787.22021 0.005838
5787.47998 0.005466
5787.74023 0.005229
5788.00000 0.005628
5788.27002 0.006164
5788.52979 0.005926
5788.79004 0.005763
5789.04980 0.005783
5789.31006 0.006092
5789.56982 0.006272
5789.83008 0.006317
5790.08984 0.005909
5790.35010 0.006143
5790.60986 0.006733
5790.87012 0.006524
5791.12988 0.006128
5791.39014 0.006599
5791.64990 0.007074
5791.91992 0.006839
5792.18018 0.006806
5792.43994 0.006488
5792.70020 0.007128
5792.95996 0.007461
5793.22021 0.007042
5793.47998 0.006695
5793.74023 0.007427
5794.00000 0.007857
5794.25977 0.007572
5794.52002 0.007377
5794.77979 0.007552
5795.04004 0.007914
5795.29980 0.008109
5795.56006 0.007582
5795.83008 0.007678
5796.08984 0.008274
5796.35010 0.008335
5796.60986 0.008051
5796.87012 0.008176
5797.12988 0.008415
5797.39014 0.008988
5797.64990 0.008772
5797.91016 0.008487
5798.16992 0.008705
5798.43018 0.009091
5798.68994 0.00926
5798.95020 0.009039
5799.20996 0.008805
5799.47998 0.009783
5799.74023 0.010075
5800.00000 0.009896
5800.25977 0.00957
5800.52002 0.009593
5800.77979 0.010399
5801.04004 0.010601
5801.29980 0.010145
5801.56006 0.010166
5801.81982 0.010532
5802.08008 0.010722
5802.33984 0.011032
5802.60010 0.010464
5802.85986 0.01107
5803.12012 0.011529
5803.39014 0.011457
5803.64990 0.011462
5803.91016 0.011416
5804.16992 0.012398
5804.43018 0.012371
5804.68994 0.012014
5804.95020 0.012096
5805.20996 0.012868
5805.47021 0.013314
5805.72998 0.013445
5805.99023 0.012535
5806.25000 0.01294
5806.50977 0.013784
5806.77002 0.013812
5807.04004 0.013663
5807.29980 0.013772
5807.56006 0.014379
5807.81982 0.014592
5808.08008 0.014641
5808.33984 0.01435
5808.60010 0.014542
5808.85986 0.01555
5809.12012 0.015632
5809.37988 0.015559
5809.64014 0.015508
5809.89990 0.016388
5810.16016 0.016704
5810.41992 0.016419
5810.68994 0.016643
5810.95020 0.016724
5811.20996 0.017627
5811.47021 0.017783
5811.72998 0.01701
5811.99023 0.017384
5812.25000 0.018527
5812.50977 0.018789
5812.77002 0.018196
5813.02979 0.018815
5813.29004 0.019365
5813.54980 0.020465
5813.81006 0.020488
5814.06982 0.020051
5814.33984 0.020563
5814.60010 0.021292
5814.85986 0.021703
5815.12012 0.021459
5815.37988 0.021521
5815.64014 0.022215
5815.89990 0.023269
5816.16016 0.022941
5816.41992 0.022938
5816.68018 0.023585
5816.93994 0.02452
5817.20020 0.025019
5817.45996 0.024268
5817.72021 0.024908
5817.97998 0.026118
5818.25000 0.026389
5818.50977 0.026266
5818.77002 0.026454
5819.02979 0.027315
5819.29004 0.028221
5819.54980 0.028434
5819.81006 0.027749
5820.06982 0.028768
5820.33008 0.030202
5820.58984 0.030488
5820.85010 0.030202
5821.10986 0.030102
5821.37012 0.031204
5821.62988 0.032404
5821.89990 0.032398
5822.16016 0.032521
5822.41992 0.033788
5822.68018 0.034777
5822.93994 0.035898
5823.20020 0.034874
5823.45996 0.035291
5823.72021 0.036796
5823.97998 0.038308
5824.24023 0.038252
5824.50000 0.037464
5824.75977 0.038926
5825.02002 0.041119
5825.27979 0.040876
5825.54980 0.040605
5825.81006 0.040823
5826.06982 0.043559
5826.33008 0.044545
5826.58984 0.043989
5826.85010 0.044435
5827.10986 0.045934
5827.37012 0.047824
5827.62988 0.047733
5827.89014 0.046968
5828.14990 0.048954
5828.41016 0.050979
5828.66992 0.05165
5828.93018 0.051701
5829.20020 0.052105
5829.45996 0.055199
5829.72021 0.05607
5829.97998 0.056385
5830.24023 0.055983
5830.50000 0.057382
5830.75977 0.059868
5831.02002 0.060382
5831.27979 0.060743
5831.54004 0.06151
5831.79980 0.064561
5832.06006 0.066606
5832.31982 0.066607
5832.58008 0.066716
5832.85010 0.068423
5833.10986 0.071539
5833.37012 0.071712
5833.62988 0.071545
5833.89014 0.073422
5834.14990 0.076871
5834.41016 0.078669
5834.66992 0.078687
5834.93018 0.079251
5835.18994 0.082257
5835.45020 0.084124
5835.70996 0.085922
5835.97021 0.085263
5836.22998 0.087846
5836.49023 0.0912
5836.75977 0.093003
5837.02002 0.09342
5837.27979 0.093247
5837.54004 0.097559
5837.79980 0.102225
5838.06006 0.101551
5838.31982 0.101884
5838.58008 0.104342
5838.83984 0.109253
5839.10010 0.111308
5839.35986 0.111216
5839.62012 0.113734
5839.87988 0.117175
5840.14014 0.118859
5840.41016 0.121216
5840.66992 0.120845
5840.93018 0.125851
5841.18994 0.130535
5841.45020 0.132168
5841.70996 0.131947
5841.97021 0.134676
5842.22998 0.140963
5842.49023 0.145421
5842.75000 0.144356
5843.00977 0.145275
5843.27002 0.151004
5843.52979 0.157186
5843.79004 0.158607
5844.06006 0.15818
5844.31982 0.162038
5844.58008 0.168773
5844.83984 0.172084
5845.10010 0.171748
5845.35986 0.173597
5845.62012 0.180573
5845.87988 0.187572
5846.14014 0.187548
5846.39990 0.188135
5846.66016 0.193189
5846.91992 0.201729
5847.18018 0.202777
5847.43994 0.203121
5847.70996 0.207091
5847.97021 0.216546
5848.22998 0.219758
5848.49023 0.222125
5848.75000 0.222218
5849.00977 0.230465
5849.27002 0.238412
5849.52979 0.240269
5849.79004 0.240259
5850.04980 0.246451
5850.31006 0.254511
5850.56982 0.257615
5850.83008 0.259079
5851.08984 0.262001
5851.35010 0.270984
5851.62012 0.277577
5851.87988 0.278959
5852.14014 0.278427
5852.39990 0.287604
5852.66016 0.294731
5852.91992 0.298728
5853.18018 0.298773
5853.43994 0.302861
5853.70020 0.313601
5853.95996 0.318353
5854.22021 0.318655
5854.47998 0.322673
5854.74023 0.329366
5855.00000 0.33844
5855.27002 0.340514
5855.52979 0.340375
5855.79004 0.344773
5856.04980 0.353888
5856.31006 0.35777
5856.56982 0.359481
5856.83008 0.362656
5857.08984 0.369911
5857.35010 0.376653
5857.60986 0.379396
5857.87012 0.379955
5858.12988 0.386334
5858.39014 0.392073
5858.64990 0.395913
5858.91992 0.397393
5859.18018 0.399116
5859.43994 0.406512
5859.70020 0.411571
5859.95996 0.413442
5860.22021 0.414282
5860.47998 0.421445
5860.74023 0.427148
5861.00000 0.428102
5861.25977 0.430062
5861.52002 0.434332
5861.77979 0.437918
5862.04004 0.43963
5862.29980 0.442189
5862.56006 0.44595
5862.83008 0.450724
5863.08984 0.453114
5863.35010 0.452236
5863.60986 0.457354
5863.87012 0.459615
5864.12988 0.463967
5864.39014 0.460846
5864.64990 0.466111
5864.91016 0.467355
5865.16992 0.467268
5865.43018 0.472945
5865.68994 0.474729
5865.95020 0.473326
5866.20996 0.479022
5866.47998 0.477818
5866.74023 0.476622
5867.00000 0.479779
5867.25977 0.484234
5867.52002 0.485727
5867.77979 0.482639
5868.04004 0.484153
5868.29980 0.489337
5868.56006 0.487777
5868.81982 0.488212
5869.08008 0.484655
5869.33984 0.489113
5869.60010 0.491126
5869.85986 0.489409
5870.12012 0.487682
5870.39014 0.490137
5870.64990 0.493378
5870.91016 0.494428
5871.16992 0.489728
5871.43018 0.489066
5871.68994 0.492721
5871.95020 0.494851
5872.20996 0.49245
5872.47021 0.489905
5872.72998 0.492405
5872.99023 0.496538
5873.25000 0.496035
5873.50977 0.492449
5873.77002 0.493787
5874.04004 0.495181
5874.29980 0.496974
5874.56006 0.492039
5874.81982 0.490094
5875.08008 0.494366
5875.33984 0.498173
5875.60010 0.494938
5875.85986 0.485787
5876.12012 0.491588
5876.37988 0.494738
5876.64014 0.494237
5876.89990 0.487231
5877.16016 0.486188
5877.41992 0.492005
5877.68994 0.4948
5877.95020 0.48887
5878.20996 0.486548
5878.47021 0.487768
5878.72998 0.49455
5878.99023 0.490595
5879.25000 0.486925
5879.50977 0.486967
5879.77002 0.491345
5880.02979 0.490977
5880.29004 0.484648
5880.54980 0.481346
5880.81006 0.485201
5881.06982 0.490617
5881.33008 0.486079
5881.60010 0.481077
5881.85986 0.481521
5882.12012 0.488189
5882.37988 0.484535
5882.64014 0.480709
5882.89990 0.476845
5883.16016 0.48274
5883.41992 0.483845
5883.68018 0.480147
5883.93994 0.475088
5884.20020 0.479159
5884.45996 0.482745
5884.72021 0.480967
5884.97998 0.472035
5885.25000 0.472229
5885.50977 0.476325
5885.77002 0.4784
5886.02979 0.473218
5886.29004 0.467776
5886.54980 0.46939
5886.81006 0.474562
5887.06982 0.469196
5887.33008 0.462327
5887.58984 0.465599
5887.85010 0.467989
5888.10986 0.468409
5888.37012 0.463481
5888.62988 0.459219
5888.89990 0.460887
5889.16016 0.463214
5889.41992 0.458461
5889.68018 0.452442
5889.93994 0.451626
5890.20020 0.4584
5890.45996 0.451714
5890.72021 0.449074
5890.97998 0.446142
5891.24023 0.449853
5891.50000 0.449072
5891.75977 0.44321
5892.02002 0.437443
5892.27979 0.436784
5892.54980 0.439766
5892.81006 0.437603
5893.06982 0.427455
5893.33008 0.426674
5893.58984 0.430202
5893.85010 0.427709
5894.10986 0.420406
5894.37012 0.415887
5894.62988 0.416554
5894.89014 0.419715
5895.14990 0.411054
5895.41016 0.403463
5895.66992 0.403645
5895.93018 0.406043
5896.20020 0.401961
5896.45996 0.394966
5896.72021 0.388147
5896.97998 0.391791
5897.24023 0.391183
5897.50000 0.383374
5897.75977 0.373813
5898.02002 0.375283
5898.27979 0.37939
5898.54004 0.372968
5898.79980 0.36088
5899.06006 0.359907
5899.31982 0.361232
5899.58008 0.361383
5899.83984 0.349382
5900.10986 0.341483
5900.37012 0.346411
5900.62988 0.346223
5900.89014 0.336942
5901.14990 0.326338
5901.41016 0.321784
5901.66992 0.32655
5901.93018 0.326533
5902.18994 0.313329
5902.45020 0.306144
5902.70996 0.307886
5902.97021 0.309252
5903.22998 0.301649
5903.49023 0.289542
5903.75977 0.287076
5904.02002 0.290039
5904.27979 0.287753
5904.54004 0.276163
5904.79980 0.268711
5905.06006 0.269858
5905.31982 0.270897
5905.58008 0.262303
5905.83984 0.253081
5906.10010 0.250934
5906.35986 0.252036
5906.62012 0.250809
5906.87988 0.239805
5907.14014 0.232668
5907.41016 0.233502
5907.66992 0.233678
5907.93018 0.227651
5908.18994 0.218213
5908.45020 0.215282
5908.70996 0.219429
5908.97021 0.215597
5909.22998 0.204892
5909.49023 0.198936
5909.75000 0.201675
5910.00977 0.201134
5910.27002 0.193907
5910.52979 0.186036
5910.79004 0.182097
5911.06006 0.185171
5911.31982 0.182312
5911.58008 0.174116
5911.83984 0.168943
5912.10010 0.169693
5912.35986 0.170561
5912.62012 0.164536
5912.87988 0.156912
5913.14014 0.15516
5913.39990 0.157659
5913.66016 0.154788
5913.91992 0.147035
5914.18018 0.141659
5914.43994 0.143267
5914.70020 0.144273
5914.97021 0.139583
5915.22998 0.1328
5915.49023 0.130842
5915.75000 0.132682
5916.00977 0.130031
5916.27002 0.124498
5916.52979 0.120454
5916.79004 0.119556
5917.04980 0.121156
5917.31006 0.117095
5917.56982 0.111369
5917.83008 0.10915
5918.08984 0.110261
5918.35010 0.110052
5918.62012 0.104561
5918.87988 0.099889
5919.14014 0.09965
5919.39990 0.102328
5919.66016 0.098993
5919.91992 0.093913
5920.18018 0.091135
5920.43994 0.093021
5920.70020 0.092613
5920.95996 0.088547
5921.22021 0.084734
5921.47998 0.084006
5921.74023 0.084942
5922.00000 0.083407
5922.27002 0.078774
5922.52979 0.075567
5922.79004 0.077536
5923.04980 0.077459
5923.31006 0.074464
5923.56982 0.070486
5923.83008 0.070394
5924.08984 0.071281
5924.35010 0.069776
5924.60986 0.066274
5924.87012 0.063808
5925.12988 0.065634
5925.39014 0.06551
5925.64990 0.063664
5925.91992 0.059802
5926.18018 0.059039
5926.43994 0.060221
5926.70020 0.060021
5926.95996 0.056051
5927.22021 0.054197
5927.47998 0.054816
5927.74023 0.055365
5928.00000 0.053524
5928.25977 0.050404
5928.52002 0.050127
5928.77979 0.051287
5929.04004 0.050744
5929.29980 0.047843
5929.56006 0.046071
5929.83008 0.045875
5930.08984 0.046889
5930.35010 0.04581
5930.60986 0.042583
5930.87012 0.042768
5931.12988 0.043258
5931.39014 0.043179
5931.64990 0.041165
5931.91016 0.039178
5932.16992 0.039434
5932.43018 0.039837
5932.68994 0.039438
5932.95020 0.0368
5933.20996 0.036014
5933.47998 0.036551
5933.74023 0.03726
5934.00000 0.034698
5934.25977 0.033621
5934.52002 0.033714
5934.77979 0.03386
5935.04004 0.033679
5935.29980 0.03182
5935.56006 0.030767
5935.81982 0.031406
5936.08008 0.031273
5936.33984 0.030402
5936.60010 0.028753
5936.85986 0.028641
5937.12012 0.029288
5937.39014 0.028872
5937.64990 0.027534
5937.91016 0.026222
5938.16992 0.026738
5938.43018 0.027062
5938.68994 0.0268
5938.95020 0.024892
5939.20996 0.024255
5939.47021 0.024872
5939.72998 0.025289
5939.99023 0.024321
5940.25000 0.023256
5940.50977 0.022664
5940.77002 0.023254
5941.04004 0.022828
5941.29980 0.021985
5941.56006 0.020838
5941.81982 0.021588
5942.08008 0.021534
5942.33984 0.021201
5942.60010 0.019818
5942.85986 0.019172
5943.12012 0.020042
5943.37988 0.019903
5943.64014 0.019201
5943.89990 0.018392
5944.16016 0.018428
5944.41992 0.01833
5944.68994 0.018549
5944.95020 0.017476
5945.20996 0.017152
5945.47021 0.017423
5945.72998 0.017811
5945.99023 0.016771
5946.25000 0.015945
5946.50977 0.016216
5946.77002 0.016542
5947.02979 0.016014
5947.29004 0.015366
5947.54980 0.015003
5947.81006 0.014894
5948.06982 0.015418
5948.33008 0.014719
5948.60010 0.013797
5948.85986 0.013738
5949.12012 0.013941
5949.37988 0.013979
5949.64014 0.013498
5949.89990 0.013055
5950.16016 0.01334
5950.41992 0.013457
5950.68018 0.012959
5950.93994 0.012553
5951.20020 0.01207
5951.45996 0.012301
5951.72021 0.012193
5951.97998 0.011954
5952.25000 0.011624
5952.50977 0.01122
5952.77002 0.011612
5953.02979 0.011664
5953.29004 0.010866
5953.54980 0.010541
5953.81006 0.010818
5954.06982 0.011036
5954.33008 0.010844
5954.58984 0.010011
5954.85010 0.010036
5955.10986 0.010517
5955.37012 0.010327
5955.62988 0.009899
5955.89990 0.009558
5956.16016 0.0096
5956.41992 0.009539
5956.68018 0.009533
5956.93994 0.009261
5957.20020 0.008815
5957.45996 0.009155
5957.72021 0.009044
5957.97998 0.008936
5958.24023 0.008317
5958.50000 0.008425
5958.75977 0.008564
5959.02002 0.008503
5959.27979 0.008298
5959.54980 0.007765
5959.81006 0.007746
5960.06982 0.007905
5960.33008 0.007814
5960.58984 0.007759
5960.85010 0.007378
5961.10986 0.007365
5961.37012 0.007444
5961.62988 0.007403
5961.89014 0.007
5962.14990 0.006912
5962.41016 0.00715
5962.66992 0.0071
5962.93018 0.006912
5963.18994 0.006621
5963.45996 0.006616
5963.72021 0.006769
5963.97998 0.006859
5964.24023 0.006433
5964.50000 0.00629
5964.75977 0.006177
5965.02002 0.006294
5965.27979 0.006005
5965.54004 0.006113
5965.79980 0.00581
5966.06006 0.005999
5966.31982 0.005814
5966.58008 0.005781
5966.83984 0.005561
5967.10986 0.005624
5967.37012 0.005663
5967.62988 0.005661
5967.89014 0.005212
5968.14990 0.005285
5968.41016 0.005233
5968.66992 0.005276
5968.93018 0.005146
5969.18994 0.004865
5969.45020 0.004798
5969.70996 0.005242
5969.97021 0.005059
5970.22998 0.004826
5970.49023 0.004762
5970.75977 0.00482
5971.02002 0.004842
5971.27979 0.004676
5971.54004 0.004551
5971.79980 0.004469
5972.06006 0.00468
5972.31982 0.004487
5972.58008 0.004417
5972.83984 0.004426
5973.10010 0.004152
5973.35986 0.004252
5973.62012 0.004462
6570.98193 0.0
