# %ECSV 0.9
# ---
# datatype:
# - {name: wavelength, unit: Angstrom, datatype: float32}
# - {name: response, datatype: float32}
# meta: !!omap
# - {band_name: f_733_4}
# - {group_name: CAHA}
wavelength response
6532.30566 0.0
7258.11719 0.004017
7258.37988 0.004054
7258.64404 0.004091
7258.90723 0.004129
7259.16992 0.004167
7259.43408 0.004204
7259.69678 0.004243
7259.95996 0.004305
7260.22412 0.004315
7260.48682 0.004329
7260.75000 0.004346
7261.01416 0.004368
7261.27686 0.004393
7261.54004 0.004422
7261.80322 0.004455
7262.06689 0.004492
7262.33008 0.004532
7262.59277 0.004577
7262.85596 0.004625
7263.12012 0.004677
7263.38281 0.004733
7263.64600 0.004792
7263.91016 0.004856
7264.17285 0.004923
7264.43604 0.004994
7264.69922 0.005069
7264.96191 0.005148
7265.22607 0.00523
7265.48877 0.005316
7265.75195 0.005406
7266.01514 0.0055
7266.27783 0.005598
7266.54199 0.0057
7266.80518 0.005805
7267.06787 0.005914
7267.33105 0.006027
7267.59424 0.006144
7267.85693 0.006265
7268.12109 0.00639
7268.38379 0.006518
7268.64697 0.00665
7268.91016 0.006786
7269.17285 0.006926
7269.43701 0.007069
7269.69922 0.007217
7269.96191 0.007368
7270.22607 0.007523
7270.48877 0.007682
7270.75195 0.007844
7271.01514 0.008011
7271.27783 0.008181
7271.54102 0.008355
7271.80420 0.008533
7272.06689 0.008715
7272.33008 0.0089
7272.59277 0.00909
7272.85596 0.009283
7273.11914 0.00948
7273.38184 0.009681
7273.64600 0.009885
7273.90820 0.010179
7274.17090 0.010315
7274.43506 0.010474
7274.69678 0.010671
7274.95996 0.010914
7275.22314 0.011193
7275.48584 0.011489
7275.75000 0.011779
7276.01221 0.012051
7276.27490 0.012317
7276.53809 0.012599
7276.80078 0.012926
7277.06396 0.013317
7277.32715 0.013776
7277.58984 0.014286
7277.85303 0.014819
7278.11621 0.015342
7278.37891 0.015826
7278.64209 0.016255
7278.90479 0.016626
7279.16699 0.016954
7279.43018 0.017264
7279.69287 0.017584
7279.95605 0.017933
7280.21924 0.018306
7280.48193 0.01867
7280.74512 0.018978
7281.00781 0.019197
7281.27100 0.019327
7281.53320 0.019409
7281.79590 0.019509
7282.05908 0.019683
7282.32178 0.019963
7282.58398 0.020352
7282.84814 0.020831
7283.10986 0.021371
7283.37305 0.021946
7283.63623 0.022532
7283.89795 0.023112
7284.16211 0.023675
7284.42383 0.024218
7284.68701 0.024745
7284.95020 0.025267
7285.21191 0.025794
7285.47510 0.02634
7285.73779 0.026915
7286.00000 0.027525
7286.26416 0.028165
7286.52588 0.02882
7286.78906 0.029472
7287.05176 0.030105
7287.31396 0.030711
7287.57715 0.031293
7287.83984 0.031863
7288.10303 0.032435
7288.36523 0.03302
7288.62793 0.033626
7288.89111 0.03427
7289.15283 0.034985
7289.41602 0.035809
7289.67920 0.036773
7289.94092 0.037882
7290.20410 0.039112
7290.46582 0.040435
7290.72900 0.04183
7290.99219 0.043298
7291.25391 0.04485
7291.51709 0.046489
7291.77979 0.048197
7292.04199 0.049935
7292.30518 0.051652
7292.56689 0.05329
7292.83008 0.054813
7293.09180 0.056204
7293.35498 0.057479
7293.61816 0.058673
7293.87988 0.059831
7294.14307 0.060989
7294.40479 0.062174
7294.66797 0.063407
7294.93018 0.064701
7295.19287 0.06607
7295.45605 0.06752
7295.71777 0.069056
7295.97998 0.070696
7296.24316 0.072467
7296.50488 0.074402
7296.76807 0.076527
7297.02979 0.078841
7297.29297 0.081321
7297.55615 0.083926
7297.81787 0.086623
7298.08105 0.089391
7298.34277 0.092231
7298.60498 0.095148
7298.86816 0.098146
7299.12988 0.101211
7299.39307 0.10432
7299.65479 0.107445
7299.91699 0.110553
7300.18018 0.113609
7300.44189 0.116572
7300.70508 0.119409
7300.96680 0.122124
7301.22900 0.124777
7301.49219 0.127474
7301.75391 0.130331
7302.01709 0.133445
7302.27881 0.136859
7302.54199 0.140572
7302.80420 0.14456
7303.06592 0.148793
7303.32910 0.153246
7303.59082 0.157894
7303.85303 0.162712
7304.11621 0.16767
7304.37793 0.172728
7304.64014 0.17785
7304.90186 0.182995
7305.16504 0.188131
7305.42676 0.193243
7305.68896 0.198348
7305.95215 0.203485
7306.21387 0.208696
7306.47607 0.214002
7306.73779 0.219388
7307.00098 0.224812
7307.26318 0.230236
7307.52490 0.235645
7307.78809 0.241055
7308.04980 0.246521
7308.31201 0.252121
7308.57422 0.257933
7308.83594 0.264023
7309.09912 0.27043
7309.36084 0.277161
7309.62305 0.284204
7309.88477 0.291525
7310.14697 0.299076
7310.41016 0.306791
7310.67188 0.314609
7310.93408 0.322478
7311.19580 0.330373
7311.45801 0.338279
7311.72119 0.346183
7311.98193 0.35405
7312.24512 0.361841
7312.50684 0.36951
7312.76904 0.377018
7313.03076 0.384327
7313.29297 0.391388
7313.55615 0.398139
7313.81689 0.404516
7314.08008 0.410493
7314.34180 0.4161
7314.60400 0.421422
7314.86621 0.426565
7315.12793 0.431612
7315.39014 0.436589
7315.65186 0.441473
7315.91406 0.446229
7316.17578 0.45085
7316.43799 0.455372
7316.70020 0.459853
7316.96191 0.464349
7317.22510 0.468896
7317.48584 0.473502
7317.74902 0.478164
7318.00977 0.48287
7318.27197 0.487587
7318.53516 0.492245
7318.79590 0.496736
7319.05908 0.500947
7319.31982 0.5048
7319.58301 0.508273
7319.84424 0.511376
7320.10596 0.514122
7320.36816 0.516491
7320.62988 0.518446
7320.89209 0.519967
7321.15381 0.521103
7321.41602 0.521981
7321.67822 0.522784
7321.93994 0.523679
7322.20215 0.524762
7322.46387 0.526044
7322.72607 0.527461
7322.98779 0.52892
7323.25000 0.530329
7323.51123 0.531616
7323.77295 0.53274
7324.03516 0.533686
7324.29688 0.534471
7324.55908 0.535129
7324.82080 0.535709
7325.08301 0.53626
7325.34424 0.536797
7325.60596 0.537265
7325.86816 0.537521
7326.12988 0.537342
7326.39209 0.536484
7326.65381 0.534784
7326.91602 0.532244
7327.17676 0.529084
7327.43896 0.525685
7327.70117 0.522477
7327.96191 0.519789
7328.22412 0.517792
7328.48584 0.516496
7328.74805 0.515827
7329.00977 0.515667
7329.27100 0.515861
7329.53320 0.516222
7329.79492 0.516552
7330.05713 0.516697
7330.31787 0.516609
7330.58008 0.516346
7330.84180 0.516027
7331.10400 0.515756
7331.36523 0.515551
7331.62695 0.515338
7331.88916 0.514999
7332.14990 0.514427
7332.41211 0.513569
7332.67383 0.512413
7332.93604 0.510957
7333.19678 0.509174
7333.45801 0.507031
7333.72021 0.504508
7333.98193 0.501652
7334.24414 0.498596
7334.50488 0.495525
7334.76709 0.492651
7335.02783 0.490156
7335.29004 0.48814
7335.55176 0.486611
7335.81299 0.485462
7336.07520 0.48451
7336.33594 0.483527
7336.59814 0.482327
7336.85986 0.480786
7337.12109 0.478839
7337.38281 0.476435
7337.64502 0.473495
7337.90576 0.469906
7338.16699 0.465564
7338.42920 0.460445
7338.69092 0.454643
7338.95215 0.448361
7339.21387 0.441843
7339.47510 0.4353
7339.73682 0.428815
7339.99902 0.422351
7340.25977 0.415793
7340.52100 0.409029
7340.78320 0.402026
7341.04395 0.394856
7341.30615 0.387674
7341.56689 0.380665
7341.82910 0.373984
7342.08984 0.367723
7342.35205 0.361865
7342.61279 0.356298
7342.87500 0.350824
7343.13623 0.345215
7343.39697 0.339264
7343.65918 0.332851
7343.91992 0.325988
7344.18213 0.318827
7344.44287 0.311629
7344.70508 0.304679
7344.96582 0.2982
7345.22705 0.292284
7345.48877 0.28688
7345.75000 0.281822
7346.01123 0.276877
7346.27295 0.271819
7346.53418 0.266469
7346.79492 0.260723
7347.05713 0.254567
7347.31787 0.248063
7347.58008 0.241311
7347.84082 0.234423
7348.10205 0.227508
7348.36279 0.220659
7348.62500 0.213965
7348.88623 0.207504
7349.14697 0.201341
7349.40918 0.195527
7349.66992 0.190088
7349.93115 0.185023
7350.19189 0.180301
7350.45410 0.175864
7350.71484 0.171634
7350.97705 0.167531
7351.23779 0.163495
7351.49902 0.159499
7351.75977 0.155547
7352.02100 0.151666
7352.28320 0.14789
7352.54395 0.144242
7352.80518 0.140731
7353.06592 0.137337
7353.32812 0.134009
7353.58887 0.130662
7353.85010 0.127199
7354.11084 0.123541
7354.37207 0.119661
7354.63281 0.115604
7354.89502 0.111469
7355.15576 0.107378
7355.41699 0.10344
7355.67822 0.099724
7355.93896 0.096257
7356.20020 0.093035
7356.46094 0.090035
7356.72314 0.087232
7356.98389 0.084605
7357.24512 0.08214
7357.50586 0.079836
7357.76709 0.077695
7358.02783 0.075722
7358.28906 0.073914
7358.54980 0.072256
7358.81201 0.07073
7359.07324 0.069321
7359.33301 0.06802
7359.59521 0.066811
7359.85596 0.065659
7360.11719 0.064504
7360.37793 0.063266
7360.63916 0.061885
7360.89990 0.060341
7361.16113 0.05867
7361.42188 0.056942
7361.68311 0.055233
7361.94385 0.05359
7362.20508 0.052023
7362.46582 0.050508
7362.72705 0.049019
7362.98779 0.047541
7363.24902 0.046085
7363.50977 0.044684
7363.77100 0.043378
7364.03223 0.042204
7364.29297 0.041182
7364.55420 0.040309
7364.81396 0.039565
7365.07617 0.038912
7365.33594 0.038302
7365.59814 0.03769
7365.85791 0.037046
7366.11914 0.036359
7366.37988 0.035634
7366.64111 0.034881
7366.90186 0.0341
7367.16309 0.033276
7367.42383 0.032379
7367.68506 0.031388
7367.94482 0.030299
7368.20703 0.029146
7368.46680 0.027994
7368.72803 0.026922
7368.98877 0.026
7369.25000 0.025262
7369.51123 0.024698
7369.77100 0.024265
7370.03223 0.023909
7370.29297 0.023585
7370.55420 0.023269
7370.81494 0.022948
7371.07617 0.022616
7371.33594 0.022271
7371.59717 0.021916
7371.85791 0.021555
7372.11914 0.021187
7372.37891 0.020809
7372.64014 0.020412
7372.90088 0.019988
7373.16211 0.019536
7373.42188 0.019062
7373.68311 0.018577
7373.94385 0.018087
7374.20508 0.017591
7374.46484 0.017079
7374.72607 0.016539
7374.98682 0.015975
7375.24805 0.015402
7375.50781 0.014851
7375.76904 0.014356
7376.02979 0.013936
7376.29102 0.013593
7376.55078 0.013313
7376.81201 0.013071
7377.07178 0.012845
7377.33301 0.012623
7377.59424 0.012406
7377.85400 0.012203
7378.11523 0.012022
7378.37500 0.011865
7378.63623 0.011727
7378.89697 0.011596
7379.15723 0.011458
7379.41797 0.011306
7379.67920 0.011133
7379.93896 0.010935
7380.20020 0.01071
7380.45996 0.010461
7380.72119 0.0102
7380.98096 0.00995
7381.24219 0.009733
7381.50195 0.009563
7381.76318 0.009433
7382.02393 0.009314
7382.28418 0.009166
7382.54492 0.008963
7382.80518 0.008699
7383.06592 0.008399
7383.32715 0.0081
7383.58691 0.007836
7383.84814 0.007615
7384.10791 0.007423
7384.36914 0.007237
7384.62891 0.007045
7384.89014 0.006769
7385.14990 0.006706
7385.41016 0.006645
7385.67090 0.006583
7385.93115 0.006522
7386.19189 0.006461
7386.45215 0.006401
7386.71289 0.006341
7386.97314 0.006281
7387.23291 0.006221
7387.49414 0.006162
7387.75391 0.006104
7388.01514 0.006045
7388.27490 0.005987
7388.53613 0.005929
7388.79590 0.005872
7389.05615 0.005815
7389.31689 0.005758
7389.57715 0.005701
7389.83691 0.005645
7390.09814 0.00559
7390.35791 0.005534
7390.61914 0.005479
7390.87891 0.005424
7391.13916 0.00537
7391.39893 0.005316
7391.66016 0.005262
7391.91992 0.005209
7392.18115 0.005155
7392.44092 0.005103
7392.70117 0.00505
7392.96094 0.004998
7393.22217 0.004946
7393.48193 0.004895
7393.74219 0.004844
7394.00195 0.004793
7394.26318 0.004743
7394.52295 0.004693
7394.78320 0.004643
7395.04297 0.004593
7395.30420 0.004544
7395.56396 0.004496
7395.82422 0.004447
7396.08398 0.004399
7396.34521 0.004351
7396.60498 0.004304
7396.86523 0.004257
7397.12500 0.00421
7397.38623 0.004164
7397.64600 0.004118
7397.90576 0.004072
7398.16602 0.004027
8137.98242 0.0
