# %ECSV 0.9
# ---
# datatype:
# - {name: wavelength, unit: Angstrom, datatype: float32}
# - {name: response, datatype: float32}
# meta: !!omap
# - {band_name: f_630_10a}
# - {group_name: CAHA}
wavelength response
5564.23193 0.0
6182.47998 0.00406
6182.74023 0.004204
6183.00000 0.004146
6183.27002 0.004101
6183.52979 0.004177
6183.79004 0.004137
6184.04980 0.004103
6184.31006 0.004091
6184.56982 0.004228
6184.83008 0.004267
6185.08984 0.004322
6185.35010 0.004215
6185.60986 0.004365
6185.87012 0.004433
6186.12988 0.004446
6186.39990 0.004574
6186.66016 0.00449
6186.91992 0.004596
6187.18018 0.004469
6187.43994 0.004548
6187.70020 0.00463
6187.95996 0.004549
6188.22021 0.004711
6188.47998 0.004634
6188.74023 0.004789
6189.00000 0.004858
6189.25977 0.004764
6189.52002 0.004929
6189.79004 0.004934
6190.04980 0.004995
6190.31006 0.005008
6190.56982 0.00489
6190.83008 0.005045
6191.08984 0.004916
6191.35010 0.00518
6191.60986 0.005179
6191.87012 0.005191
6192.12988 0.005143
6192.39014 0.00536
6192.64990 0.005352
6192.91992 0.00539
6193.18018 0.00549
6193.43994 0.005406
6193.70020 0.005785
6193.95996 0.005615
6194.22021 0.005654
6194.47998 0.005697
6194.74023 0.005769
6195.00000 0.005837
6195.25977 0.005949
6195.52002 0.006014
6195.77979 0.005913
6196.04004 0.006023
6196.31006 0.006143
6196.56982 0.006352
6196.83008 0.006064
6197.08984 0.006466
6197.35010 0.006274
6197.60986 0.006303
6197.87012 0.00659
6198.12988 0.006624
6198.39014 0.006443
6198.64990 0.006627
6198.91016 0.006571
6199.16992 0.00671
6199.43994 0.006929
6199.70020 0.006909
6199.95996 0.006983
6200.22021 0.007005
6200.47998 0.007196
6200.74023 0.007189
6201.00000 0.007088
6201.25977 0.007577
6201.52002 0.00741
6201.77979 0.007509
6202.04004 0.007677
6202.29980 0.007654
6202.56006 0.007757
6202.83008 0.007851
6203.08984 0.007975
6203.35010 0.008037
6203.60986 0.007993
6203.87012 0.008332
6204.12988 0.008419
6204.39014 0.008353
6204.64990 0.008593
6204.91016 0.008596
6205.16992 0.008709
6205.43018 0.008819
6205.68994 0.008868
6205.95996 0.008793
6206.22021 0.009098
6206.47998 0.009355
6206.74023 0.009233
6207.00000 0.009461
6207.25977 0.009633
6207.52002 0.009823
6207.77979 0.009722
6208.04004 0.009893
6208.29980 0.01023
6208.56006 0.010231
6208.81982 0.010322
6209.08008 0.010401
6209.35010 0.010666
6209.60986 0.010952
6209.87012 0.010931
6210.12988 0.011046
6210.39014 0.011336
6210.64990 0.011209
6210.91016 0.011515
6211.16992 0.011825
6211.43018 0.011711
6211.68994 0.012086
6211.95020 0.012116
6212.20996 0.012292
6212.47998 0.012531
6212.74023 0.012631
6213.00000 0.012956
6213.25977 0.013019
6213.52002 0.013355
6213.77979 0.01331
6214.04004 0.013838
6214.29980 0.013804
6214.56006 0.01378
6214.81982 0.014253
6215.08008 0.014377
6215.33984 0.014485
6215.60010 0.015056
6215.87012 0.014725
6216.12988 0.015291
6216.39014 0.015298
6216.64990 0.015558
6216.91016 0.015969
6217.16992 0.016068
6217.43018 0.016221
6217.68994 0.01659
6217.95020 0.016827
6218.20996 0.017288
6218.47021 0.017369
6218.72998 0.017588
6219.00000 0.018115
6219.25977 0.018416
6219.52002 0.018683
6219.77979 0.018878
6220.04004 0.019492
6220.29980 0.019561
6220.56006 0.019818
6220.81982 0.020121
6221.08008 0.020483
6221.33984 0.020803
6221.60010 0.021097
6221.85986 0.021455
6222.12012 0.021568
6222.39014 0.022131
6222.64990 0.022722
6222.91016 0.023074
6223.16992 0.023466
6223.43018 0.023413
6223.68994 0.023924
6223.95020 0.024914
6224.20996 0.024959
6224.47021 0.025518
6224.72998 0.025524
6224.99023 0.026741
6225.25000 0.026998
6225.52002 0.02709
6225.77979 0.027623
6226.04004 0.028465
6226.29980 0.028961
6226.56006 0.029273
6226.81982 0.029795
6227.08008 0.030281
6227.33984 0.030971
6227.60010 0.031735
6227.85986 0.032062
6228.12012 0.032412
6228.37988 0.033382
6228.64014 0.033956
6228.91016 0.034527
6229.16992 0.035179
6229.43018 0.036035
6229.68994 0.03653
6229.95020 0.03769
6230.20996 0.038234
6230.47021 0.038325
6230.72998 0.039147
6230.99023 0.040301
6231.25000 0.041192
6231.50977 0.041676
6231.77002 0.042597
6232.04004 0.043853
6232.29980 0.044255
6232.56006 0.044959
6232.81982 0.04612
6233.08008 0.047123
6233.33984 0.04837
6233.60010 0.048873
6233.85986 0.049706
6234.12012 0.05103
6234.37988 0.052023
6234.64014 0.053276
6234.89990 0.054002
6235.16016 0.055079
6235.43018 0.05654
6235.68994 0.057691
6235.95020 0.059254
6236.20996 0.059869
6236.47021 0.060616
6236.72998 0.062393
6236.99023 0.064101
6237.25000 0.065006
6237.50977 0.066105
6237.77002 0.067836
6238.02979 0.069767
6238.29004 0.071116
6238.56006 0.071988
6238.81982 0.073374
6239.08008 0.075377
6239.33984 0.077617
6239.60010 0.078469
6239.85986 0.079603
6240.12012 0.082356
6240.37988 0.08367
6240.64014 0.085575
6240.89990 0.086659
6241.16016 0.088317
6241.41992 0.091247
6241.68018 0.093429
6241.95020 0.095385
6242.20996 0.096067
6242.47021 0.09872
6242.72998 0.10114
6242.99023 0.104209
6243.25000 0.10538
6243.50977 0.10703
6243.77002 0.109744
6244.02979 0.112868
6244.29004 0.115374
6244.54980 0.1167
6244.81006 0.11937
6245.08008 0.122189
6245.33984 0.124879
6245.60010 0.127968
6245.85986 0.129508
6246.12012 0.132836
6246.37988 0.136461
6246.64014 0.13827
6246.89990 0.140412
6247.16016 0.143142
6247.41992 0.147858
6247.68018 0.150896
6247.93994 0.153753
6248.20020 0.156765
6248.47021 0.159838
6248.72998 0.163462
6248.99023 0.166551
6249.25000 0.169825
6249.50977 0.172902
6249.77002 0.177017
6250.02979 0.181255
6250.29004 0.182991
6250.54980 0.185934
6250.81006 0.19104
6251.06982 0.195388
6251.33008 0.199482
6251.60010 0.201409
6251.85986 0.206393
6252.12012 0.210092
6252.37988 0.21529
6252.64014 0.218984
6252.89990 0.222444
6253.16016 0.225755
6253.41992 0.231664
6253.68018 0.235621
6253.93994 0.238949
6254.20020 0.241846
6254.45996 0.247086
6254.72021 0.252428
6254.99023 0.256571
6255.25000 0.259697
6255.50977 0.264252
6255.77002 0.268584
6256.02979 0.275081
6256.29004 0.277749
6256.54980 0.279837
6256.81006 0.286027
6257.06982 0.292097
6257.33008 0.294674
6257.58984 0.297805
6257.85010 0.303104
6258.12012 0.308435
6258.37988 0.311929
6258.64014 0.31731
6258.89990 0.32042
6259.16016 0.323905
6259.41992 0.329643
6259.68018 0.335087
6259.93994 0.337906
6260.20020 0.342748
6260.45996 0.347106
6260.72021 0.351481
6260.97998 0.35405
6261.24023 0.358028
6261.50977 0.362266
6261.77002 0.367118
6262.02979 0.371183
6262.29004 0.37441
6262.54980 0.377871
6262.81006 0.383116
6263.06982 0.386897
6263.33008 0.389412
6263.58984 0.392902
6263.85010 0.397858
6264.10986 0.400168
6264.37012 0.404332
6264.62988 0.407629
6264.89990 0.410319
6265.16016 0.414404
6265.41992 0.418119
6265.68018 0.420186
6265.93994 0.422957
6266.20020 0.425275
6266.45996 0.429289
6266.72021 0.433099
6266.97998 0.434319
6267.24023 0.435954
6267.50000 0.440505
6267.75977 0.44339
6268.02979 0.445155
6268.29004 0.447716
6268.54980 0.449713
6268.81006 0.452668
6269.06982 0.454201
6269.33008 0.456073
6269.58984 0.458511
6269.85010 0.460397
6270.10986 0.462979
6270.37012 0.465024
6270.62988 0.465306
6270.89014 0.468534
6271.14990 0.468888
6271.41992 0.471529
6271.68018 0.472491
6271.93994 0.474268
6272.20020 0.475992
6272.45996 0.476956
6272.72021 0.480054
6272.97998 0.478406
6273.24023 0.480545
6273.50000 0.484384
6273.75977 0.484323
6274.02002 0.48533
6274.27979 0.486991
6274.54980 0.485468
6274.81006 0.488433
6275.06982 0.48895
6275.33008 0.490408
6275.58984 0.489806
6275.85010 0.490665
6276.10986 0.492403
6276.37012 0.492803
6276.62988 0.492952
6276.89014 0.496052
6277.14990 0.493819
6277.41016 0.496244
6277.66992 0.497184
6277.93994 0.49684
6278.20020 0.497175
6278.45996 0.497236
6278.72021 0.498244
6278.97998 0.498032
6279.24023 0.499261
6279.50000 0.499568
6279.75977 0.499399
6280.02002 0.500368
6280.27979 0.500029
6280.54004 0.500538
6280.79980 0.502058
6281.06982 0.500826
6281.33008 0.501985
6281.58984 0.502675
6281.85010 0.502421
6282.10986 0.503656
6282.37012 0.503714
6282.62988 0.502689
6282.89014 0.50313
6283.14990 0.502868
6283.41016 0.50374
6283.66992 0.503673
6283.93018 0.503748
6284.18994 0.502767
6284.45996 0.504623
6284.72021 0.503166
6284.97998 0.504286
6285.24023 0.505072
6285.50000 0.506454
6285.75977 0.504254
6286.02002 0.505274
6286.27979 0.505752
6286.54004 0.505865
6286.79980 0.505548
6287.06006 0.506049
6287.31982 0.505253
6287.58984 0.50552
6287.85010 0.506786
6288.10986 0.507494
6288.37012 0.505409
6288.62988 0.507745
6288.89014 0.505746
6289.14990 0.506814
6289.41016 0.506644
6289.66992 0.507608
6289.93018 0.506621
6290.18994 0.507735
6290.45020 0.506998
6290.70996 0.506291
6290.97998 0.506414
6291.24023 0.507369
6291.50000 0.507264
6291.75977 0.507718
6292.02002 0.506458
6292.27979 0.506478
6292.54004 0.505624
6292.79980 0.508789
6293.06006 0.506511
6293.31982 0.508377
6293.58008 0.508084
6293.83984 0.508106
6294.10986 0.506848
6294.37012 0.506981
6294.62988 0.508672
6294.89014 0.506077
6295.14990 0.507484
6295.41016 0.506245
6295.66992 0.507619
6295.93018 0.50735
6296.18994 0.507495
6296.45020 0.508889
6296.70996 0.506357
6296.97021 0.506931
6297.22998 0.506078
6297.50000 0.508214
6297.75977 0.506137
6298.02002 0.50746
6298.27979 0.508384
6298.54004 0.507732
6298.79980 0.507172
6299.06006 0.508053
6299.31982 0.507466
6299.58008 0.506193
6299.83984 0.507682
6300.10010 0.507621
6300.35986 0.508126
6300.62988 0.508589
6300.89014 0.506956
6301.14990 0.505016
6301.41016 0.507352
6301.66992 0.505292
6301.93018 0.506074
6302.18994 0.505296
6302.45020 0.506566
6302.70996 0.506451
6302.97021 0.50848
6303.22998 0.506089
6303.49023 0.506086
6303.75000 0.506566
6304.02002 0.505296
6304.27979 0.50594
6304.54004 0.504847
6304.79980 0.5047
6305.06006 0.506973
6305.31982 0.506601
6305.58008 0.505724
6305.83984 0.505532
6306.10010 0.506009
6306.35986 0.505623
6306.62012 0.504626
6306.87988 0.504873
6307.14990 0.504004
6307.41016 0.505022
6307.66992 0.5053
6307.93018 0.503118
6308.18994 0.503223
6308.45020 0.501902
6308.70996 0.503624
6308.97021 0.503405
6309.22998 0.501674
6309.49023 0.502506
6309.75000 0.501469
6310.00977 0.501461
6310.27002 0.50366
6310.54004 0.50129
6310.79980 0.499902
6311.06006 0.502559
6311.31982 0.499761
6311.58008 0.502412
6311.83984 0.498276
6312.10010 0.500578
6312.35986 0.49996
6312.62012 0.500429
6312.87988 0.496824
6313.14014 0.498458
6313.39990 0.499036
6313.66992 0.496069
6313.93018 0.49721
6314.18994 0.497176
6314.45020 0.496849
6314.70996 0.496957
6314.97021 0.497667
6315.22998 0.495517
6315.49023 0.496023
6315.75000 0.494107
6316.00977 0.49553
6316.27002 0.493516
6316.52979 0.495215
6316.79004 0.495686
6317.06006 0.495247
6317.31982 0.494936
6317.58008 0.492986
6317.83984 0.492705
6318.10010 0.493385
6318.35986 0.493206
6318.62012 0.492283
6318.87988 0.491637
6319.14014 0.488943
6319.39990 0.491181
6319.66016 0.490849
6319.91992 0.490269
6320.18994 0.489933
6320.45020 0.490405
6320.70996 0.49006
6320.97021 0.488407
6321.22998 0.487671
6321.49023 0.487851
6321.75000 0.487639
6322.00977 0.490371
6322.27002 0.487918
6322.52979 0.486501
6322.79004 0.487628
6323.04980 0.486862
6323.31006 0.487974
6323.58008 0.488053
6323.83984 0.484407
6324.10010 0.485698
6324.35986 0.486231
6324.62012 0.486761
6324.87988 0.487576
6325.14014 0.485474
6325.39990 0.48499
6325.66016 0.484836
6325.91992 0.484931
6326.18018 0.48549
6326.43994 0.483925
6326.70996 0.484877
6326.97021 0.484564
6327.22998 0.484637
6327.49023 0.483657
6327.75000 0.483622
6328.00977 0.483686
6328.27002 0.484593
6328.52979 0.481727
6328.79004 0.483204
6329.04980 0.482662
6329.31006 0.484228
6329.56982 0.482576
6329.83008 0.483179
6330.10010 0.47987
6330.35986 0.481875
6330.62012 0.480791
6330.87988 0.481445
6331.14014 0.482369
6331.39990 0.480649
6331.66016 0.48016
6331.91992 0.481139
6332.18018 0.480939
6332.43994 0.481667
6332.70020 0.480486
6332.95996 0.480059
6333.22998 0.480889
6333.49023 0.479906
6333.75000 0.478104
6334.00977 0.479463
6334.27002 0.483248
6334.52979 0.480162
6334.79004 0.480345
6335.04980 0.478707
6335.31006 0.478746
6335.56982 0.479814
6335.83008 0.478978
6336.08984 0.477659
6336.35010 0.477573
6336.62012 0.477488
6336.87988 0.478657
6337.14014 0.478987
6337.39990 0.476812
6337.66016 0.476447
6337.91992 0.476709
6338.18018 0.476403
6338.43994 0.476449
6338.70020 0.472106
6338.95996 0.474027
6339.22021 0.472953
6339.47998 0.474535
6339.75000 0.471223
6340.00977 0.470019
6340.27002 0.470238
6340.52979 0.471607
6340.79004 0.470086
6341.04980 0.469324
6341.31006 0.468041
6341.56982 0.468013
6341.83008 0.466724
6342.08984 0.464831
6342.35010 0.462981
6342.60986 0.461026
6342.87988 0.46182
6343.14014 0.461562
6343.39990 0.459373
6343.66016 0.456402
6343.91992 0.455893
6344.18018 0.455821
6344.43994 0.45464
6344.70020 0.450957
6344.95996 0.448546
6345.22021 0.449246
6345.47998 0.448506
6345.74023 0.446182
6346.00000 0.44287
6346.27002 0.44011
6346.52979 0.438517
6346.79004 0.437999
6347.04980 0.436106
6347.31006 0.431565
6347.56982 0.428587
6347.83008 0.429396
6348.08984 0.427556
6348.35010 0.423581
6348.60986 0.41995
6348.87012 0.417973
6349.12988 0.416517
6349.39990 0.415763
6349.66016 0.411254
6349.91992 0.404863
6350.18018 0.405425
6350.43994 0.404654
6350.70020 0.400974
6350.95996 0.394703
6351.22021 0.391223
6351.47998 0.390035
6351.74023 0.387227
6352.00000 0.384028
6352.25977 0.378994
6352.52002 0.374687
6352.79004 0.373846
6353.04980 0.370691
6353.31006 0.366224
6353.56982 0.36095
6353.83008 0.358177
6354.08984 0.356056
6354.35010 0.352525
6354.60986 0.348224
6354.87012 0.34131
6355.12988 0.340723
6355.39014 0.336638
6355.64990 0.332932
6355.91992 0.326494
6356.18018 0.321495
6356.43994 0.319968
6356.70020 0.317829
6356.95996 0.312919
6357.22021 0.305948
6357.47998 0.302767
6357.74023 0.301077
6358.00000 0.295783
6358.25977 0.291208
6358.52002 0.28507
6358.77979 0.282929
6359.04004 0.279952
6359.31006 0.275093
6359.56982 0.270223
6359.83008 0.265357
6360.08984 0.262868
6360.35010 0.260304
6360.60986 0.2545
6360.87012 0.249466
6361.12988 0.245474
6361.39014 0.244269
6361.64990 0.239713
6361.91016 0.233018
6362.16992 0.229663
6362.43994 0.226009
6362.70020 0.223132
6362.95996 0.219723
6363.22021 0.213697
6363.47998 0.210117
6363.74023 0.206926
6364.00000 0.203995
6364.25977 0.200158
6364.52002 0.195083
6364.77979 0.190368
6365.04004 0.188637
6365.29980 0.185697
6365.56006 0.180748
6365.83008 0.177243
6366.08984 0.173592
6366.35010 0.170812
6366.60986 0.169177
6366.87012 0.164698
6367.12988 0.160449
6367.39014 0.157188
6367.64990 0.155484
6367.91016 0.151805
6368.16992 0.147663
6368.43018 0.14409
6368.68994 0.142534
6368.95996 0.140616
6369.22021 0.137745
6369.47998 0.133011
6369.74023 0.131337
6370.00000 0.129314
6370.25977 0.12708
6370.52002 0.123431
6370.77979 0.119927
6371.04004 0.117328
6371.29980 0.116659
6371.56006 0.114279
6371.81982 0.110608
6372.08008 0.108085
6372.35010 0.106031
6372.60986 0.104411
6372.87012 0.102507
6373.12988 0.099249
6373.39014 0.097015
6373.64990 0.096186
6373.91016 0.094349
6374.16992 0.092378
6374.43018 0.089044
6374.68994 0.08766
6374.95020 0.085841
6375.20996 0.085719
6375.47998 0.082874
6375.74023 0.080816
6376.00000 0.078729
6376.25977 0.078026
6376.52002 0.0767
6376.77979 0.074549
6377.04004 0.07211
6377.29980 0.071086
6377.56006 0.06994
6377.81982 0.068881
6378.08008 0.066823
6378.33984 0.065183
6378.60010 0.063961
6378.87012 0.063121
6379.12988 0.061736
6379.39014 0.059783
6379.64990 0.058948
6379.91016 0.057821
6380.16992 0.056908
6380.43018 0.055584
6380.68994 0.054286
6380.95020 0.052986
6381.20996 0.052885
6381.47021 0.05164
6381.72998 0.049937
6382.00000 0.049154
6382.25977 0.048747
6382.52002 0.048044
6382.77979 0.046763
6383.04004 0.04578
6383.29980 0.044548
6383.56006 0.044059
6383.81982 0.04322
6384.08008 0.042775
6384.33984 0.041299
6384.60010 0.040445
6384.85986 0.040016
6385.12012 0.039857
6385.39014 0.038213
6385.64990 0.037087
6385.91016 0.036736
6386.16992 0.03677
6386.43018 0.035757
6386.68994 0.034708
6386.95020 0.03403
6387.20996 0.033316
6387.47021 0.03342
6387.72998 0.032536
6387.99023 0.031915
6388.25000 0.030974
6388.52002 0.030845
6388.77979 0.030807
6389.04004 0.029663
6389.29980 0.028626
6389.56006 0.028544
6389.81982 0.027994
6390.08008 0.027655
6390.33984 0.027008
6390.60010 0.026668
6390.85986 0.026133
6391.12012 0.025722
6391.37988 0.025774
6391.64014 0.024684
6391.91016 0.024345
6392.16992 0.023938
6392.43018 0.02376
6392.68994 0.023468
6392.95020 0.023078
6393.20996 0.022081
6393.47021 0.021869
6393.72998 0.021863
6393.99023 0.021632
6394.25000 0.020846
6394.50977 0.021046
6394.77002 0.020584
6395.04004 0.020233
6395.29980 0.019862
6395.56006 0.019269
6395.81982 0.019203
6396.08008 0.019042
6396.33984 0.018555
6396.60010 0.018434
6396.85986 0.017941
6397.12012 0.017877
6397.37988 0.017478
6397.64014 0.017463
6397.89990 0.017077
6398.16016 0.0166
6398.43018 0.016238
6398.68994 0.016093
6398.95020 0.016025
6399.20996 0.015699
6399.47021 0.015413
6399.72998 0.015115
6399.99023 0.01524
6400.25000 0.014757
6400.50977 0.014623
6400.77002 0.014179
6401.02979 0.014388
6401.29004 0.014225
6401.56006 0.013887
6401.81982 0.01352
6402.08008 0.013151
6402.33984 0.013354
6402.60010 0.013431
6402.85986 0.013173
6403.12012 0.012751
6403.37988 0.012461
6403.64014 0.012507
6403.89990 0.012198
6404.16016 0.012084
6404.41992 0.011794
6404.68018 0.011848
6404.95020 0.011881
6405.20996 0.011585
6405.47021 0.011135
6405.72998 0.010979
6405.99023 0.011063
6406.25000 0.011002
6406.50977 0.010927
6406.77002 0.010562
6407.02979 0.010513
6407.29004 0.010323
6407.54980 0.010132
6407.81006 0.010238
6408.08008 0.009806
6408.33984 0.009636
6408.60010 0.009745
6408.85986 0.009519
6409.12012 0.009422
6409.37988 0.009546
6409.64014 0.00921
6409.89990 0.00925
6410.16016 0.008982
6410.41992 0.009011
6410.68018 0.008969
6410.93994 0.008652
6411.20020 0.008677
6411.47021 0.008584
6411.72998 0.008566
6411.99023 0.008271
6412.25000 0.008281
6412.50977 0.008302
6412.77002 0.008095
6413.02979 0.007759
6413.29004 0.007872
6413.54980 0.007922
6413.81006 0.007883
6414.06982 0.007574
6414.33008 0.007626
6414.60010 0.007674
6414.85986 0.007444
6415.12012 0.007543
6415.37988 0.007453
6415.64014 0.007445
6415.89990 0.007154
6416.16016 0.007323
6416.41992 0.007096
6416.68018 0.006972
6416.93994 0.006955
6417.20020 0.006745
6417.45996 0.006726
6417.72021 0.006729
6417.99023 0.006563
6418.25000 0.006671
6418.50977 0.006611
6418.77002 0.006375
6419.02979 0.006432
6419.29004 0.006285
6419.54980 0.006085
6419.81006 0.006245
6420.06982 0.006171
6420.33008 0.006055
6420.58984 0.006095
6420.85010 0.006059
6421.12012 0.00598
6421.37988 0.005998
6421.64014 0.005881
6421.89990 0.005771
6422.16016 0.005719
6422.41992 0.005782
6422.68018 0.005763
6422.93994 0.005754
6423.20020 0.005517
6423.45996 0.005467
6423.72021 0.00535
6423.97998 0.005451
6424.24023 0.005334
6424.50977 0.005535
6424.77002 0.005242
6425.02979 0.005292
6425.29004 0.005321
6425.54980 0.005126
6425.81006 0.005139
6426.06982 0.0052
6426.33008 0.005053
6426.58984 0.005122
6426.85010 0.004844
6427.10986 0.004861
6427.37012 0.004861
6427.62988 0.004859
6427.89990 0.004901
6428.16016 0.004641
6428.41992 0.004841
6428.68018 0.004732
6428.93994 0.00467
6429.20020 0.004823
6429.45996 0.004564
6429.72021 0.004541
6429.97998 0.00449
6430.24023 0.004597
6430.50000 0.004496
6430.75977 0.004449
6431.02979 0.004394
6431.29004 0.004469
6431.54980 0.004439
6431.81006 0.004293
6432.06982 0.00439
6432.33008 0.004172
6432.58984 0.004209
6432.85010 0.004409
6433.10986 0.004319
6433.37012 0.004145
6433.62988 0.004202
6433.89014 0.00405
7077.27930 0.0
