# %ECSV 0.9
# ---
# datatype:
# - {name: wavelength, unit: Angstrom, datatype: float32}
# - {name: response, datatype: float32}
# meta: !!omap
# - {band_name: f_453_9}
# - {group_name: CAHA}
wavelength response
3957.35400 0.0
4397.06006 0.004261
4397.31982 0.003076
4397.58008 0.001825
4397.83984 0.001379
4398.10010 0.001039
4398.35986 0.002516
4398.62012 0.002245
4398.87988 0.002222
4399.14014 0.004014
4399.39990 0.003247
4399.66016 0.002878
4399.91992 0.002399
4400.18018 0.001803
4400.43994 0.001979
4400.70020 0.003577
4400.95996 0.00093
4401.22021 0.002514
4401.47998 0.000579
4401.74023 0.002519
4402.00000 0.002014
4402.25977 0.003262
4402.52002 0.00199
4402.77979 0.002373
4403.04004 0.001474
4403.29980 0.003398
4403.56006 0.004762
4403.81982 0.003723
4404.08008 0.001483
4404.33984 0.005204
4404.60010 0.002875
4404.85986 0.00498
4405.12012 0.002207
4405.37988 0.001639
4405.64014 0.002432
4405.89990 0.001701
4406.16016 0.002376
4406.41992 0.001783
4406.68018 0.001121
4406.93994 0.001396
4407.20020 0.004416
4407.45996 0.004669
4407.72021 0.003358
4407.97998 0.003689
4408.24023 0.002327
4408.50000 0.000731
4408.75977 0.003719
4409.02002 0.002165
4409.27979 0.003194
4409.54004 0.004654
4409.79004 0.003136
4410.06006 0.003674
4410.31006 0.003147
4410.56982 0.003085
4410.83008 0.004254
4411.08984 0.00525
4411.35010 0.003885
4411.60986 0.001876
4411.87012 0.003995
4412.12988 0.003662
4412.39014 0.005024
4412.64990 0.003622
4412.91016 0.003325
4413.16992 0.00372
4413.43018 0.005415
4413.68994 0.003315
4413.95020 0.00413
4414.20996 0.004202
4414.47021 0.004454
4414.72998 0.003836
4414.99023 0.003326
4415.25000 0.005955
4415.50977 0.005345
4415.77002 0.005219
4416.02979 0.003225
4416.29004 0.005146
4416.54980 0.003741
4416.81006 0.004948
4417.06982 0.005133
4417.33008 0.003442
4417.58984 0.005102
4417.85010 0.003978
4418.10986 0.005482
4418.37012 0.004803
4418.62988 0.005203
4418.89014 0.005249
4419.14990 0.004849
4419.41016 0.003854
4419.66992 0.002981
4419.93018 0.005034
4420.18994 0.004531
4420.45020 0.004997
4420.70996 0.003426
4420.97021 0.004861
4421.22998 0.006633
4421.49023 0.00453
4421.75000 0.005384
4422.00977 0.006025
4422.27002 0.00367
4422.52979 0.005084
4422.79004 0.006648
4423.04980 0.005066
4423.31006 0.008011
4423.56982 0.004861
4423.83008 0.00652
4424.08984 0.005802
4424.35010 0.005926
4424.60986 0.00628
4424.87012 0.007732
4425.12988 0.005848
4425.39014 0.005767
4425.64990 0.00729
4425.91016 0.007027
4426.16992 0.005823
4426.43018 0.007304
4426.68994 0.008091
4426.95020 0.006872
4427.20996 0.006069
4427.47021 0.006801
4427.72998 0.007252
4427.99023 0.006273
4428.25000 0.007754
4428.50977 0.006684
4428.77002 0.006046
4429.02979 0.006168
4429.29004 0.006749
4429.54980 0.00722
4429.81006 0.00827
4430.06982 0.007951
4430.33008 0.007663
4430.58984 0.007139
4430.85010 0.007951
4431.10986 0.007854
4431.37012 0.008245
4431.62988 0.008019
4431.89014 0.007108
4432.14990 0.007746
4432.41016 0.008808
4432.66992 0.007669
4432.93018 0.006992
4433.18994 0.009259
4433.45020 0.007628
4433.70996 0.007503
4433.97021 0.007288
4434.22998 0.010104
4434.49023 0.009227
4434.75000 0.008732
4435.00977 0.009606
4435.27002 0.009082
4435.52979 0.009182
4435.79004 0.011417
4436.04004 0.009668
4436.29980 0.008378
4436.56006 0.009299
4436.81982 0.009299
4437.08008 0.009834
4437.33984 0.008394
4437.60010 0.009997
4437.85986 0.011784
4438.12012 0.009008
4438.37988 0.010444
4438.64014 0.01207
4438.89990 0.011157
4439.16016 0.012522
4439.41992 0.011248
4439.68018 0.011559
4439.93994 0.0115
4440.20020 0.012997
4440.45996 0.011637
4440.72021 0.012686
4440.97998 0.011489
4441.24023 0.013244
4441.50000 0.012974
4441.75977 0.011077
4442.02002 0.01361
4442.27979 0.014913
4442.54004 0.012394
4442.79980 0.013153
4443.06006 0.012303
4443.31982 0.013534
4443.58008 0.014299
4443.83984 0.015177
4444.10010 0.014685
4444.35986 0.015175
4444.62012 0.013927
4444.87988 0.015506
4445.14014 0.015884
4445.39990 0.017797
4445.66016 0.016112
4445.91992 0.016366
4446.18018 0.015593
4446.43994 0.016645
4446.70020 0.01727
4446.95996 0.016368
4447.22021 0.017182
4447.47998 0.017554
4447.74023 0.019332
4448.00000 0.015825
4448.25977 0.018544
4448.52002 0.018437
4448.77979 0.018381
4449.04004 0.018537
4449.29980 0.018632
4449.56006 0.019352
4449.81982 0.021705
4450.08008 0.020988
4450.33984 0.02064
4450.60010 0.019278
4450.85986 0.020962
4451.12012 0.022026
4451.37988 0.022435
4451.64014 0.023588
4451.89990 0.025044
4452.16016 0.024305
4452.41992 0.022818
4452.68018 0.023391
4452.93994 0.025674
4453.20020 0.024472
4453.45996 0.025033
4453.72021 0.026432
4453.97998 0.027566
4454.24023 0.026032
4454.50000 0.028192
4454.75977 0.027149
4455.02002 0.029964
4455.27979 0.031064
4455.54004 0.031833
4455.79980 0.030077
4456.06006 0.033178
4456.31982 0.031809
4456.58008 0.031784
4456.83984 0.03453
4457.10010 0.034382
4457.35986 0.03402
4457.62012 0.036755
4457.87988 0.036219
4458.14014 0.036442
4458.39990 0.036322
4458.66016 0.037533
4458.91992 0.03868
4459.18018 0.041801
4459.43994 0.038878
4459.70020 0.04088
4459.95996 0.041741
4460.22021 0.040853
4460.47998 0.042307
4460.74023 0.043356
4461.00000 0.04712
4461.25977 0.046124
4461.52002 0.048382
4461.77002 0.047896
4462.04004 0.048236
4462.29004 0.051901
4462.54980 0.052248
4462.81006 0.055952
4463.06982 0.055117
4463.33008 0.054186
4463.58984 0.058288
4463.85010 0.0569
4464.10986 0.058634
4464.37012 0.060926
4464.62988 0.062954
4464.89014 0.062483
4465.14990 0.063852
4465.41016 0.068397
4465.66992 0.06952
4465.93018 0.067621
4466.18994 0.071307
4466.45020 0.069551
4466.70996 0.07431
4466.97021 0.07619
4467.22998 0.07813
4467.49023 0.078686
4467.75000 0.083849
4468.00977 0.083006
4468.27002 0.086003
4468.52979 0.090683
4468.79004 0.090476
4469.04980 0.091591
4469.31006 0.094724
4469.56982 0.095374
4469.83008 0.098278
4470.08984 0.10245
4470.35010 0.100106
4470.60986 0.10421
4470.87012 0.108038
4471.12988 0.111219
4471.39014 0.115728
4471.64990 0.118431
4471.91016 0.121124
4472.16992 0.120276
4472.43018 0.124463
4472.68994 0.125835
4472.95020 0.129957
4473.20996 0.137744
4473.47021 0.140592
4473.72998 0.138273
4473.99023 0.14546
4474.25000 0.147381
4474.50977 0.150712
4474.77002 0.151951
4475.02979 0.154862
4475.29004 0.160869
4475.54980 0.163283
4475.81006 0.168906
4476.06982 0.173168
4476.33008 0.179797
4476.58984 0.178723
4476.85010 0.185393
4477.10986 0.193976
4477.37012 0.19679
4477.62988 0.198717
4477.89014 0.206006
4478.14990 0.208473
4478.41016 0.21685
4478.66992 0.217316
4478.93018 0.224576
4479.18994 0.234075
4479.45020 0.233281
4479.70996 0.239813
4479.97021 0.219966
4480.22998 0.254755
4480.49023 0.261536
4480.75000 0.260569
4481.00977 0.272847
4481.27002 0.274567
4481.52979 0.277096
4481.79004 0.285133
4482.04980 0.293184
4482.31006 0.298602
4482.56982 0.30187
4482.83008 0.307474
4483.08984 0.322494
4483.35010 0.317799
4483.60986 0.326273
4483.87012 0.3386
4484.12988 0.342728
4484.39014 0.348662
4484.64990 0.353229
4484.91016 0.360296
4485.16992 0.371607
4485.43018 0.372047
4485.68994 0.378182
4485.95020 0.387394
4486.20996 0.393305
4486.47021 0.399478
4486.72998 0.403519
4486.99023 0.401872
4487.25000 0.417908
4487.50977 0.43015
4487.77002 0.429354
4488.02002 0.435327
4488.27979 0.445961
4488.54004 0.449725
4488.79980 0.451986
4489.06006 0.465243
4489.31982 0.469289
4489.58008 0.472187
4489.83984 0.477611
4490.10010 0.482683
4490.35986 0.485976
4490.62012 0.500927
4490.87988 0.493664
4491.14014 0.50255
4491.39990 0.522558
4491.66016 0.508519
4491.91992 0.51453
4492.18018 0.520459
4492.43994 0.523491
4492.70020 0.527986
4492.95996 0.535901
4493.22021 0.538911
4493.47998 0.537809
4493.74023 0.558193
4494.00000 0.545232
4494.25977 0.563843
4494.52002 0.559466
4494.77979 0.561158
4495.04004 0.575813
4495.29980 0.561929
4495.56006 0.575263
4495.81982 0.574227
4496.08008 0.578207
4496.33984 0.592761
4496.60010 0.584575
4496.85986 0.591828
4497.12012 0.581425
4497.37988 0.594334
4497.64014 0.589617
4497.89990 0.595789
4498.16016 0.594256
4498.41992 0.600645
4498.68018 0.604488
4498.93994 0.601252
4499.20020 0.619358
4499.45996 0.601377
4499.72021 0.609409
4499.97998 0.604551
4500.24023 0.614877
4500.50000 0.615131
4500.75977 0.616021
4501.02002 0.616548
4501.27979 0.615353
4501.54004 0.623737
4501.79980 0.628891
4502.06006 0.621327
4502.31982 0.626603
4502.58008 0.632764
4502.83984 0.629296
4503.10010 0.616706
4503.35986 0.632021
4503.62012 0.635169
4503.87988 0.63162
4504.14014 0.635604
4504.39990 0.630743
4504.66016 0.635313
4504.91992 0.631859
4505.18018 0.634132
4505.43994 0.637446
4505.70020 0.6403
4505.95996 0.634451
4506.22021 0.636597
4506.47998 0.628636
4506.74023 0.635101
4507.00000 0.639853
4507.25977 0.640568
4507.52002 0.644794
4507.77979 0.640996
4508.04004 0.644453
4508.29980 0.643022
4508.56006 0.636615
4508.81982 0.635738
4509.08008 0.64572
4509.33984 0.646908
4509.60010 0.647892
4509.85986 0.651756
4510.12012 0.652773
4510.37988 0.652667
4510.64014 0.654213
4510.89990 0.653332
4511.16016 0.649819
4511.41992 0.658988
4511.68018 0.652184
4511.93994 0.650879
4512.20020 0.654508
4512.45996 0.661122
4512.72021 0.661579
4512.97998 0.645622
4513.24023 0.652892
4513.50000 0.653058
4513.75000 0.660421
4514.02002 0.651541
4514.27002 0.656003
4514.52979 0.65335
4514.79004 0.654092
4515.04980 0.655466
4515.31006 0.659184
4515.56982 0.664024
4515.83008 0.654204
4516.08984 0.657415
4516.35010 0.666049
4516.60986 0.667195
4516.87012 0.661025
4517.12988 0.664542
4517.39014 0.654364
4517.64990 0.660473
4517.91016 0.661998
4518.16992 0.660681
4518.43018 0.659643
4518.68994 0.663874
4518.95020 0.668395
4519.20996 0.665461
4519.47021 0.665347
4519.72998 0.67101
4519.99023 0.667259
4520.25000 0.670105
4520.50977 0.667646
4520.77002 0.662632
4521.02979 0.665524
4521.29004 0.667928
4521.54980 0.66912
4521.81006 0.667181
4522.06982 0.667966
4522.33008 0.667389
4522.58984 0.666793
4522.85010 0.661865
4523.10986 0.673065
4523.37012 0.662127
4523.62988 0.666306
4523.89014 0.666465
4524.14990 0.66696
4524.41016 0.662702
4524.66992 0.669807
4524.93018 0.662792
4525.18994 0.659869
4525.45020 0.658781
4525.70996 0.659768
4525.97021 0.674612
4526.22998 0.670063
4526.49023 0.670399
4526.75000 0.671125
4527.00977 0.669919
4527.27002 0.665245
4527.52979 0.668207
4527.79004 0.661289
4528.04980 0.665153
4528.31006 0.677303
4528.56982 0.664451
4528.83008 0.669937
4529.08984 0.6602
4529.35010 0.664196
4529.60986 0.662062
4529.87012 0.664415
4530.12988 0.661508
4530.39014 0.6677
4530.64990 0.666953
4530.91016 0.670031
4531.16992 0.666843
4531.43018 0.661315
4531.68994 0.662622
4531.95020 0.67024
4532.20996 0.658853
4532.47021 0.661613
4532.72998 0.665744
4532.99023 0.66064
4533.25000 0.665906
4533.50977 0.664144
4533.77002 0.657956
4534.02979 0.661564
4534.29004 0.650248
4534.54980 0.657661
4534.81006 0.659552
4535.06982 0.66644
4535.33008 0.659389
4535.58984 0.662613
4535.85010 0.659839
4536.10986 0.657131
4536.37012 0.658744
4536.62988 0.666589
4536.89014 0.661225
4537.14990 0.658943
4537.41016 0.655512
4537.66992 0.659758
4537.93018 0.649049
4538.18994 0.649216
4538.45020 0.657096
4538.70996 0.66307
4538.97021 0.647745
4539.22998 0.65199
4539.49023 0.656577
4539.75000 0.650419
4540.00000 0.648527
4540.27002 0.651426
4540.52002 0.649899
4540.77979 0.652471
4541.04004 0.649931
4541.29980 0.647426
4541.56006 0.653233
4541.81982 0.651355
4542.08008 0.655079
4542.33984 0.652156
4542.60010 0.647013
4542.85986 0.653184
4543.12012 0.653094
4543.37988 0.650287
4543.64014 0.651356
4543.89990 0.6512
4544.16016 0.653508
4544.41992 0.651429
4544.68018 0.660014
4544.93994 0.643201
4545.20020 0.654619
4545.45996 0.644722
4545.72021 0.652873
4545.97998 0.645143
4546.24023 0.650683
4546.50000 0.652361
4546.75977 0.649859
4547.02002 0.655564
4547.27979 0.652028
4547.54004 0.652517
4547.79980 0.644917
4548.06006 0.656907
4548.31982 0.651152
4548.58008 0.658772
4548.83984 0.660692
4549.10010 0.661915
4549.35986 0.653264
4549.62012 0.650587
4549.87988 0.661031
4550.14014 0.668098
4550.39990 0.658542
4550.66016 0.656249
4550.91992 0.667447
4551.18018 0.662946
4551.43994 0.657609
4551.70020 0.668163
4551.95996 0.661415
4552.22021 0.65777
4552.47998 0.667546
4552.74023 0.66293
4553.00000 0.670664
4553.25977 0.665659
4553.52002 0.662396
4553.77979 0.661339
4554.04004 0.66461
4554.29980 0.671548
4554.56006 0.663635
4554.81982 0.667649
4555.08008 0.679372
4555.33984 0.675876
4555.60010 0.672279
4555.85986 0.659994
4556.12012 0.673982
4556.37988 0.667652
4556.64014 0.674159
4556.89990 0.663954
4557.16016 0.67089
4557.41992 0.676014
4557.68018 0.670488
4557.93994 0.666967
4558.20020 0.683328
4558.45996 0.673651
4558.72021 0.669404
4558.97998 0.667606
4559.24023 0.666337
4559.50000 0.66938
4559.75977 0.670116
4560.02002 0.682935
4560.27979 0.659363
4560.54004 0.668487
4560.79980 0.663255
4561.06006 0.666928
4561.31982 0.668359
4561.58008 0.660136
4561.83984 0.659199
4562.10010 0.656068
4562.35986 0.658441
4562.62012 0.652193
4562.87988 0.649927
4563.14014 0.648511
4563.39990 0.640838
4563.66016 0.646314
4563.91992 0.644575
4564.18018 0.631699
4564.43994 0.638396
4564.70020 0.629529
4564.95996 0.626031
4565.22021 0.626199
4565.47998 0.634697
4565.72998 0.61245
4566.00000 0.609413
4566.25000 0.614359
4566.50977 0.595013
4566.77002 0.593554
4567.02979 0.594135
4567.29004 0.587938
4567.54980 0.583123
4567.81006 0.575954
4568.06982 0.572195
4568.33008 0.561499
4568.58984 0.559425
4568.85010 0.552841
4569.10986 0.552019
4569.37012 0.531783
4569.62988 0.529767
4569.89014 0.522138
4570.14990 0.521267
4570.41016 0.510429
4570.66992 0.499908
4570.93018 0.496889
4571.18994 0.484447
4571.45020 0.478941
4571.70996 0.47694
4571.97021 0.455087
4572.22998 0.464987
4572.49023 0.450344
4572.75000 0.439858
4573.00977 0.431235
4573.27002 0.425678
4573.52979 0.421437
4573.79004 0.415978
4574.04980 0.405289
4574.31006 0.394459
4574.56982 0.389359
4574.83008 0.384032
4575.08984 0.373556
4575.35010 0.364884
4575.60986 0.353582
4575.87012 0.358264
4576.12988 0.342268
4576.39014 0.336817
4576.64990 0.32766
4576.91016 0.319387
4577.16992 0.31806
4577.43018 0.3024
4577.68994 0.312043
4577.95020 0.294881
4578.20996 0.285185
4578.47021 0.28442
4578.72998 0.276446
4578.99023 0.269756
4579.25000 0.263599
4579.50977 0.25665
4579.77002 0.252441
4580.02979 0.245689
4580.29004 0.240938
4580.54980 0.233578
4580.81006 0.231221
4581.06982 0.222086
4581.33008 0.216374
4581.58984 0.214387
4581.85010 0.20678
4582.10986 0.201136
4582.37012 0.196611
4582.62988 0.190838
4582.89014 0.189294
4583.14990 0.181211
4583.41016 0.176746
4583.66992 0.176955
4583.93018 0.166681
4584.18994 0.165214
4584.45020 0.1637
4584.70996 0.158175
4584.97021 0.153284
4585.22998 0.148613
4585.49023 0.145311
4585.75000 0.14472
4586.00977 0.136799
4586.27002 0.136129
4586.52979 0.13404
4586.79004 0.129825
4587.04980 0.127732
4587.31006 0.126071
4587.56982 0.122177
4587.83008 0.119824
4588.08984 0.114205
4588.35010 0.111963
4588.60986 0.108982
4588.87012 0.108038
4589.12988 0.104893
4589.39014 0.100303
4589.64990 0.099634
4589.91016 0.096455
4590.16992 0.092826
4590.43018 0.094492
4590.68994 0.090775
4590.95020 0.089397
4591.20996 0.086154
4591.47021 0.082115
4591.72998 0.083517
4591.97998 0.081868
4592.25000 0.082412
4592.50000 0.077772
4592.75977 0.072015
4593.02002 0.072572
4593.27979 0.072556
4593.54004 0.070049
4593.79980 0.068534
4594.06006 0.068716
4594.31982 0.065397
4594.58008 0.063418
4594.83984 0.062108
4595.10010 0.062382
4595.35986 0.061119
4595.62012 0.058137
4595.87988 0.056319
4596.14014 0.058007
4596.39990 0.054106
4596.66016 0.056294
4596.91992 0.053711
4597.18018 0.052587
4597.43994 0.050326
4597.70020 0.047657
4597.95996 0.04856
4598.22021 0.046807
4598.47998 0.048939
4598.74023 0.045529
4599.00000 0.046
4599.25977 0.044221
4599.52002 0.042125
4599.77979 0.043854
4600.04004 0.040772
4600.29980 0.041975
4600.56006 0.039001
4600.81982 0.039415
4601.08008 0.037577
4601.33984 0.036552
4601.60010 0.03448
4601.85986 0.035218
4602.12012 0.035482
4602.37988 0.035142
4602.64014 0.033446
4602.89990 0.03449
4603.16016 0.033316
4603.41992 0.033178
4603.68018 0.031103
4603.93994 0.029081
4604.20020 0.029715
4604.45996 0.030704
4604.72021 0.028009
4604.97998 0.027274
4605.24023 0.027181
4605.50000 0.027672
4605.75977 0.027444
4606.02002 0.026124
4606.27979 0.027093
4606.54004 0.024927
4606.79980 0.02466
4607.06006 0.025199
4607.31982 0.025279
4607.58008 0.023454
4607.83984 0.024271
4608.10010 0.023223
4608.35986 0.023144
4608.62012 0.021616
4608.87988 0.021412
4609.14014 0.020806
4609.39990 0.020995
4609.66016 0.021914
4609.91992 0.019735
4610.18018 0.019721
4610.43994 0.020198
4610.70020 0.020074
4610.95996 0.019935
4611.22021 0.020213
4611.47998 0.018967
4611.74023 0.018218
4612.00000 0.017691
4612.25977 0.016384
4612.52002 0.017047
4612.77979 0.017733
4613.04004 0.016191
4613.29980 0.016086
4613.56006 0.015868
4613.81982 0.016484
4614.08008 0.016342
4614.33984 0.016838
4614.60010 0.016062
4614.85986 0.016079
4615.12012 0.015113
4615.37988 0.014982
4615.64014 0.014518
4615.89990 0.014255
4616.16016 0.015469
4616.41992 0.01336
4616.68018 0.014216
4616.93994 0.013422
4617.20020 0.01461
4617.45996 0.012519
4617.72021 0.01267
4617.97998 0.011999
4618.22998 0.012528
4618.49023 0.0119
4618.75000 0.011936
4619.00977 0.012056
4619.27002 0.012313
4619.52979 0.012713
4619.79004 0.011439
4620.04980 0.011054
4620.31006 0.010643
4620.56982 0.01089
4620.83008 0.011653
4621.08984 0.011632
4621.35010 0.011249
4621.60986 0.010664
4621.87012 0.010887
4622.12988 0.010007
4622.39014 0.010384
4622.64990 0.009528
4622.91016 0.009609
4623.16992 0.008987
4623.43018 0.009242
4623.68994 0.009497
4623.95020 0.009139
4624.20996 0.008795
4624.47021 0.008309
4624.72998 0.008064
4624.99023 0.008812
4625.25000 0.007496
4625.50977 0.009067
4625.77002 0.008126
4626.02979 0.007702
4626.29004 0.00873
4626.54980 0.007253
4626.81006 0.007856
4627.06982 0.008176
4627.33008 0.008373
4627.58984 0.007959
4627.85010 0.007621
4628.10986 0.006982
4628.37012 0.007028
4628.62988 0.005931
4628.89014 0.006066
4629.14990 0.006799
4629.41016 0.007081
4629.66992 0.006253
4629.93018 0.006349
4630.18994 0.007082
4630.45020 0.007527
4630.70996 0.007262
4630.97021 0.007111
4631.22998 0.006714
4631.49023 0.006683
4631.75000 0.00581
4632.00977 0.006333
4632.27002 0.005347
4632.52979 0.005321
4632.79004 0.00635
4633.04980 0.005461
4633.31006 0.006635
4633.56982 0.005099
4633.83008 0.005237
4634.08984 0.005791
4634.35010 0.005925
4634.60986 0.005644
4634.87012 0.005677
4635.12988 0.00485
4635.39014 0.005204
4635.64990 0.005103
4635.91016 0.005352
4636.16992 0.004976
4636.43018 0.004301
4636.68994 0.00466
4636.95020 0.004729
4637.20996 0.004879
4637.47021 0.005793
4637.72998 0.004915
4637.99023 0.004996
4638.25000 0.005541
4638.50977 0.004588
4638.77002 0.00437
4639.02979 0.005378
4639.29004 0.005203
4639.54980 0.004266
5103.50488 0.0
