# %ECSV 0.9
# ---
# datatype:
# - {name: wavelength, unit: Angstrom, datatype: float32}
# - {name: response, datatype: float32}
# meta: !!omap
# - {band_name: f_612_10}
# - {group_name: CAHA}
wavelength response
5398.63184 0.0
5998.47998 0.004058
5998.74023 0.003857
5999.00000 0.003861
5999.25977 0.003912
5999.52002 0.004068
5999.79004 0.004026
6000.04980 0.00406
6000.31006 0.004041
6000.56982 0.004172
6000.83008 0.004237
6001.08984 0.004229
6001.35010 0.004253
6001.60986 0.004314
6001.87012 0.004275
6002.12988 0.004429
6002.39014 0.00442
6002.64990 0.004349
6002.91016 0.004612
6003.16992 0.004599
6003.43018 0.004478
6003.68994 0.004536
6003.95020 0.004612
6004.20996 0.004723
6004.47021 0.004891
6004.72998 0.004858
6005.00000 0.004908
6005.25977 0.004838
6005.52002 0.0051
6005.77979 0.005036
6006.04004 0.004806
6006.29980 0.005096
6006.56006 0.005011
6006.81982 0.005123
6007.08008 0.005422
6007.33984 0.005214
6007.60010 0.005374
6007.85986 0.005517
6008.12012 0.005457
6008.37988 0.005568
6008.64014 0.005443
6008.89990 0.005701
6009.16016 0.005823
6009.41992 0.005806
6009.68018 0.005793
6009.93994 0.005909
6010.20996 0.005992
6010.47021 0.006072
6010.72998 0.006144
6010.99023 0.006148
6011.25000 0.006236
6011.50977 0.00627
6011.77002 0.006417
6012.02979 0.00644
6012.29004 0.006588
6012.54980 0.006466
6012.81006 0.006551
6013.06982 0.006705
6013.33008 0.006741
6013.58984 0.006979
6013.85010 0.006963
6014.10986 0.007017
6014.37012 0.007226
6014.62988 0.00718
6014.89014 0.007322
6015.14990 0.007522
6015.41992 0.007606
6015.68018 0.007566
6015.93994 0.007712
6016.20020 0.007921
6016.45996 0.008035
6016.72021 0.007959
6016.97998 0.008098
6017.24023 0.008192
6017.50000 0.008059
6017.75977 0.008124
6018.02002 0.008279
6018.27979 0.008508
6018.54004 0.008794
6018.79980 0.00868
6019.06006 0.009023
6019.31982 0.009135
6019.58008 0.009236
6019.83984 0.009277
6020.10010 0.009299
6020.35986 0.009402
6020.62012 0.009723
6020.89014 0.009691
6021.14990 0.009783
6021.41016 0.009839
6021.66992 0.0103
6021.93018 0.010328
6022.18994 0.010565
6022.45020 0.010669
6022.70996 0.010639
6022.97021 0.010825
6023.22998 0.010883
6023.49023 0.010976
6023.75000 0.011556
6024.00977 0.01136
6024.27002 0.011566
6024.52979 0.01178
6024.79004 0.011638
6025.04980 0.012077
6025.31006 0.012092
6025.56982 0.012334
6025.83008 0.01275
6026.10010 0.013002
6026.35986 0.013129
6026.62012 0.013252
6026.87988 0.013304
6027.14014 0.013792
6027.39990 0.014156
6027.66016 0.014207
6027.91992 0.014515
6028.18018 0.014353
6028.43994 0.014851
6028.70020 0.014774
6028.95996 0.015167
6029.22021 0.015187
6029.47998 0.015849
6029.74023 0.015878
6030.00000 0.016282
6030.25977 0.016467
6030.52002 0.016848
6030.77979 0.016978
6031.04004 0.016886
6031.31006 0.01756
6031.56982 0.017723
6031.83008 0.017896
6032.08984 0.018239
6032.35010 0.018672
6032.60986 0.019036
6032.87012 0.019304
6033.12988 0.019262
6033.39014 0.019841
6033.64990 0.020439
6033.91016 0.020729
6034.16992 0.021154
6034.43018 0.021018
6034.68994 0.021829
6034.95020 0.021836
6035.20996 0.022483
6035.47021 0.02296
6035.72998 0.023108
6035.99023 0.023335
6036.25000 0.024214
6036.52002 0.024514
6036.77979 0.025236
6037.04004 0.025506
6037.29980 0.025985
6037.56006 0.026453
6037.81982 0.026773
6038.08008 0.027486
6038.33984 0.028419
6038.60010 0.028547
6038.85986 0.02902
6039.12012 0.029558
6039.37988 0.030215
6039.64014 0.030508
6039.89990 0.031285
6040.16016 0.031385
6040.41992 0.032296
6040.68018 0.032715
6040.93994 0.033288
6041.20020 0.034289
6041.45996 0.035
6041.72998 0.035672
6041.99023 0.035759
6042.25000 0.036514
6042.50977 0.037322
6042.77002 0.038188
6043.02979 0.038894
6043.29004 0.039844
6043.54980 0.041566
6043.81006 0.041375
6044.06982 0.04236
6044.33008 0.043548
6044.58984 0.044115
6044.85010 0.045784
6045.10986 0.045867
6045.37012 0.046629
6045.62988 0.047893
6045.89014 0.049076
6046.14990 0.050033
6046.41016 0.050656
6046.66992 0.052155
6046.93994 0.052904
6047.20020 0.054974
6047.45996 0.056004
6047.72021 0.057134
6047.97998 0.05776
6048.24023 0.059061
6048.50000 0.060579
6048.75977 0.0623
6049.02002 0.062901
6049.27979 0.064668
6049.54004 0.065971
6049.79980 0.0668
6050.06006 0.069388
6050.31982 0.070366
6050.58008 0.072031
6050.83984 0.073929
6051.10010 0.075746
6051.35986 0.077116
6051.62012 0.079283
6051.87988 0.08021
6052.14990 0.082365
6052.41016 0.083874
6052.66992 0.086422
6052.93018 0.088374
6053.18994 0.090703
6053.45020 0.092148
6053.70996 0.094823
6053.97021 0.096382
6054.22998 0.098794
6054.49023 0.101106
6054.75000 0.103241
6055.00977 0.105837
6055.27002 0.109304
6055.52979 0.110983
6055.79004 0.113564
6056.04980 0.115986
6056.31006 0.119152
6056.56982 0.122004
6056.83008 0.124629
6057.10010 0.128369
6057.35986 0.130858
6057.62012 0.133209
6057.87988 0.137438
6058.14014 0.140495
6058.39990 0.143821
6058.66016 0.147384
6058.91992 0.150628
6059.18018 0.154077
6059.43994 0.157268
6059.70020 0.160906
6059.95996 0.164377
6060.22021 0.16803
6060.47998 0.173043
6060.74023 0.176456
6061.00000 0.180944
6061.25977 0.185508
6061.52002 0.190816
6061.77979 0.194387
6062.04004 0.198752
6062.31006 0.204058
6062.56982 0.208816
6062.83008 0.21277
6063.08984 0.216947
6063.35010 0.221065
6063.60986 0.228448
6063.87012 0.232551
6064.12988 0.239139
6064.39014 0.24374
6064.64990 0.249466
6064.91016 0.253891
6065.16992 0.26132
6065.43018 0.26629
6065.68994 0.270919
6065.95020 0.276577
6066.20996 0.282775
6066.47021 0.288728
6066.72998 0.296081
6066.99023 0.300527
6067.25000 0.307712
6067.52002 0.312443
6067.77979 0.321879
6068.04004 0.327034
6068.29980 0.333568
6068.56006 0.341807
6068.81982 0.347477
6069.08008 0.353434
6069.33984 0.361494
6069.60010 0.367593
6069.85986 0.374438
6070.12012 0.382008
6070.37988 0.388397
6070.64014 0.393986
6070.89990 0.402485
6071.16016 0.40974
6071.41992 0.417307
6071.68018 0.42339
6071.93994 0.429919
6072.20020 0.438017
6072.45996 0.444142
6072.72998 0.451829
6072.99023 0.458728
6073.25000 0.465099
6073.50977 0.470834
6073.77002 0.476747
6074.02979 0.483949
6074.29004 0.489739
6074.54980 0.498008
6074.81006 0.502202
6075.06982 0.509106
6075.33008 0.514609
6075.58984 0.521539
6075.85010 0.526753
6076.10986 0.533945
6076.37012 0.539943
6076.62988 0.547558
6076.89014 0.550449
6077.14990 0.554136
6077.41016 0.561565
6077.66992 0.565882
6077.93994 0.572744
6078.20020 0.576442
6078.45996 0.580201
6078.72021 0.584403
6078.97998 0.588979
6079.24023 0.59327
6079.50000 0.596917
6079.75977 0.602036
6080.02002 0.604858
6080.27979 0.610072
6080.54004 0.61374
6080.79980 0.614896
6081.06006 0.614767
6081.31982 0.622758
6081.58008 0.629139
6081.83984 0.625892
6082.10010 0.627912
6082.35986 0.632043
6082.62012 0.636879
6082.87988 0.639377
6083.14990 0.636718
6083.41016 0.639822
6083.66992 0.641869
6083.93018 0.645916
6084.18994 0.650022
6084.45020 0.647389
6084.70996 0.650168
6084.97021 0.649264
6085.22998 0.655234
6085.49023 0.653391
6085.75000 0.653664
6086.00977 0.654585
6086.27002 0.655306
6086.52979 0.658319
6086.79004 0.660187
6087.04980 0.659378
6087.31006 0.660179
6087.56982 0.658324
6087.83008 0.661436
6088.08984 0.660079
6088.35010 0.659149
6088.62012 0.66058
6088.87988 0.660292
6089.14014 0.663605
6089.39990 0.658682
6089.66016 0.663254
6089.91992 0.662528
6090.18018 0.660874
6090.43994 0.660409
6090.70020 0.661699
6090.95996 0.662976
6091.22021 0.66373
6091.47998 0.661845
6091.74023 0.660484
6092.00000 0.660294
6092.25977 0.663729
6092.52002 0.660152
6092.77979 0.661592
6093.04004 0.658227
6093.29980 0.658837
6093.56006 0.659759
6093.83008 0.658393
6094.08984 0.658312
6094.35010 0.656985
6094.60986 0.658226
6094.87012 0.659735
6095.12988 0.660357
6095.39014 0.660428
6095.64990 0.658473
6095.91016 0.659888
6096.16992 0.658725
6096.43018 0.660937
6096.68994 0.656358
6096.95020 0.655966
6097.20996 0.657989
6097.47021 0.655947
6097.72998 0.657691
6097.99023 0.656919
6098.25000 0.658031
6098.50977 0.658998
6098.77002 0.656475
6099.04004 0.655253
6099.29980 0.655467
6099.56006 0.65824
6099.81982 0.656755
6100.08008 0.658974
6100.33984 0.654745
6100.60010 0.656691
6100.85986 0.656003
6101.12012 0.658212
6101.37988 0.657019
6101.64014 0.657587
6101.89990 0.654798
6102.16016 0.658953
6102.41992 0.656624
6102.68018 0.656638
6102.93994 0.657264
6103.20020 0.657744
6103.45996 0.659031
6103.72021 0.659607
6103.97998 0.656864
6104.25000 0.659041
6104.50977 0.65932
6104.77002 0.658855
6105.02979 0.659484
6105.29004 0.65791
6105.54980 0.660012
6105.81006 0.661574
6106.06982 0.661355
6106.33008 0.659807
6106.58984 0.663015
6106.85010 0.660044
6107.10986 0.663803
6107.37012 0.662942
6107.62988 0.660544
6107.89014 0.661073
6108.14990 0.661975
6108.41016 0.66308
6108.66992 0.663877
6108.93018 0.66509
6109.18994 0.666418
6109.45996 0.664017
6109.72021 0.662752
6109.97998 0.665038
6110.24023 0.66372
6110.50000 0.665191
6110.75977 0.66664
6111.02002 0.670306
6111.27979 0.668093
6111.54004 0.667003
6111.79980 0.667752
6112.06006 0.66723
6112.31982 0.667077
6112.58008 0.667239
6112.83984 0.667713
6113.10010 0.667272
6113.35986 0.670883
6113.62012 0.668905
6113.87988 0.668531
6114.14014 0.670179
6114.39990 0.673672
6114.66992 0.675564
6114.93018 0.669989
6115.18994 0.673129
6115.45020 0.673275
6115.70996 0.674217
6115.97021 0.673447
6116.22998 0.673436
6116.49023 0.674342
6116.75000 0.67641
6117.00977 0.673162
6117.27002 0.677088
6117.52979 0.674526
6117.79004 0.674868
6118.04980 0.67481
6118.31006 0.676782
6118.56982 0.676451
6118.83008 0.677888
6119.08984 0.677628
6119.35010 0.678148
6119.62012 0.676362
6119.87988 0.676394
6120.14014 0.676675
6120.39990 0.678283
6120.66016 0.679814
6120.91992 0.677414
6121.18018 0.680363
6121.43994 0.677471
6121.70020 0.679973
6121.95996 0.68135
6122.22021 0.679383
6122.47998 0.680535
6122.74023 0.679379
6123.00000 0.682855
6123.25977 0.6806
6123.52002 0.678798
6123.77979 0.679358
6124.04004 0.681986
6124.29980 0.681355
6124.56006 0.681275
6124.83008 0.67641
6125.08984 0.680239
6125.35010 0.679341
6125.60986 0.681717
6125.87012 0.679376
6126.12988 0.678949
6126.39014 0.681144
6126.64990 0.68284
6126.91016 0.682553
6127.16992 0.679763
6127.43018 0.67854
6127.68994 0.682055
6127.95020 0.680601
6128.20996 0.680977
6128.47021 0.680862
6128.72998 0.680771
6128.99023 0.681485
6129.25000 0.681426
6129.50977 0.680902
6129.77002 0.678609
6130.04004 0.681839
6130.29980 0.679839
6130.56006 0.677399
6130.81982 0.677029
6131.08008 0.678124
6131.33984 0.679384
6131.60010 0.678854
6131.85986 0.679645
6132.12012 0.678873
6132.37988 0.679428
6132.64014 0.678983
6132.89990 0.679397
6133.16016 0.677305
6133.41992 0.678846
6133.68018 0.677976
6133.93994 0.678008
6134.20020 0.677442
6134.45996 0.678295
6134.72021 0.676899
6134.97998 0.67818
6135.25000 0.677546
6135.50977 0.677867
6135.77002 0.678446
6136.02979 0.675235
6136.29004 0.677291
6136.54980 0.678823
6136.81006 0.678249
6137.06982 0.675366
6137.33008 0.676231
6137.58984 0.676025
6137.85010 0.677995
6138.10986 0.674524
6138.37012 0.675482
6138.62988 0.673377
6138.89014 0.678835
6139.14990 0.679762
6139.41016 0.676111
6139.66992 0.675104
6139.93018 0.67498
6140.18994 0.67732
6140.45996 0.674892
6140.72021 0.674183
6140.97998 0.675472
6141.24023 0.673839
6141.50000 0.676095
6141.75977 0.675612
6142.02002 0.676041
6142.27979 0.675134
6142.54004 0.674357
6142.79980 0.676049
6143.06006 0.67323
6143.31982 0.67283
6143.58008 0.671915
6143.83984 0.672264
6144.10010 0.674514
6144.35986 0.674359
6144.62012 0.668959
6144.87988 0.670544
6145.14014 0.669977
6145.39990 0.669878
6145.66992 0.670763
6145.93018 0.671947
6146.18994 0.671385
6146.45020 0.669445
6146.70996 0.669966
6146.97021 0.668084
6147.22998 0.66677
6147.49023 0.664795
6147.75000 0.666745
6148.00977 0.666243
6148.27002 0.663689
6148.52979 0.663285
6148.79004 0.661865
6149.04980 0.663417
6149.31006 0.662142
6149.56982 0.657397
6149.83008 0.660672
6150.08984 0.658602
6150.35010 0.657717
6150.60986 0.65616
6150.87988 0.652291
6151.14014 0.651598
6151.39990 0.652813
6151.66016 0.651965
6151.91992 0.648701
6152.18018 0.646146
6152.43994 0.647301
6152.70020 0.644802
6152.95996 0.640008
6153.22021 0.63922
6153.47998 0.636369
6153.74023 0.637654
6154.00000 0.632361
6154.25977 0.632084
6154.52002 0.628695
6154.77979 0.624935
6155.04004 0.624862
6155.29980 0.622838
6155.56006 0.618084
6155.81982 0.614715
6156.08008 0.611755
6156.35010 0.609976
6156.60986 0.608146
6156.87012 0.602389
6157.12988 0.60052
6157.39014 0.592881
6157.64990 0.593615
6157.91016 0.587401
6158.16992 0.585423
6158.43018 0.579109
6158.68994 0.576279
6158.95020 0.573102
6159.20996 0.568046
6159.47021 0.563668
6159.72998 0.560082
6159.99023 0.554806
6160.25000 0.548152
6160.50977 0.543388
6160.77002 0.539399
6161.02979 0.534588
6161.29004 0.529961
6161.56006 0.524488
6161.81982 0.517035
6162.08008 0.512782
6162.33984 0.506746
6162.60010 0.5036
6162.85986 0.496425
6163.12012 0.490312
6163.37988 0.484981
6163.64014 0.479281
6163.89990 0.473254
6164.16016 0.466708
6164.41992 0.460676
6164.68018 0.455498
6164.93994 0.449269
6165.20020 0.443358
6165.45996 0.435942
6165.72021 0.428607
6165.97998 0.423437
6166.24023 0.417975
6166.50000 0.413057
6166.77002 0.40441
6167.02979 0.397861
6167.29004 0.392949
6167.54980 0.387962
6167.81006 0.380841
6168.06982 0.373429
6168.33008 0.368227
6168.58984 0.361215
6168.85010 0.35603
6169.10986 0.350756
6169.37012 0.342891
6169.62988 0.337015
6169.89014 0.331377
6170.14990 0.325957
6170.41016 0.320602
6170.66992 0.31432
6170.93018 0.307215
6171.18994 0.301784
6171.45020 0.294752
6171.70996 0.289744
6171.97998 0.284474
6172.24023 0.277973
6172.50000 0.272894
6172.75977 0.26784
6173.02002 0.263546
6173.27979 0.257976
6173.54004 0.252188
6173.79980 0.246088
6174.06006 0.242098
6174.31982 0.238192
6174.58008 0.232854
6174.83984 0.228407
6175.10010 0.224052
6175.35986 0.219356
6175.62012 0.214923
6175.87988 0.209783
6176.14014 0.203964
6176.39990 0.199928
6176.66016 0.197964
6176.91992 0.193085
6177.18994 0.188502
6177.45020 0.184905
6177.70996 0.180235
6177.97021 0.177275
6178.22998 0.173448
6178.49023 0.169134
6178.75000 0.165509
6179.00977 0.162263
6179.27002 0.158999
6179.52979 0.155585
6179.79004 0.151276
6180.04980 0.148425
6180.31006 0.145319
6180.56982 0.142601
6180.83008 0.139836
6181.08984 0.135929
6181.35010 0.132618
6181.60986 0.130106
6181.87012 0.128487
6182.12988 0.125662
6182.39990 0.122208
6182.66016 0.119376
6182.91992 0.117238
6183.18018 0.114908
6183.43994 0.112096
6183.70020 0.108739
6183.95996 0.106931
6184.22021 0.104804
6184.47998 0.103683
6184.74023 0.100886
6185.00000 0.09878
6185.25977 0.095601
6185.52002 0.093522
6185.77979 0.092309
6186.04004 0.090302
6186.29980 0.087856
6186.56006 0.086543
6186.81982 0.08488
6187.08008 0.083686
6187.35010 0.081254
6187.60986 0.079257
6187.87012 0.078405
6188.12988 0.076728
6188.39014 0.074966
6188.64990 0.073666
6188.91016 0.071259
6189.16992 0.070278
6189.43018 0.068873
6189.68994 0.067582
6189.95020 0.065981
6190.20996 0.064322
6190.47021 0.063781
6190.72998 0.061966
6190.99023 0.061788
6191.25000 0.059374
6191.50977 0.058077
6191.77002 0.057008
6192.02979 0.056318
6192.29004 0.055605
6192.56006 0.054088
6192.81982 0.052738
6193.08008 0.051824
6193.33984 0.051103
6193.60010 0.049749
6193.85986 0.048881
6194.12012 0.047759
6194.37988 0.046891
6194.64014 0.046027
6194.89990 0.045141
6195.16016 0.044445
6195.41992 0.043518
6195.68018 0.042304
6195.93994 0.041757
6196.20020 0.041231
6196.45996 0.040437
6196.72021 0.03896
6196.97998 0.038734
6197.24023 0.037917
6197.50000 0.037757
6197.77002 0.036741
6198.02979 0.035919
6198.29004 0.034947
6198.54980 0.034325
6198.81006 0.034043
6199.06982 0.033507
6199.33008 0.033047
6199.58984 0.032117
6199.85010 0.031502
6200.10986 0.031102
6200.37012 0.030405
6200.62988 0.029783
6200.89014 0.029411
6201.14990 0.028657
6201.41016 0.028207
6201.66992 0.027469
6201.93018 0.027526
6202.18994 0.027117
6202.45020 0.026458
6202.70996 0.026107
6202.97998 0.025286
6203.24023 0.024903
6203.50000 0.024667
6203.75977 0.024021
6204.02002 0.023695
6204.27979 0.02357
6204.54004 0.02306
6204.79980 0.022412
6205.06006 0.022429
6205.31982 0.02216
6205.58008 0.021671
6205.83984 0.021399
6206.10010 0.02107
6206.35986 0.020213
6206.62012 0.020091
6206.87988 0.01936
6207.14014 0.019417
6207.39990 0.019266
6207.66016 0.01857
6207.91992 0.018308
6208.18994 0.018481
6208.45020 0.01824
6208.70996 0.01771
6208.97021 0.017545
6209.22998 0.017223
6209.49023 0.01712
6209.75000 0.016719
6210.00977 0.016052
6210.27002 0.016214
6210.52979 0.016119
6210.79004 0.015617
6211.04980 0.015867
6211.31006 0.015122
6211.56982 0.014951
6211.83008 0.014719
6212.08984 0.014665
6212.35010 0.014407
6212.60986 0.014085
6212.87012 0.013818
6213.12988 0.013525
6213.39990 0.013329
6213.66016 0.013712
6213.91992 0.01327
6214.18018 0.013261
6214.43994 0.01295
6214.70020 0.012239
6214.95996 0.01237
6215.22021 0.012436
6215.47998 0.012053
6215.74023 0.012068
6216.00000 0.011796
6216.25977 0.011372
6216.52002 0.011497
6216.77979 0.011288
6217.04004 0.011153
6217.29980 0.010935
6217.56006 0.010812
6217.81982 0.010611
6218.08008 0.010505
6218.33984 0.010214
6218.60010 0.010013
6218.87012 0.010075
6219.12988 0.009893
6219.39014 0.009849
6219.64990 0.009591
6219.91016 0.009581
6220.16992 0.009642
6220.43018 0.009342
6220.68994 0.00929
6220.95020 0.008909
6221.20996 0.009015
6221.47021 0.00887
6221.72998 0.008928
6221.99023 0.008601
6222.25000 0.00848
6222.50977 0.008307
6222.77002 0.008328
6223.02979 0.008338
6223.29004 0.008295
6223.54980 0.008178
6223.81006 0.007809
6224.08008 0.007852
6224.33984 0.007708
6224.60010 0.007636
6224.85986 0.007536
6225.12012 0.007651
6225.37988 0.007316
6225.64014 0.007311
6225.89990 0.007219
6226.16016 0.007199
6226.41992 0.006804
6226.68018 0.007051
6226.93994 0.00695
6227.20020 0.006801
6227.45996 0.00671
6227.72021 0.006624
6227.97998 0.006679
6228.24023 0.006353
6228.50000 0.006424
6228.75977 0.006356
6229.02002 0.006253
6229.29004 0.006334
6229.54980 0.006059
6229.81006 0.006054
6230.06982 0.006078
6230.33008 0.005971
6230.58984 0.005872
6230.85010 0.005814
6231.10986 0.005824
6231.37012 0.00569
6231.62988 0.005598
6231.89014 0.005729
6232.14990 0.005477
6232.41016 0.005565
6232.66992 0.005436
6232.93018 0.005301
6233.18994 0.005269
6233.45020 0.005194
6233.70996 0.005199
6233.97021 0.005192
6234.22998 0.004866
6234.50000 0.004967
6234.75977 0.005015
6235.02002 0.004888
6235.27979 0.004958
6235.54004 0.004944
6235.79980 0.004694
6236.06006 0.004759
6236.31982 0.00467
6236.58008 0.004591
6236.83984 0.004732
6237.10010 0.004567
6237.35986 0.004504
6237.62012 0.004345
6237.87988 0.004578
6238.14014 0.004329
6238.39990 0.00433
6238.66016 0.00427
6238.91992 0.004268
6239.18018 0.004264
6239.43994 0.004194
6239.70996 0.004141
6239.97021 0.00414
6240.22998 0.004106
6240.49023 0.004045
6864.53906 0.0
