# %ECSV 0.9
# ---
# datatype:
# - {name: wavelength, unit: Angstrom, datatype: float32}
# - {name: response, datatype: float32}
# meta: !!omap
# - {band_name: f_456_11}
# - {group_name: CAHA}
wavelength response
3966.96631 0.0
4407.74023 0.004073
4408.00000 0.002928
4408.25977 0.002113
4408.52002 0.002993
4408.77979 0.002822
4409.04004 0.002522
4409.29980 0.002462
4409.56006 0.002045
4409.83008 0.000864
4410.08008 0.003476
4410.35010 0.002535
4410.60986 0.003411
4410.87012 0.00347
4411.12988 0.001289
4411.39014 0.002015
4411.64990 0.003338
4411.91016 0.002967
4412.16992 0.001484
4412.43018 0.000587
4412.68994 0.000455
4412.95020 0.004504
4413.20996 0.003469
4413.47021 0.002312
4413.72998 0.002895
4413.99023 0.000771
4414.25000 0.002191
4414.50977 0.002553
4414.77002 0.004584
4415.02979 0.003879
4415.29004 0.000957
4415.54980 0.004533
4415.81006 0.002263
4416.06982 0.002132
4416.33008 0.001223
4416.58984 0.004706
4416.85010 0.003656
4417.10986 0.002942
4417.37012 0.002508
4417.62988 0.00357
4417.89014 0.003251
4418.14990 0.002111
4418.41016 0.004426
4418.66992 0.002269
4418.93018 0.002561
4419.18994 0.002317
4419.45020 0.003085
4419.70996 0.003571
4419.97021 0.003408
4420.22998 0.002111
4420.49023 0.004788
4420.75000 0.003237
4421.00977 0.003992
4421.27002 0.002394
4421.52979 0.005648
4421.79004 0.003123
4422.04980 0.004549
4422.31006 0.003158
4422.56982 0.003735
4422.83008 0.002952
4423.10010 0.001635
4423.35986 0.003361
4423.62012 0.000759
4423.87988 0.005528
4424.14014 0.002356
4424.39990 0.002912
4424.66016 0.003062
4424.91992 0.004621
4425.18018 0.005308
4425.43994 0.004507
4425.70020 0.003052
4425.95996 0.003324
4426.22021 0.004453
4426.47998 0.004535
4426.74023 0.004598
4427.00000 0.00485
4427.25977 0.004521
4427.52002 0.003054
4427.77979 0.003551
4428.04004 0.006137
4428.29980 0.005596
4428.56006 0.003906
4428.81982 0.004781
4429.08008 0.004249
4429.33984 0.00259
4429.60010 0.00433
4429.85986 0.003468
4430.12012 0.004373
4430.37988 0.004457
4430.64014 0.006166
4430.89990 0.005543
4431.16016 0.00529
4431.41992 0.004151
4431.68018 0.005514
4431.93994 0.004276
4432.20020 0.004692
4432.45996 0.005646
4432.72021 0.00428
4432.97998 0.00558
4433.24023 0.006322
4433.50000 0.006064
4433.75977 0.007133
4434.02002 0.005277
4434.27979 0.00646
4434.54004 0.006781
4434.79980 0.0065
4435.06006 0.004925
4435.31982 0.004703
4435.58008 0.007769
4435.85010 0.005594
4436.10010 0.006175
4436.37012 0.004613
4436.62988 0.005541
4436.89014 0.005384
4437.14990 0.006033
4437.41016 0.005662
4437.66992 0.005798
4437.93018 0.006981
4438.18994 0.006531
4438.45020 0.005975
4438.70996 0.006405
4438.97021 0.007251
4439.22998 0.006136
4439.49023 0.005634
4439.75000 0.007282
4440.00977 0.00842
4440.27002 0.00701
4440.52979 0.005187
4440.79004 0.007726
4441.04980 0.007769
4441.31006 0.008799
4441.56982 0.007985
4441.83008 0.007522
4442.08984 0.008678
4442.35010 0.007008
4442.60986 0.007331
4442.87012 0.009261
4443.12988 0.006709
4443.39014 0.007363
4443.64990 0.007071
4443.91016 0.008023
4444.16992 0.008864
4444.43018 0.009052
4444.68994 0.008724
4444.95020 0.00879
4445.20996 0.010401
4445.47021 0.009656
4445.72998 0.008179
4445.99023 0.007756
4446.25000 0.008419
4446.50977 0.008277
4446.77002 0.008904
4447.02979 0.011635
4447.29004 0.009098
4447.54980 0.010172
4447.81006 0.009073
4448.06982 0.008725
4448.33008 0.010791
4448.58984 0.009788
4448.85010 0.009961
4449.12012 0.009157
4449.37988 0.010343
4449.64014 0.00999
4449.89990 0.012123
4450.16016 0.009834
4450.41992 0.011235
4450.68018 0.01027
4450.93994 0.011775
4451.20020 0.01009
4451.45996 0.009881
4451.72021 0.010419
4451.97998 0.012781
4452.24023 0.011345
4452.50000 0.012914
4452.75977 0.009818
4453.02002 0.013605
4453.27979 0.01176
4453.54004 0.013041
4453.79980 0.012745
4454.06006 0.013806
4454.31982 0.012194
4454.58008 0.012664
4454.83984 0.011947
4455.10010 0.010615
4455.35986 0.012823
4455.62012 0.014743
4455.87988 0.015653
4456.14014 0.011605
4456.39990 0.01477
4456.66016 0.014327
4456.91992 0.014942
4457.18018 0.015007
4457.43994 0.015212
4457.70020 0.013975
4457.95996 0.016105
4458.22021 0.015921
4458.47998 0.015311
4458.74023 0.016188
4459.00000 0.01595
4459.25977 0.015452
4459.52002 0.018176
4459.77979 0.01789
4460.04004 0.018125
4460.29980 0.016557
4460.56006 0.018085
4460.81982 0.017568
4461.08008 0.018234
4461.33984 0.018079
4461.60010 0.019069
4461.87012 0.01837
4462.12012 0.018632
4462.39014 0.018555
4462.64990 0.019629
4462.91016 0.01784
4463.16992 0.018375
4463.43018 0.0207
4463.68994 0.019867
4463.95020 0.019681
4464.20996 0.023057
4464.47021 0.023348
4464.72998 0.020442
4464.99023 0.02349
4465.25000 0.024024
4465.50977 0.025199
4465.77002 0.023919
4466.02979 0.023917
4466.29004 0.023868
4466.54980 0.023905
4466.81006 0.024519
4467.06982 0.02577
4467.33008 0.026367
4467.58984 0.027901
4467.85010 0.027082
4468.10986 0.025567
4468.37012 0.026973
4468.62988 0.027273
4468.89014 0.029922
4469.14990 0.029554
4469.41016 0.027681
4469.66992 0.029135
4469.93018 0.028105
4470.18994 0.030922
4470.45020 0.031994
4470.70996 0.034358
4470.97021 0.032275
4471.22998 0.033433
4471.49023 0.034509
4471.75000 0.03644
4472.00977 0.034321
4472.27002 0.034918
4472.52979 0.033183
4472.79004 0.035666
4473.04980 0.03577
4473.31006 0.037209
4473.56982 0.039344
4473.83008 0.039328
4474.08984 0.039702
4474.35010 0.037429
4474.60986 0.040407
4474.87988 0.042428
4475.14014 0.041882
4475.39990 0.043112
4475.66016 0.043636
4475.91992 0.046308
4476.18018 0.044935
4476.43994 0.046713
4476.70020 0.046879
4476.95996 0.045386
4477.22021 0.050554
4477.47998 0.048807
4477.74023 0.052842
4478.00000 0.049931
4478.25977 0.053826
4478.52002 0.053735
4478.77979 0.053981
4479.04004 0.056316
4479.29980 0.056873
4479.56006 0.055729
4479.81982 0.061091
4480.08008 0.058315
4480.33984 0.058952
4480.60010 0.061781
4480.85986 0.064315
4481.12012 0.064046
4481.37988 0.066565
4481.64014 0.064268
4481.89990 0.069732
4482.16016 0.06671
4482.41992 0.072989
4482.68018 0.0727
4482.93994 0.071493
4483.20020 0.076366
4483.45996 0.075298
4483.72021 0.078334
4483.97998 0.079007
4484.24023 0.083622
4484.50000 0.079076
4484.75977 0.08557
4485.02002 0.087248
4485.27979 0.08554
4485.54004 0.090785
4485.79980 0.090537
4486.06006 0.094677
4486.31982 0.09706
4486.58008 0.096879
4486.83984 0.099449
4487.10010 0.097682
4487.35986 0.104662
4487.62012 0.104657
4487.87988 0.10498
4488.14990 0.107322
4488.41016 0.11068
4488.66992 0.116783
4488.93018 0.120189
4489.18994 0.119993
4489.45020 0.12216
4489.70996 0.121059
4489.97021 0.129957
4490.22998 0.131441
4490.49023 0.130632
4490.75000 0.132872
4491.00977 0.137296
4491.27002 0.141913
4491.52979 0.145141
4491.79004 0.146221
4492.04980 0.148001
4492.31006 0.1511
4492.56982 0.156132
4492.83008 0.157471
4493.08984 0.15944
4493.35010 0.165556
4493.60986 0.166348
4493.87012 0.173624
4494.12988 0.175805
4494.39014 0.178259
4494.64990 0.180382
4494.91016 0.190836
4495.16992 0.187545
4495.43018 0.194851
4495.68994 0.197155
4495.95020 0.202862
4496.20996 0.208314
4496.47021 0.213114
4496.72998 0.212199
4496.99023 0.221301
4497.25000 0.222635
4497.50977 0.228412
4497.77002 0.234532
4498.02979 0.238244
4498.29004 0.242228
4498.54980 0.246567
4498.81006 0.250604
4499.06982 0.255941
4499.33008 0.25869
4499.58984 0.263899
4499.85010 0.270429
4500.10986 0.27315
4500.37012 0.278637
4500.62988 0.28796
4500.89990 0.293947
4501.16016 0.29856
4501.41992 0.299252
4501.68018 0.318742
4501.93994 0.305754
4502.20020 0.319212
4502.45996 0.324852
4502.72021 0.329607
4502.97998 0.333771
4503.24023 0.337901
4503.50000 0.348694
4503.75977 0.352684
4504.02002 0.35164
4504.27979 0.361956
4504.54004 0.372653
4504.79980 0.376569
4505.06006 0.376453
4505.31982 0.391938
4505.58008 0.397876
4505.83984 0.400013
4506.10010 0.410026
4506.35986 0.411209
4506.62012 0.417395
4506.87988 0.41924
4507.14014 0.433759
4507.39990 0.442619
4507.66016 0.431763
4507.91992 0.439472
4508.18018 0.451246
4508.43994 0.452855
4508.70020 0.461265
4508.95996 0.458971
4509.22021 0.476644
4509.47998 0.47718
4509.74023 0.485225
4510.00000 0.498218
4510.25977 0.489444
4510.52002 0.504322
4510.77979 0.498086
4511.04004 0.509649
4511.29980 0.514397
4511.56006 0.521309
4511.81982 0.518628
4512.08008 0.523761
4512.33984 0.532367
4512.60010 0.538646
4512.85986 0.543808
4513.12012 0.550332
4513.37988 0.545215
4513.64990 0.564635
4513.89990 0.556642
4514.16992 0.568646
4514.43018 0.575171
4514.68994 0.567394
4514.95020 0.578959
4515.20996 0.579673
4515.47021 0.575077
4515.72998 0.583245
4515.99023 0.593041
4516.25000 0.584704
4516.50977 0.592289
4516.77002 0.594879
4517.02979 0.6025
4517.29004 0.600329
4517.54980 0.614419
4517.81006 0.606882
4518.06982 0.612729
4518.33008 0.620698
4518.58984 0.616043
4518.85010 0.617584
4519.10986 0.613349
4519.37012 0.617719
4519.62988 0.634181
4519.89014 0.625088
4520.14990 0.627438
4520.41016 0.635018
4520.66992 0.624482
4520.93018 0.637859
4521.18994 0.632943
4521.45020 0.635001
4521.70996 0.624621
4521.97021 0.638382
4522.22998 0.638874
4522.49023 0.633522
4522.75000 0.643453
4523.00977 0.639729
4523.27002 0.644161
4523.52979 0.651835
4523.79004 0.643827
4524.04980 0.642927
4524.31006 0.645488
4524.56982 0.642614
4524.83008 0.647194
4525.08984 0.63899
4525.35010 0.638034
4525.60986 0.6552
4525.87012 0.64557
4526.12988 0.658578
4526.39014 0.645772
4526.64990 0.655688
4526.91992 0.648011
4527.18018 0.646746
4527.43994 0.648901
4527.70020 0.647141
4527.95996 0.654849
4528.22021 0.649531
4528.47998 0.659276
4528.74023 0.654274
4529.00000 0.65209
4529.25977 0.647292
4529.52002 0.647694
4529.77979 0.658568
4530.04004 0.6651
4530.29980 0.650207
4530.56006 0.6557
4530.81982 0.653203
4531.08008 0.651859
4531.33984 0.654284
4531.60010 0.645952
4531.85986 0.646856
4532.12012 0.648908
4532.37988 0.657424
4532.64014 0.654588
4532.89990 0.653333
4533.16016 0.655236
4533.41992 0.653283
4533.68018 0.656032
4533.93994 0.646212
4534.20020 0.653392
4534.45996 0.65226
4534.72021 0.646818
4534.97998 0.650907
4535.24023 0.644384
4535.50000 0.660246
4535.75977 0.658394
4536.02002 0.660743
4536.27979 0.654948
4536.54004 0.647963
4536.79980 0.651293
4537.06006 0.65409
4537.31982 0.654402
4537.58008 0.660561
4537.83984 0.65349
4538.10010 0.657352
4538.35986 0.652449
4538.62012 0.653423
4538.87988 0.655899
4539.14014 0.660402
4539.39990 0.661006
4539.66992 0.652668
4539.91992 0.649955
4540.18994 0.650463
4540.45020 0.652483
4540.70996 0.648334
4540.97021 0.650835
4541.22998 0.643208
4541.49023 0.647982
4541.75000 0.660854
4542.00977 0.660614
4542.27002 0.659698
4542.52979 0.651371
4542.79004 0.658352
4543.04980 0.657661
4543.31006 0.644694
4543.56982 0.654599
4543.83008 0.657962
4544.08984 0.654592
4544.35010 0.659019
4544.60986 0.653767
4544.87012 0.651301
4545.12988 0.642802
4545.39014 0.656637
4545.64990 0.646817
4545.91016 0.657355
4546.16992 0.649318
4546.43018 0.653605
4546.68994 0.65699
4546.95020 0.660925
4547.20996 0.648299
4547.47021 0.651267
4547.72998 0.658849
4547.99023 0.662598
4548.25000 0.658852
4548.50977 0.6584
4548.77002 0.65218
4549.02979 0.646885
4549.29004 0.653221
4549.54980 0.657958
4549.81006 0.658874
4550.06982 0.660356
4550.33008 0.664352
4550.58984 0.656851
4550.85010 0.655062
4551.10986 0.662077
4551.37012 0.649733
4551.62988 0.651561
4551.89014 0.652035
4552.14990 0.660883
4552.41016 0.667806
4552.66992 0.660498
4552.93994 0.667041
4553.20020 0.665344
4553.45996 0.663561
4553.72021 0.659617
4553.97998 0.665719
4554.24023 0.65999
4554.50000 0.662114
4554.75977 0.659545
4555.02002 0.668375
4555.27979 0.66397
4555.54004 0.664967
4555.79980 0.666407
4556.06006 0.663221
4556.31982 0.65899
4556.58008 0.673073
4556.83984 0.663408
4557.10010 0.664195
4557.35986 0.66885
4557.62012 0.669893
4557.87988 0.67062
4558.14014 0.667295
4558.39990 0.665969
4558.66016 0.658828
4558.91992 0.666079
4559.18018 0.662498
4559.43994 0.674718
4559.70020 0.66931
4559.95996 0.664404
4560.22021 0.66676
4560.47998 0.67056
4560.74023 0.658124
4561.00000 0.662839
4561.25977 0.673745
4561.52002 0.664808
4561.77979 0.673665
4562.04004 0.675865
4562.29980 0.668758
4562.56006 0.667695
4562.81982 0.666454
4563.08008 0.669791
4563.33984 0.669896
4563.60010 0.668733
4563.85986 0.670233
4564.12012 0.660998
4564.37988 0.659922
4564.64014 0.66437
4564.89990 0.663211
4565.16016 0.670514
4565.41992 0.673066
4565.68018 0.669961
4565.93994 0.665956
4566.20996 0.669478
4566.47021 0.663448
4566.72998 0.668521
4566.99023 0.668132
4567.25000 0.661222
4567.50977 0.663172
4567.77002 0.666845
4568.02979 0.665209
4568.29004 0.659859
4568.54980 0.668867
4568.81006 0.667796
4569.06982 0.662925
4569.33008 0.66756
4569.58984 0.661477
4569.85010 0.667433
4570.10986 0.662658
4570.37012 0.659186
4570.62988 0.665728
4570.89014 0.670076
4571.14990 0.667409
4571.41016 0.658953
4571.66992 0.671634
4571.93018 0.667907
4572.18994 0.668321
4572.45020 0.66551
4572.70996 0.659937
4572.97021 0.655882
4573.22998 0.669082
4573.49023 0.668271
4573.75000 0.668595
4574.00977 0.663188
4574.27002 0.655338
4574.52979 0.66766
4574.79004 0.667022
4575.04980 0.666807
4575.31006 0.660698
4575.56982 0.652801
4575.83008 0.665211
4576.08984 0.657833
4576.35010 0.666179
4576.60986 0.667883
4576.87012 0.668331
4577.12988 0.662098
4577.39014 0.670576
4577.64990 0.672909
4577.91016 0.66824
4578.16992 0.667603
4578.43018 0.661075
4578.68994 0.658514
4578.95996 0.657108
4579.22021 0.657028
4579.47998 0.66177
4579.74023 0.668432
4580.00000 0.672224
4580.25977 0.660948
4580.52002 0.668898
4580.77979 0.661151
4581.04004 0.66498
4581.29980 0.663846
4581.56006 0.665576
4581.81982 0.662312
4582.08008 0.666121
4582.33984 0.664291
4582.60010 0.662547
4582.85986 0.659933
4583.12012 0.658547
4583.37988 0.667127
4583.64014 0.664297
4583.89990 0.657774
4584.16016 0.657816
4584.41992 0.6575
4584.68018 0.656736
4584.93994 0.657331
4585.20020 0.671591
4585.45996 0.66078
4585.72021 0.654076
4585.97998 0.656008
4586.24023 0.661153
4586.50000 0.658013
4586.75977 0.66162
4587.02002 0.656341
4587.27979 0.663674
4587.54004 0.66005
4587.79980 0.653934
4588.06006 0.661106
4588.31982 0.654479
4588.58008 0.654589
4588.83984 0.651744
4589.10010 0.651893
4589.35986 0.649608
4589.62012 0.649496
4589.87988 0.649796
4590.14014 0.65526
4590.39990 0.662035
4590.66016 0.644882
4590.91992 0.645503
4591.18018 0.651524
4591.43994 0.647069
4591.70020 0.64808
4591.95996 0.651048
4592.22998 0.646839
4592.49023 0.643038
4592.75000 0.632355
4593.00977 0.638331
4593.27002 0.640109
4593.52979 0.64925
4593.79004 0.642678
4594.04980 0.634448
4594.31006 0.642393
4594.56982 0.636762
4594.83008 0.637164
4595.08984 0.633921
4595.35010 0.632783
4595.60986 0.627996
4595.87012 0.630508
4596.12988 0.624512
4596.39014 0.622677
4596.64990 0.626799
4596.91016 0.619865
4597.16992 0.623868
4597.43018 0.616228
4597.68994 0.620147
4597.95020 0.61746
4598.20996 0.609305
4598.47021 0.609573
4598.72998 0.608403
4598.99023 0.605068
4599.25000 0.608497
4599.50977 0.602408
4599.77002 0.599416
4600.02979 0.595907
4600.29004 0.591355
4600.54980 0.591998
4600.81006 0.582466
4601.06982 0.583269
4601.33008 0.585618
4601.58984 0.581757
4601.85010 0.584277
4602.10986 0.575622
4602.37012 0.566352
4602.62988 0.566321
4602.89014 0.572564
4603.14990 0.562099
4603.41016 0.553481
4603.66992 0.564128
4603.93018 0.553492
4604.18994 0.550422
4604.45020 0.5479
4604.70996 0.541698
4604.97998 0.545241
4605.24023 0.542142
4605.50000 0.534839
4605.75977 0.524212
4606.02002 0.528002
4606.27979 0.521946
4606.54004 0.514291
4606.79980 0.513549
4607.06006 0.513623
4607.31982 0.503995
4607.58008 0.497571
4607.83984 0.499189
4608.10010 0.492446
4608.35986 0.486486
4608.62012 0.486063
4608.87988 0.470532
4609.14014 0.47591
4609.39990 0.469101
4609.66016 0.467683
4609.91992 0.463703
4610.18018 0.456069
4610.43994 0.452565
4610.70020 0.447738
4610.95996 0.438836
4611.22021 0.43753
4611.47998 0.431203
4611.74023 0.43099
4612.00000 0.423767
4612.25977 0.412734
4612.52002 0.412681
4612.77979 0.40963
4613.04004 0.405073
4613.29980 0.401477
4613.56006 0.395029
4613.81982 0.388457
4614.08008 0.383194
4614.33984 0.377513
4614.60010 0.376002
4614.85986 0.378972
4615.12012 0.366541
4615.37988 0.359932
4615.64014 0.353238
4615.89990 0.354535
4616.16016 0.349393
4616.41992 0.349993
4616.68018 0.340953
4616.93994 0.33474
4617.20020 0.331193
4617.45996 0.323726
4617.72021 0.319078
4617.97998 0.317698
4618.25000 0.312886
4618.50977 0.303766
4618.77002 0.301421
4619.02979 0.297852
4619.29004 0.292523
4619.54980 0.293883
4619.81006 0.283949
4620.06982 0.282649
4620.33008 0.275138
4620.58984 0.271195
4620.85010 0.26734
4621.10986 0.26144
4621.37012 0.258816
4621.62988 0.2568
4621.89014 0.247906
4622.14990 0.245405
4622.41016 0.244806
4622.66992 0.235887
4622.93018 0.236312
4623.18994 0.230722
4623.45020 0.22605
4623.70996 0.22802
4623.97021 0.22624
4624.22998 0.219755
4624.49023 0.215031
4624.75000 0.209779
4625.00977 0.206751
4625.27002 0.208741
4625.52979 0.202046
4625.79004 0.195735
4626.04980 0.196911
4626.31006 0.191631
4626.56982 0.191621
4626.83008 0.188543
4627.08984 0.180902
4627.35010 0.181851
4627.60986 0.175574
4627.87012 0.172656
4628.12988 0.169143
4628.39014 0.164094
4628.64990 0.160872
4628.91016 0.16076
4629.16992 0.161187
4629.43018 0.15427
4629.68994 0.152828
4629.95020 0.149612
4630.20996 0.151245
4630.47021 0.145333
4630.72998 0.141257
4631.00000 0.139908
4631.25977 0.136065
4631.52002 0.136066
4631.77979 0.133617
4632.04004 0.130535
4632.29980 0.128616
4632.56006 0.125216
4632.81982 0.126004
4633.08008 0.121151
4633.33984 0.123377
4633.60010 0.118966
4633.85986 0.115847
4634.12012 0.113879
4634.37988 0.11442
4634.64014 0.111638
4634.89990 0.109197
4635.16016 0.108556
4635.41992 0.104506
4635.68018 0.10328
4635.93994 0.103036
4636.20020 0.102386
4636.45996 0.09852
4636.72021 0.097177
4636.97998 0.094755
4637.24023 0.097622
4637.50000 0.091724
4637.75977 0.092084
4638.02002 0.0882
4638.27979 0.090101
4638.54004 0.088002
4638.79980 0.086214
4639.06006 0.083381
4639.31982 0.084631
4639.58008 0.082696
4639.83984 0.081101
4640.10010 0.079528
4640.35986 0.076356
4640.62012 0.078294
4640.87988 0.074054
4641.14014 0.071939
4641.39990 0.072545
4641.66016 0.071805
4641.91992 0.071026
4642.18018 0.070836
4642.43994 0.06778
4642.70020 0.067895
4642.95996 0.065991
4643.22021 0.06523
4643.47998 0.06401
4643.74023 0.063493
4644.00000 0.063289
4644.27002 0.059612
4644.52979 0.058718
4644.79004 0.057704
4645.04980 0.056542
4645.31006 0.059821
4645.56982 0.055613
4645.83008 0.055363
4646.08984 0.054646
4646.35010 0.054092
4646.60986 0.054974
4646.87012 0.052726
4647.12988 0.052771
4647.39014 0.05242
4647.64990 0.048901
4647.91016 0.049113
4648.16992 0.04839
4648.43018 0.04608
4648.68994 0.047031
4648.95020 0.04754
4649.20996 0.047224
4649.47021 0.04637
4649.72998 0.042554
4649.99023 0.043239
4650.25000 0.042829
4650.50977 0.043078
4650.77002 0.041291
4651.02979 0.041735
4651.29004 0.040395
4651.54980 0.041441
4651.81006 0.03957
4652.06982 0.039902
4652.33008 0.036826
4652.58984 0.036922
4652.85010 0.037316
4653.10986 0.035202
4653.37012 0.035861
4653.62988 0.035631
4653.89014 0.034916
4654.14990 0.034845
4654.41016 0.033478
4654.66992 0.032607
4654.93018 0.032493
4655.18994 0.033305
4655.45020 0.031704
4655.70996 0.031116
4655.97021 0.030869
4656.22998 0.02917
4656.49023 0.031001
4656.75000 0.029465
4657.02002 0.028639
4657.27979 0.028247
4657.54004 0.029468
4657.79980 0.028837
4658.06006 0.026602
4658.31982 0.028111
4658.58008 0.026042
4658.83984 0.026198
4659.10010 0.025997
4659.35986 0.027333
4659.62012 0.025305
4659.87988 0.026159
4660.14014 0.025009
4660.39990 0.024725
4660.66016 0.026767
4660.91992 0.02435
4661.18018 0.024023
4661.43994 0.024276
4661.70020 0.022756
4661.95996 0.023058
4662.22021 0.023524
4662.47998 0.022913
4662.74023 0.021652
4663.00000 0.023086
4663.25977 0.021042
4663.52002 0.022367
4663.77979 0.019725
4664.04004 0.021038
4664.29980 0.019193
4664.56006 0.020263
4664.81982 0.019932
4665.08008 0.018911
4665.33984 0.019884
4665.60010 0.018847
4665.85986 0.020321
4666.12012 0.019911
4666.37988 0.017922
4666.64014 0.018261
4666.89990 0.018912
4667.16016 0.017667
4667.41992 0.016554
4667.68018 0.018807
4667.93994 0.016977
4668.20020 0.015941
4668.45996 0.017584
4668.72021 0.017208
4668.97998 0.016268
4669.24023 0.015555
4669.50000 0.016107
4669.75977 0.016582
4670.02002 0.015515
4670.29004 0.015377
4670.54980 0.015822
4670.81006 0.015671
4671.06982 0.016488
4671.33008 0.014093
4671.58984 0.015761
4671.85010 0.01487
4672.10986 0.014552
4672.37012 0.013621
4672.62988 0.01446
4672.89014 0.013146
4673.14990 0.014389
4673.41016 0.013702
4673.66992 0.014934
4673.93018 0.013712
4674.18994 0.012692
4674.45020 0.012664
4674.70996 0.012525
4674.97021 0.012209
4675.22998 0.012899
4675.49023 0.012276
4675.75000 0.012319
4676.00977 0.012654
4676.27002 0.012101
4676.52979 0.012032
4676.79004 0.010448
4677.04980 0.012216
4677.31006 0.011397
4677.56982 0.011789
4677.83008 0.011125
4678.08984 0.010654
4678.35010 0.010844
4678.60986 0.010858
4678.87012 0.010666
4679.12988 0.010006
4679.39014 0.010717
4679.64990 0.01052
4679.91016 0.010477
4680.16992 0.010323
4680.43018 0.01002
4680.68994 0.009478
4680.95020 0.010101
4681.20996 0.009678
4681.47021 0.009417
4681.72998 0.009995
4681.99023 0.008659
4682.25000 0.009476
4682.50977 0.010762
4682.77002 0.009169
4683.04004 0.00929
4683.29980 0.009391
4683.56006 0.009371
4683.81982 0.008045
4684.08008 0.009092
4684.33984 0.008777
4684.60010 0.009513
4684.85986 0.008541
4685.12012 0.008633
4685.37988 0.009833
4685.64014 0.009047
4685.89990 0.007738
4686.16016 0.007786
4686.41992 0.007767
4686.68018 0.00896
4686.93994 0.007883
4687.20020 0.008084
4687.45996 0.008635
4687.72021 0.00799
4687.97998 0.007793
4688.24023 0.008249
4688.50000 0.007154
4688.75977 0.00775
4689.02002 0.007217
4689.27979 0.007652
4689.54004 0.008437
4689.79980 0.007099
4690.06006 0.007776
4690.31982 0.007048
4690.58008 0.006642
4690.83984 0.006632
4691.10010 0.00613
4691.35986 0.006364
4691.62012 0.007378
4691.87988 0.006209
4692.14014 0.006245
4692.39990 0.00574
4692.66016 0.006914
4692.91992 0.006457
4693.18018 0.006217
4693.43994 0.006016
4693.70020 0.005886
4693.95996 0.005996
4694.22021 0.005371
4694.47998 0.005627
4694.74023 0.006092
4695.00000 0.005732
4695.25977 0.006189
4695.52002 0.005896
4695.77979 0.005492
4696.04004 0.00629
4696.31006 0.004981
4696.56982 0.005661
4696.83008 0.00598
4697.08984 0.005338
4697.35010 0.005181
4697.60986 0.005704
4697.87012 0.004711
4698.12988 0.005303
4698.39014 0.005054
4698.64990 0.005355
4698.91016 0.004791
4699.16992 0.005373
4699.43018 0.004334
4699.68994 0.005005
4699.95020 0.0057
4700.20996 0.004632
4700.47021 0.004554
4700.72998 0.00504
4700.99023 0.004124
4701.25000 0.004903
4701.50977 0.004778
4701.77002 0.00484
4702.02979 0.005463
4702.29004 0.004034
4702.54980 0.004578
4702.81006 0.004447
4703.06982 0.005192
5173.37695 0.0
