# %ECSV 0.9
# ---
# datatype:
# - {name: wavelength, unit: Angstrom, datatype: float32}
# - {name: response, datatype: float32}
# meta: !!omap
# - {band_name: f_613_12}
# - {group_name: CAHA}
wavelength response
5391.83691 0.0
5990.93018 0.004048
5991.18994 0.004009
5991.45020 0.004029
5991.70996 0.003971
5991.97021 0.004141
5992.22998 0.004167
5992.49023 0.00407
5992.75000 0.004278
5993.00977 0.004416
5993.27002 0.00432
5993.52979 0.004356
5993.79004 0.004461
5994.04980 0.004402
5994.31006 0.004331
5994.58008 0.004545
5994.83984 0.004442
5995.10010 0.004704
5995.35986 0.004455
5995.62012 0.00472
5995.87988 0.004481
5996.14014 0.004654
5996.39990 0.004711
5996.66016 0.004848
5996.91992 0.004905
5997.18018 0.004908
5997.43994 0.004958
5997.70020 0.004892
5997.95996 0.005169
5998.22021 0.005128
5998.47998 0.005011
5998.74023 0.005087
5999.00000 0.005184
5999.25977 0.005205
5999.52002 0.005381
5999.79004 0.00549
6000.04980 0.005538
6000.31006 0.005583
6000.56982 0.005582
6000.83008 0.005694
6001.08984 0.005627
6001.35010 0.005777
6001.60986 0.005725
6001.87012 0.005774
6002.12988 0.005946
6002.39014 0.006184
6002.64990 0.005839
6002.91016 0.005952
6003.16992 0.006058
6003.43018 0.006189
6003.68994 0.006254
6003.95020 0.006515
6004.20996 0.006425
6004.47021 0.006389
6004.72998 0.006628
6005.00000 0.00659
6005.25977 0.006627
6005.52002 0.006769
6005.77979 0.006819
6006.04004 0.006862
6006.29980 0.007054
6006.56006 0.00704
6006.81982 0.006879
6007.08008 0.007389
6007.33984 0.007469
6007.60010 0.007382
6007.85986 0.007449
6008.12012 0.00763
6008.37988 0.007939
6008.64014 0.007675
6008.89990 0.007946
6009.16016 0.007977
6009.41992 0.008228
6009.68018 0.00797
6009.93994 0.008126
6010.20996 0.008227
6010.47021 0.008218
6010.72998 0.008455
6010.99023 0.008436
6011.25000 0.008742
6011.50977 0.008695
6011.77002 0.008835
6012.02979 0.008989
6012.29004 0.009051
6012.54980 0.009403
6012.81006 0.009447
6013.06982 0.009459
6013.33008 0.009669
6013.58984 0.009633
6013.85010 0.00986
6014.10986 0.01
6014.37012 0.01016
6014.62988 0.010141
6014.89014 0.010418
6015.14990 0.010603
6015.41992 0.010646
6015.68018 0.010865
6015.93994 0.010792
6016.20020 0.010966
6016.45996 0.011314
6016.72021 0.011099
6016.97998 0.011709
6017.24023 0.01158
6017.50000 0.011674
6017.75977 0.01184
6018.02002 0.012316
6018.27979 0.012335
6018.54004 0.01274
6018.79980 0.012479
6019.06006 0.012918
6019.31982 0.013402
6019.58008 0.013335
6019.83984 0.013355
6020.10010 0.013451
6020.35986 0.01405
6020.62012 0.014084
6020.89014 0.014196
6021.14990 0.014182
6021.41016 0.014481
6021.66992 0.014735
6021.93018 0.014882
6022.18994 0.014893
6022.45020 0.015306
6022.70996 0.015627
6022.97021 0.015723
6023.22998 0.016196
6023.49023 0.016542
6023.75000 0.016923
6024.00977 0.01673
6024.27002 0.01713
6024.52979 0.016925
6024.79004 0.018074
6025.04980 0.017933
6025.31006 0.017869
6025.56982 0.018585
6025.83008 0.018769
6026.10010 0.018761
6026.35986 0.019258
6026.62012 0.019816
6026.87988 0.019946
6027.14014 0.020091
6027.39990 0.020221
6027.66016 0.020754
6027.91992 0.021412
6028.18018 0.021194
6028.43994 0.021692
6028.70020 0.021922
6028.95996 0.022385
6029.22021 0.022793
6029.47998 0.023327
6029.74023 0.023449
6030.00000 0.023953
6030.25977 0.024859
6030.52002 0.025025
6030.77979 0.025229
6031.04004 0.025822
6031.31006 0.026168
6031.56982 0.026357
6031.83008 0.027189
6032.08984 0.027281
6032.35010 0.027917
6032.60986 0.028471
6032.87012 0.028995
6033.12988 0.029621
6033.39014 0.030359
6033.64990 0.030711
6033.91016 0.03069
6034.16992 0.03168
6034.43018 0.032307
6034.68994 0.032721
6034.95020 0.033479
6035.20996 0.033864
6035.47021 0.034311
6035.72998 0.035573
6035.99023 0.036093
6036.25000 0.03701
6036.52002 0.037383
6036.77979 0.038141
6037.04004 0.038669
6037.29980 0.039444
6037.56006 0.040183
6037.81982 0.040388
6038.08008 0.042008
6038.33984 0.042605
6038.60010 0.043498
6038.85986 0.043536
6039.12012 0.045206
6039.37988 0.045444
6039.64014 0.046594
6039.89990 0.047495
6040.16016 0.048505
6040.41992 0.049393
6040.68018 0.050638
6040.93994 0.051809
6041.20020 0.052245
6041.45996 0.053634
6041.72998 0.054435
6041.99023 0.056378
6042.25000 0.056098
6042.50977 0.057785
6042.77002 0.059032
6043.02979 0.060558
6043.29004 0.061902
6043.54980 0.063333
6043.81006 0.064323
6044.06982 0.065193
6044.33008 0.066882
6044.58984 0.06804
6044.85010 0.069931
6045.10986 0.071086
6045.37012 0.072762
6045.62988 0.074476
6045.89014 0.076466
6046.14990 0.076997
6046.41016 0.079331
6046.66992 0.080394
6046.93994 0.083055
6047.20020 0.084055
6047.45996 0.08559
6047.72021 0.087687
6047.97998 0.090173
6048.24023 0.091118
6048.50000 0.094252
6048.75977 0.096578
6049.02002 0.097869
6049.27979 0.099881
6049.54004 0.102765
6049.79980 0.104458
6050.06006 0.106489
6050.31982 0.109569
6050.58008 0.112283
6050.83984 0.113997
6051.10010 0.117243
6051.35986 0.119925
6051.62012 0.121871
6051.87988 0.124327
6052.14990 0.127468
6052.41016 0.130541
6052.66992 0.133687
6052.93018 0.137184
6053.18994 0.138871
6053.45020 0.143193
6053.70996 0.145887
6053.97021 0.14907
6054.22998 0.152837
6054.49023 0.156492
6054.75000 0.160729
6055.00977 0.162672
6055.27002 0.167446
6055.52979 0.171244
6055.79004 0.174545
6056.04980 0.17862
6056.31006 0.18237
6056.56982 0.186929
6056.83008 0.192012
6057.10010 0.194426
6057.35986 0.200356
6057.62012 0.203442
6057.87988 0.208278
6058.14014 0.213445
6058.39990 0.2167
6058.66016 0.221992
6058.91992 0.227087
6059.18018 0.232805
6059.43994 0.239191
6059.70020 0.243912
6059.95996 0.24888
6060.22021 0.25387
6060.47998 0.25849
6060.74023 0.266032
6061.00000 0.271604
6061.25977 0.275955
6061.52002 0.28242
6061.77979 0.288637
6062.04004 0.29446
6062.31006 0.301937
6062.56982 0.30578
6062.83008 0.314369
6063.08984 0.320084
6063.35010 0.324464
6063.60986 0.331671
6063.87012 0.33829
6064.12988 0.345253
6064.39014 0.352403
6064.64990 0.359945
6064.91016 0.366179
6065.16992 0.374876
6065.43018 0.380275
6065.68994 0.388332
6065.95020 0.394396
6066.20996 0.4005
6066.47021 0.408008
6066.72998 0.416549
6066.99023 0.424626
6067.25000 0.43122
6067.52002 0.436375
6067.77979 0.445396
6068.04004 0.451754
6068.29980 0.458638
6068.56006 0.466099
6068.81982 0.472732
6069.08008 0.478407
6069.33984 0.48652
6069.60010 0.494939
6069.85986 0.502946
6070.12012 0.506955
6070.37988 0.51464
6070.64014 0.51944
6070.89990 0.528114
6071.16016 0.535687
6071.41992 0.54124
6071.68018 0.549057
6071.93994 0.554365
6072.20020 0.560675
6072.45996 0.564972
6072.72998 0.571756
6072.99023 0.579565
6073.25000 0.583634
6073.50977 0.587696
6073.77002 0.594075
6074.02979 0.600973
6074.29004 0.607069
6074.54980 0.609861
6074.81006 0.613832
6075.06982 0.61832
6075.33008 0.623625
6075.58984 0.628203
6075.85010 0.634168
6076.10986 0.637324
6076.37012 0.641228
6076.62988 0.646183
6076.89014 0.649409
6077.14990 0.652595
6077.41016 0.657469
6077.66992 0.658156
6077.93994 0.664643
6078.20020 0.663041
6078.45996 0.671055
6078.72021 0.672291
6078.97998 0.672725
6079.24023 0.675961
6079.50000 0.681014
6079.75977 0.680508
6080.02002 0.684311
6080.27979 0.685075
6080.54004 0.685817
6080.79980 0.689007
6081.06006 0.692536
6081.31982 0.691837
6081.58008 0.690663
6081.83984 0.694294
6082.10010 0.694533
6082.35986 0.696113
6082.62012 0.69461
6082.87988 0.698687
6083.14990 0.697447
6083.41016 0.697522
6083.66992 0.701627
6083.93018 0.701843
6084.18994 0.70169
6084.45020 0.704102
6084.70996 0.700072
6084.97021 0.703898
6085.22998 0.702801
6085.49023 0.701787
6085.75000 0.70297
6086.00977 0.702832
6086.27002 0.700458
6086.52979 0.705153
6086.79004 0.703063
6087.04980 0.70186
6087.31006 0.703679
6087.56982 0.701461
6087.83008 0.700227
6088.08984 0.701413
6088.35010 0.702681
6088.62012 0.702254
6088.87988 0.69971
6089.14014 0.700013
6089.39990 0.699969
6089.66016 0.696433
6089.91992 0.698502
6090.18018 0.695821
6090.43994 0.697972
6090.70020 0.696601
6090.95996 0.696633
6091.22021 0.697159
6091.47998 0.698504
6091.74023 0.696719
6092.00000 0.69853
6092.25977 0.697773
6092.52002 0.695337
6092.77979 0.695903
6093.04004 0.694894
6093.29980 0.695955
6093.56006 0.69408
6093.83008 0.693755
6094.08984 0.691801
6094.35010 0.693117
6094.60986 0.693421
6094.87012 0.690553
6095.12988 0.694214
6095.39014 0.691355
6095.64990 0.69195
6095.91016 0.693624
6096.16992 0.690919
6096.43018 0.692405
6096.68994 0.693007
6096.95020 0.690921
6097.20996 0.691544
6097.47021 0.690369
6097.72998 0.69152
6097.99023 0.690544
6098.25000 0.687679
6098.50977 0.689309
6098.77002 0.690785
6099.04004 0.687749
6099.29980 0.691444
6099.56006 0.689098
6099.81982 0.690157
6100.08008 0.691244
6100.33984 0.690433
6100.60010 0.690072
6100.85986 0.689561
6101.12012 0.690228
6101.37988 0.691361
6101.64014 0.689536
6101.89990 0.690703
6102.16016 0.690778
6102.41992 0.692799
6102.68018 0.69294
6102.93994 0.690879
6103.20020 0.690738
6103.45996 0.68888
6103.72021 0.691817
6103.97998 0.690579
6104.25000 0.693785
6104.50977 0.692458
6104.77002 0.692658
6105.02979 0.691725
6105.29004 0.692614
6105.54980 0.69098
6105.81006 0.694822
6106.06982 0.693637
6106.33008 0.69271
6106.58984 0.694771
6106.85010 0.695652
6107.10986 0.695841
6107.37012 0.696061
6107.62988 0.697531
6107.89014 0.695235
6108.14990 0.696307
6108.41016 0.697221
6108.66992 0.697385
6108.93018 0.696874
6109.18994 0.695496
6109.45996 0.69768
6109.72021 0.698473
6109.97998 0.69954
6110.24023 0.70089
6110.50000 0.701198
6110.75977 0.699317
6111.02002 0.699701
6111.27979 0.701029
6111.54004 0.703714
6111.79980 0.701361
6112.06006 0.70043
6112.31982 0.702732
6112.58008 0.700795
6112.83984 0.700851
6113.10010 0.70415
6113.35986 0.704205
6113.62012 0.704816
6113.87988 0.705186
6114.14014 0.704495
6114.39990 0.704556
6114.66992 0.706349
6114.93018 0.706507
6115.18994 0.706929
6115.45020 0.705875
6115.70996 0.705438
6115.97021 0.70477
6116.22998 0.706089
6116.49023 0.709508
6116.75000 0.707414
6117.00977 0.709744
6117.27002 0.706918
6117.52979 0.71007
6117.79004 0.707613
6118.04980 0.708396
6118.31006 0.707852
6118.56982 0.708878
6118.83008 0.708836
6119.08984 0.708598
6119.35010 0.706892
6119.62012 0.712023
6119.87988 0.711774
6120.14014 0.708964
6120.39990 0.71069
6120.66016 0.706771
6120.91992 0.710781
6121.18018 0.709908
6121.43994 0.709944
6121.70020 0.709343
6121.95996 0.706639
6122.22021 0.708439
6122.47998 0.710274
6122.74023 0.711389
6123.00000 0.707
6123.25977 0.706201
6123.52002 0.707616
6123.77979 0.710027
6124.04004 0.709089
6124.29980 0.709224
6124.56006 0.708184
6124.83008 0.705675
6125.08984 0.707064
6125.35010 0.70682
6125.60986 0.707772
6125.87012 0.70795
6126.12988 0.704829
6126.39014 0.708173
6126.64990 0.706517
6126.91016 0.707283
6127.16992 0.706461
6127.43018 0.704895
6127.68994 0.704137
6127.95020 0.704694
6128.20996 0.705269
6128.47021 0.70729
6128.72998 0.704556
6128.99023 0.703975
6129.25000 0.70208
6129.50977 0.701579
6129.77002 0.702789
6130.04004 0.700843
6130.29980 0.704179
6130.56006 0.702881
6130.81982 0.704969
6131.08008 0.701335
6131.33984 0.700932
6131.60010 0.69877
6131.85986 0.699458
6132.12012 0.699275
6132.37988 0.698596
6132.64014 0.701047
6132.89990 0.700372
6133.16016 0.698286
6133.41992 0.699455
6133.68018 0.697911
6133.93994 0.698733
6134.20020 0.696287
6134.45996 0.697699
6134.72021 0.695834
6134.97998 0.696084
6135.25000 0.697185
6135.50977 0.694998
6135.77002 0.694357
6136.02979 0.694554
6136.29004 0.694928
6136.54980 0.696995
6136.81006 0.693261
6137.06982 0.693566
6137.33008 0.693899
6137.58984 0.692668
6137.85010 0.69207
6138.10986 0.691603
6138.37012 0.69119
6138.62988 0.692749
6138.89014 0.690987
6139.14990 0.689865
6139.41016 0.690671
6139.66992 0.690301
6139.93018 0.691347
6140.18994 0.688914
6140.45996 0.689935
6140.72021 0.689529
6140.97998 0.690556
6141.24023 0.689351
6141.50000 0.689806
6141.75977 0.691119
6142.02002 0.687799
6142.27979 0.687279
6142.54004 0.687612
6142.79980 0.687025
6143.06006 0.689712
6143.31982 0.691043
6143.58008 0.689218
6143.83984 0.687247
6144.10010 0.687546
6144.35986 0.691621
6144.62012 0.691174
6144.87988 0.688186
6145.14014 0.688721
6145.39990 0.690944
6145.66992 0.689516
6145.93018 0.687727
6146.18994 0.690034
6146.45020 0.689197
6146.70996 0.691023
6146.97021 0.690495
6147.22998 0.690268
6147.49023 0.690345
6147.75000 0.691544
6148.00977 0.692601
6148.27002 0.692683
6148.52979 0.692037
6148.79004 0.692013
6149.04980 0.693584
6149.31006 0.693644
6149.56982 0.694283
6149.83008 0.693937
6150.08984 0.695569
6150.35010 0.697339
6150.60986 0.697978
6150.87988 0.697009
6151.14014 0.696263
6151.39990 0.698839
6151.66016 0.699138
6151.91992 0.699464
6152.18018 0.698373
6152.43994 0.697412
6152.70020 0.699832
6152.95996 0.699128
6153.22021 0.702013
6153.47998 0.701618
6153.74023 0.703773
6154.00000 0.702389
6154.25977 0.705404
6154.52002 0.706151
6154.77979 0.706968
6155.04004 0.706973
6155.29980 0.711427
6155.56006 0.709645
6155.81982 0.708577
6156.08008 0.707911
6156.35010 0.712026
6156.60986 0.711474
6156.87012 0.712415
6157.12988 0.7112
6157.39014 0.712051
6157.64990 0.713337
6157.91016 0.714647
6158.16992 0.71614
6158.43018 0.717096
6158.68994 0.714771
6158.95020 0.717568
6159.20996 0.720221
6159.47021 0.719924
6159.72998 0.718474
6159.99023 0.719816
6160.25000 0.718301
6160.50977 0.719131
6160.77002 0.71892
6161.02979 0.721646
6161.29004 0.722035
6161.56006 0.718661
6161.81982 0.719146
6162.08008 0.721311
6162.33984 0.721098
6162.60010 0.720619
6162.85986 0.719628
6163.12012 0.718834
6163.37988 0.720447
6163.64014 0.71929
6163.89990 0.719011
6164.16016 0.715997
6164.41992 0.716611
6164.68018 0.715899
6164.93994 0.71436
6165.20020 0.715489
6165.45996 0.712895
6165.72021 0.70986
6165.97998 0.707996
6166.24023 0.708957
6166.50000 0.70626
6166.77002 0.707207
6167.02979 0.701936
6167.29004 0.70137
6167.54980 0.69805
6167.81006 0.694099
6168.06982 0.692709
6168.33008 0.691708
6168.58984 0.688274
6168.85010 0.6877
6169.10986 0.682108
6169.37012 0.67913
6169.62988 0.676325
6169.89014 0.67052
6170.14990 0.667281
6170.41016 0.667213
6170.66992 0.658397
6170.93018 0.655687
6171.18994 0.654245
6171.45020 0.646656
6171.70996 0.641344
6171.97998 0.640141
6172.24023 0.632945
6172.50000 0.626943
6172.75977 0.62276
6173.02002 0.61753
6173.27979 0.61316
6173.54004 0.605068
6173.79980 0.599868
6174.06006 0.592336
6174.31982 0.587964
6174.58008 0.580212
6174.83984 0.577293
6175.10010 0.569903
6175.35986 0.564729
6175.62012 0.553838
6175.87988 0.548841
6176.14014 0.544768
6176.39990 0.534668
6176.66016 0.529416
6176.91992 0.522735
6177.18994 0.516894
6177.45020 0.506734
6177.70996 0.502897
6177.97021 0.494143
6178.22998 0.487343
6178.49023 0.478604
6178.75000 0.473091
6179.00977 0.46578
6179.27002 0.456904
6179.52979 0.449943
6179.79004 0.445748
6180.04980 0.437295
6180.31006 0.430287
6180.56982 0.42199
6180.83008 0.415552
6181.08984 0.408309
6181.35010 0.402038
6181.60986 0.394164
6181.87012 0.387802
6182.12988 0.379975
6182.39990 0.373201
6182.66016 0.366253
6182.91992 0.360268
6183.18018 0.352911
6183.43994 0.347234
6183.70020 0.338825
6183.95996 0.333369
6184.22021 0.326907
6184.47998 0.321642
6184.74023 0.315405
6185.00000 0.308446
6185.25977 0.302946
6185.52002 0.295896
6185.77979 0.29109
6186.04004 0.285047
6186.29980 0.278596
6186.56006 0.275291
6186.81982 0.268278
6187.08008 0.26192
6187.35010 0.257415
6187.60986 0.25071
6187.87012 0.247144
6188.12988 0.242613
6188.39014 0.236702
6188.64990 0.231169
6188.91016 0.227508
6189.16992 0.223512
6189.43018 0.218173
6189.68994 0.21362
6189.95020 0.209471
6190.20996 0.204218
6190.47021 0.199716
6190.72998 0.195892
6190.99023 0.191762
6191.25000 0.187919
6191.50977 0.18352
6191.77002 0.179323
6192.02979 0.17562
6192.29004 0.172176
6192.56006 0.168694
6192.81982 0.165025
6193.08008 0.160919
6193.33984 0.158339
6193.60010 0.154862
6193.85986 0.152424
6194.12012 0.148104
6194.37988 0.144482
6194.64014 0.14217
6194.89990 0.140105
6195.16016 0.13654
6195.41992 0.13294
6195.68018 0.130582
6195.93994 0.127892
6196.20020 0.12506
6196.45996 0.122557
6196.72021 0.119945
6196.97998 0.117874
6197.24023 0.115251
6197.50000 0.113347
6197.77002 0.110896
6198.02979 0.108918
6198.29004 0.106171
6198.54980 0.104275
6198.81006 0.10157
6199.06982 0.099956
6199.33008 0.097311
6199.58984 0.095425
6199.85010 0.093579
6200.10986 0.092147
6200.37012 0.090655
6200.62988 0.088533
6200.89014 0.086268
6201.14990 0.085066
6201.41016 0.083707
6201.66992 0.081745
6201.93018 0.080209
6202.18994 0.078666
6202.45020 0.075954
6202.70996 0.075138
6202.97998 0.07472
6203.24023 0.072124
6203.50000 0.070933
6203.75977 0.069529
6204.02002 0.067997
6204.27979 0.067155
6204.54004 0.065964
6204.79980 0.06442
6205.06006 0.063336
6205.31982 0.062415
6205.58008 0.060225
6205.83984 0.060004
6206.10010 0.05854
6206.35986 0.057813
6206.62012 0.056449
6206.87988 0.05574
6207.14014 0.054537
6207.39990 0.053357
6207.66016 0.052969
6207.91992 0.051368
6208.18994 0.050305
6208.45020 0.049719
6208.70996 0.048941
6208.97021 0.0481
6209.22998 0.046912
6209.49023 0.046337
6209.75000 0.045324
6210.00977 0.044556
6210.27002 0.044075
6210.52979 0.042549
6210.79004 0.042436
6211.04980 0.041666
6211.31006 0.040805
6211.56982 0.039493
6211.83008 0.039707
6212.08984 0.039121
6212.35010 0.037987
6212.60986 0.037504
6212.87012 0.036669
6213.12988 0.036129
6213.39990 0.035566
6213.66016 0.035066
6213.91992 0.034311
6214.18018 0.034108
6214.43994 0.033656
6214.70020 0.032612
6214.95996 0.032093
6215.22021 0.031641
6215.47998 0.031371
6215.74023 0.030322
6216.00000 0.030089
6216.25977 0.029818
6216.52002 0.029324
6216.77979 0.028706
6217.04004 0.028319
6217.29980 0.027871
6217.56006 0.027361
6217.81982 0.026965
6218.08008 0.02695
6218.33984 0.026236
6218.60010 0.025743
6218.87012 0.025554
6219.12988 0.025082
6219.39014 0.024675
6219.64990 0.024078
6219.91016 0.023675
6220.16992 0.023423
6220.43018 0.023064
6220.68994 0.02267
6220.95020 0.022136
6221.20996 0.021941
6221.47021 0.021629
6221.72998 0.021443
6221.99023 0.020909
6222.25000 0.020711
6222.50977 0.02058
6222.77002 0.020289
6223.02979 0.020036
6223.29004 0.019471
6223.54980 0.01922
6223.81006 0.019169
6224.08008 0.018735
6224.33984 0.018664
6224.60010 0.018549
6224.85986 0.017773
6225.12012 0.017961
6225.37988 0.017493
6225.64014 0.017158
6225.89990 0.016904
6226.16016 0.016687
6226.41992 0.016377
6226.68018 0.0164
6226.93994 0.016196
6227.20020 0.015831
6227.45996 0.015604
6227.72021 0.015473
6227.97998 0.015119
6228.24023 0.015271
6228.50000 0.015015
6228.75977 0.01459
6229.02002 0.014388
6229.29004 0.013978
6229.54980 0.014134
6229.81006 0.013853
6230.06982 0.013794
6230.33008 0.013721
6230.58984 0.013488
6230.85010 0.013151
6231.10986 0.012895
6231.37012 0.012707
6231.62988 0.0128
6231.89014 0.012601
6232.14990 0.012104
6232.41016 0.012135
6232.66992 0.012151
6232.93018 0.012082
6233.18994 0.011577
6233.45020 0.011526
6233.70996 0.011437
6233.97021 0.011135
6234.22998 0.011145
6234.50000 0.011059
6234.75977 0.010777
6235.02002 0.010824
6235.27979 0.010501
6235.54004 0.01058
6235.79980 0.010511
6236.06006 0.010218
6236.31982 0.010279
6236.58008 0.010054
6236.83984 0.009904
6237.10010 0.009636
6237.35986 0.009535
6237.62012 0.009435
6237.87988 0.009474
6238.14014 0.009237
6238.39990 0.009142
6238.66016 0.009001
6238.91992 0.008988
6239.18018 0.008981
6239.43994 0.008774
6239.70996 0.008652
6239.97021 0.008455
6240.22998 0.008652
6240.49023 0.008233
6240.75000 0.008476
6241.00977 0.008148
6241.27002 0.008233
6241.52979 0.008061
6241.79004 0.008061
6242.04980 0.007859
6242.31006 0.007748
6242.56982 0.007728
6242.83008 0.007665
6243.08984 0.007735
6243.35010 0.007193
6243.60986 0.007268
6243.87012 0.007173
6244.12988 0.007488
6244.39014 0.00712
6244.64990 0.007105
6244.91992 0.006975
6245.18018 0.0068
6245.43994 0.006488
6245.70020 0.006772
6245.95996 0.006648
6246.22021 0.006732
6246.47998 0.006559
6246.74023 0.006387
6247.00000 0.006436
6247.25977 0.006348
6247.52002 0.006318
6247.77979 0.006196
6248.04004 0.00632
6248.29980 0.006011
6248.56006 0.00591
6248.81982 0.005972
6249.08008 0.005948
6249.33984 0.005957
6249.60010 0.005981
6249.87012 0.005815
6250.12988 0.005879
6250.39014 0.005835
6250.64990 0.005699
6250.91016 0.005542
6251.16992 0.005413
6251.43018 0.005568
6251.68994 0.00531
6251.95020 0.005197
6252.20996 0.005232
6252.47021 0.005186
6252.72998 0.005346
6252.99023 0.005272
6253.25000 0.005146
6253.50977 0.005098
6253.77002 0.005202
6254.02979 0.00502
6254.29004 0.004877
6254.54980 0.004912
6254.81006 0.004741
6255.08008 0.004724
6255.33984 0.00491
6255.60010 0.004719
6255.85986 0.004711
6256.12012 0.004418
6256.37988 0.004684
6256.64014 0.004497
6256.89990 0.004459
6257.16016 0.004298
6257.41992 0.004399
6257.68018 0.004415
6257.93994 0.004366
6258.20020 0.004172
6258.45996 0.004327
6258.72021 0.004126
6258.97998 0.004172
6259.24023 0.004125
6259.50000 0.004258
6259.75977 0.004035
6885.73584 0.0
