# %ECSV 0.9
# ---
# datatype:
# - {name: wavelength, unit: Angstrom, datatype: float32}
# - {name: response, datatype: float32}
# meta: !!omap
# - {band_name: f_572_21}
# - {group_name: CAHA}
wavelength response
4909.11279 0.0
5454.56982 0.004061
5454.83008 0.003982
5455.08984 0.003772
5455.35010 0.003884
5455.60986 0.00425
5455.87012 0.004227
5456.12988 0.004075
5456.39014 0.004127
5456.64990 0.004038
5456.91992 0.003772
5457.18018 0.004126
5457.43994 0.004319
5457.70020 0.004202
5457.95996 0.00403
5458.22021 0.003991
5458.47998 0.004127
5458.74023 0.004075
5459.00000 0.003993
5459.25977 0.004274
5459.52002 0.004375
5459.77979 0.004097
5460.04004 0.004282
5460.29980 0.004584
5460.56982 0.004385
5460.83008 0.004568
5461.08984 0.004452
5461.35010 0.004547
5461.60986 0.00412
5461.87012 0.00444
5462.12988 0.004599
5462.39014 0.004406
5462.64990 0.004484
5462.91016 0.004801
5463.16992 0.004631
5463.43018 0.00433
5463.68994 0.004689
5463.95020 0.00488
5464.22021 0.004645
5464.47998 0.004623
5464.74023 0.004926
5465.00000 0.004778
5465.25977 0.004811
5465.52002 0.00501
5465.77979 0.005039
5466.04004 0.004891
5466.29980 0.005093
5466.56006 0.004821
5466.81982 0.005194
5467.08008 0.004949
5467.33984 0.005085
5467.60010 0.005269
5467.87012 0.005203
5468.12988 0.005341
5468.39014 0.005283
5468.64990 0.005029
5468.91016 0.00527
5469.16992 0.005409
5469.43018 0.005253
5469.68994 0.00537
5469.95020 0.00529
5470.20996 0.005266
5470.47021 0.005262
5470.72998 0.005329
5470.99023 0.005378
5471.25000 0.005356
5471.50977 0.005638
5471.77979 0.005392
5472.04004 0.005492
5472.29980 0.005389
5472.56006 0.005496
5472.81982 0.005602
5473.08008 0.005531
5473.33984 0.005768
5473.60010 0.005683
5473.85986 0.005937
5474.12012 0.005849
5474.37988 0.005862
5474.64014 0.005688
5474.89990 0.006081
5475.16016 0.005982
5475.43018 0.005928
5475.68994 0.006
5475.95020 0.005862
5476.20996 0.005947
5476.47021 0.006244
5476.72998 0.006081
5476.99023 0.006233
5477.25000 0.006113
5477.50977 0.006348
5477.77002 0.006011
5478.02979 0.006296
5478.29004 0.006344
5478.54980 0.006034
5478.81006 0.006528
5479.08008 0.006221
5479.33984 0.006415
5479.60010 0.006722
5479.85986 0.0065
5480.12012 0.006762
5480.37988 0.006612
5480.64014 0.00667
5480.89990 0.006634
5481.16016 0.006654
5481.41992 0.006882
5481.68018 0.006826
5481.93994 0.006569
5482.20020 0.006794
5482.45996 0.006703
5482.72998 0.006894
5482.99023 0.007356
5483.25000 0.007087
5483.50977 0.007002
5483.77002 0.006983
5484.02979 0.007009
5484.29004 0.00731
5484.54980 0.006941
5484.81006 0.007039
5485.06982 0.007031
5485.33008 0.007188
5485.58984 0.007345
5485.85010 0.007354
5486.10986 0.00741
5486.37012 0.007133
5486.64014 0.007644
5486.89990 0.007915
5487.16016 0.007518
5487.41992 0.007386
5487.68018 0.007739
5487.93994 0.0077
5488.20020 0.007818
5488.45996 0.007627
5488.72021 0.007838
5488.97998 0.00836
5489.24023 0.007794
5489.50000 0.008082
5489.75977 0.00825
5490.02002 0.007901
5490.29004 0.008144
5490.54980 0.008292
5490.81006 0.008024
5491.06982 0.008572
5491.33008 0.008422
5491.58984 0.008432
5491.85010 0.008509
5492.10986 0.008351
5492.37012 0.008697
5492.62988 0.008326
5492.89014 0.008915
5493.14990 0.008613
5493.41016 0.008875
5493.66992 0.0091
5493.93994 0.008889
5494.20020 0.00937
5494.45996 0.008717
5494.72021 0.009144
5494.97998 0.009022
5495.24023 0.008969
5495.50000 0.009318
5495.75977 0.009335
5496.02002 0.009364
5496.27979 0.009688
5496.54004 0.009315
5496.79980 0.009466
5497.06006 0.009719
5497.31982 0.009453
5497.58008 0.009714
5497.85010 0.009853
5498.10986 0.009786
5498.37012 0.009732
5498.62988 0.010109
5498.89014 0.009979
5499.14990 0.010183
5499.41016 0.010047
5499.66992 0.009989
5499.93018 0.010013
5500.18994 0.010414
5500.45020 0.010066
5500.70996 0.010166
5500.97021 0.010261
5501.22998 0.010816
5501.50000 0.010597
5501.75977 0.010721
5502.02002 0.01086
5502.27979 0.010699
5502.54004 0.011077
5502.79980 0.010859
5503.06006 0.010876
5503.31982 0.010922
5503.58008 0.010866
5503.83984 0.011112
5504.10010 0.011158
5504.35986 0.011221
5504.62012 0.010875
5504.87988 0.011267
5505.14990 0.011425
5505.41016 0.011537
5505.66992 0.011624
5505.93018 0.011704
5506.18994 0.011719
5506.45020 0.011784
5506.70996 0.011924
5506.97021 0.011881
5507.22998 0.011719
5507.49023 0.01215
5507.75000 0.012238
5508.00977 0.012098
5508.27002 0.012697
5508.52979 0.012037
5508.79004 0.011977
5509.06006 0.012381
5509.31982 0.012119
5509.58008 0.0127
5509.83984 0.012624
5510.10010 0.012706
5510.35986 0.012828
5510.62012 0.012956
5510.87988 0.01292
5511.14014 0.013218
5511.39990 0.013019
5511.66016 0.013248
5511.91992 0.013351
5512.18018 0.013392
5512.43994 0.013238
5512.70996 0.01365
5512.97021 0.013304
5513.22998 0.013897
5513.49023 0.013814
5513.75000 0.013969
5514.00977 0.014028
5514.27002 0.014245
5514.52979 0.014194
5514.79004 0.01452
5515.04980 0.014524
5515.31006 0.014768
5515.56982 0.014245
5515.83008 0.014774
5516.08984 0.014393
5516.35010 0.015156
5516.62012 0.01533
5516.87988 0.015159
5517.14014 0.015059
5517.39990 0.015132
5517.66016 0.015218
5517.91992 0.015204
5518.18018 0.015493
5518.43994 0.015462
5518.70020 0.016176
5518.95996 0.015503
5519.22021 0.015691
5519.47998 0.015873
5519.74023 0.016179
5520.00000 0.016205
5520.27002 0.016191
5520.52979 0.016043
5520.79004 0.016591
5521.04980 0.016537
5521.31006 0.017041
5521.56982 0.016751
5521.83008 0.01683
5522.08984 0.017165
5522.35010 0.017175
5522.60986 0.017016
5522.87012 0.017179
5523.12988 0.017271
5523.39014 0.017682
5523.64990 0.01742
5523.91992 0.017687
5524.18018 0.01799
5524.43994 0.018495
5524.70020 0.018179
5524.95996 0.018266
5525.22021 0.018566
5525.47998 0.018233
5525.74023 0.018577
5526.00000 0.018551
5526.25977 0.018992
5526.52002 0.018762
5526.77979 0.019501
5527.04004 0.018723
5527.29980 0.019352
5527.56982 0.01957
5527.83008 0.019693
5528.08984 0.019439
5528.35010 0.019644
5528.60986 0.020222
5528.87012 0.020413
5529.12988 0.020572
5529.39014 0.020239
5529.64990 0.020082
5529.91016 0.02106
5530.16992 0.020724
5530.43018 0.021444
5530.68994 0.021404
5530.95020 0.021362
5531.22021 0.021593
5531.47998 0.021626
5531.74023 0.021936
5532.00000 0.021974
5532.25977 0.021788
5532.52002 0.021714
5532.77979 0.022221
5533.04004 0.022521
5533.29980 0.02257
5533.56006 0.022598
5533.81982 0.023035
5534.08008 0.022779
5534.33984 0.023263
5534.60010 0.024046
5534.85986 0.02356
5535.12988 0.024134
5535.39014 0.024001
5535.64990 0.024129
5535.91016 0.024581
5536.16992 0.024362
5536.43018 0.024362
5536.68994 0.024852
5536.95020 0.024991
5537.20996 0.025134
5537.47021 0.025988
5537.72998 0.025362
5537.99023 0.02575
5538.25000 0.025715
5538.50977 0.025852
5538.77979 0.025904
5539.04004 0.026841
5539.29980 0.026753
5539.56006 0.027115
5539.81982 0.026954
5540.08008 0.027418
5540.33984 0.026956
5540.60010 0.027434
5540.85986 0.027861
5541.12012 0.028191
5541.37988 0.028511
5541.64014 0.028324
5541.89990 0.028983
5542.16016 0.028858
5542.43018 0.028943
5542.68994 0.029267
5542.95020 0.02984
5543.20996 0.029564
5543.47021 0.029609
5543.72998 0.03018
5543.99023 0.03058
5544.25000 0.030343
5544.50977 0.030551
5544.77002 0.030935
5545.02979 0.031169
5545.29004 0.03151
5545.54980 0.03177
5545.81006 0.031586
5546.08008 0.032317
5546.33984 0.032107
5546.60010 0.03229
5546.85986 0.033091
5547.12012 0.033087
5547.37988 0.033069
5547.64014 0.033519
5547.89990 0.033675
5548.16016 0.034502
5548.41992 0.033913
5548.68018 0.034627
5548.93994 0.035367
5549.20020 0.035724
5549.45996 0.035125
5549.72021 0.035508
5549.99023 0.036079
5550.25000 0.036355
5550.50977 0.036372
5550.77002 0.036898
5551.02979 0.037449
5551.29004 0.036764
5551.54980 0.037963
5551.81006 0.038309
5552.06982 0.038671
5552.33008 0.038502
5552.58984 0.038783
5552.85010 0.038887
5553.10986 0.040013
5553.37012 0.039869
5553.64014 0.039982
5553.89990 0.04016
5554.16016 0.041095
5554.41992 0.041335
5554.68018 0.041767
5554.93994 0.041961
5555.20020 0.042168
5555.45996 0.042091
5555.72021 0.042747
5555.97998 0.043385
5556.24023 0.043713
5556.50000 0.043959
5556.75977 0.044205
5557.02002 0.044483
5557.29004 0.044369
5557.54980 0.04584
5557.81006 0.045546
5558.06982 0.046019
5558.33008 0.045675
5558.58984 0.046702
5558.85010 0.047124
5559.10986 0.047527
5559.37012 0.048076
5559.62988 0.048105
5559.89014 0.048017
5560.14990 0.049241
5560.41016 0.048963
5560.66992 0.050255
5560.93994 0.050203
5561.20020 0.050849
5561.45996 0.050505
5561.72021 0.050704
5561.97998 0.051663
5562.24023 0.052624
5562.50000 0.052919
5562.75977 0.053802
5563.02002 0.053977
5563.27979 0.054206
5563.54004 0.05514
5563.79980 0.055128
5564.06006 0.055187
5564.31982 0.055905
5564.58008 0.056171
5564.85010 0.05697
5565.10986 0.056348
5565.37012 0.057812
5565.62988 0.05809
5565.89014 0.058805
5566.14990 0.059511
5566.41016 0.059733
5566.66992 0.059992
5566.93018 0.060467
5567.18994 0.061377
5567.45020 0.061739
5567.70996 0.063441
5567.97021 0.063157
5568.22998 0.063189
5568.50000 0.064158
5568.75977 0.065194
5569.02002 0.064955
5569.27979 0.065646
5569.54004 0.065397
5569.79980 0.066705
5570.06006 0.068168
5570.31982 0.067993
5570.58008 0.068877
5570.83984 0.068964
5571.10010 0.070037
5571.35986 0.070828
5571.62012 0.070612
5571.87988 0.071077
5572.14990 0.072413
5572.41016 0.072268
5572.66992 0.073104
5572.93018 0.073862
5573.18994 0.074427
5573.45020 0.076242
5573.70996 0.076417
5573.97021 0.077573
5574.22998 0.077007
5574.49023 0.07867
5574.75000 0.078955
5575.00977 0.078496
5575.27002 0.080266
5575.52979 0.081455
5575.79004 0.081598
5576.06006 0.082437
5576.31982 0.083436
5576.58008 0.084593
5576.83984 0.084792
5577.10010 0.086427
5577.35986 0.086456
5577.62012 0.087742
5577.87988 0.087348
5578.14014 0.088149
5578.39990 0.089225
5578.66016 0.091238
5578.91992 0.091733
5579.18018 0.092423
5579.43994 0.09305
5579.70996 0.093695
5579.97021 0.094757
5580.22998 0.094426
5580.49023 0.096355
5580.75000 0.097539
5581.00977 0.098317
5581.27002 0.099136
5581.52979 0.099771
5581.79004 0.101009
5582.04980 0.101029
5582.31006 0.103007
5582.56982 0.103903
5582.83008 0.104673
5583.08984 0.105283
5583.35010 0.106509
5583.62012 0.107393
5583.87988 0.108275
5584.14014 0.108788
5584.39990 0.109743
5584.66016 0.110708
5584.91992 0.1113
5585.18018 0.113987
5585.43994 0.115485
5585.70020 0.114553
5585.95996 0.116631
5586.22021 0.117548
5586.47998 0.118417
5586.74023 0.118868
5587.00000 0.120657
5587.27002 0.122809
5587.52979 0.122855
5587.79004 0.124835
5588.04980 0.126652
5588.31006 0.126212
5588.56982 0.128183
5588.83008 0.131029
5589.08984 0.130897
5589.35010 0.131441
5589.60986 0.133536
5589.87012 0.134121
5590.12988 0.136478
5590.39014 0.136136
5590.64990 0.137996
5590.91992 0.139228
5591.18018 0.140559
5591.43994 0.142607
5591.70020 0.14336
5591.95996 0.143844
5592.22021 0.14587
5592.47998 0.14811
5592.74023 0.148824
5593.00000 0.150011
5593.25977 0.151489
5593.52002 0.152143
5593.77979 0.154094
5594.04004 0.155677
5594.29980 0.15786
5594.56982 0.159445
5594.83008 0.160611
5595.08984 0.159585
5595.35010 0.163695
5595.60986 0.165706
5595.87012 0.166615
5596.12988 0.168476
5596.39014 0.170127
5596.64990 0.171139
5596.91016 0.174179
5597.16992 0.174872
5597.43018 0.175818
5597.68994 0.178147
5597.95020 0.178521
5598.20996 0.181893
5598.47998 0.183119
5598.74023 0.184406
5599.00000 0.18544
5599.25977 0.188178
5599.52002 0.189023
5599.77979 0.192695
5600.04004 0.193545
5600.29980 0.19423
5600.56006 0.197919
5600.81982 0.200842
5601.08008 0.200215
5601.33984 0.201739
5601.60010 0.205024
5601.85986 0.207617
5602.12988 0.20836
5602.39014 0.210367
5602.64990 0.213319
5602.91016 0.21365
5603.16992 0.216899
5603.43018 0.218313
5603.68994 0.220325
5603.95020 0.222061
5604.20996 0.225617
5604.47021 0.227182
5604.72998 0.226966
5604.99023 0.230703
5605.25000 0.233029
5605.50977 0.233709
5605.77979 0.239523
5606.04004 0.238769
5606.29980 0.240664
5606.56006 0.242909
5606.81982 0.245936
5607.08008 0.247478
5607.33984 0.25137
5607.60010 0.251681
5607.85986 0.254797
5608.12012 0.257894
5608.37988 0.260157
5608.64014 0.261884
5608.89990 0.264936
5609.16016 0.265809
5609.43018 0.267473
5609.68994 0.271798
5609.95020 0.275973
5610.20996 0.275215
5610.47021 0.279514
5610.72998 0.2796
5610.99023 0.283559
5611.25000 0.285463
5611.50977 0.288903
5611.77002 0.290142
5612.02979 0.295189
5612.29004 0.295586
5612.54980 0.298106
5612.81006 0.302325
5613.06982 0.304235
5613.33984 0.305858
5613.60010 0.30838
5613.85986 0.313036
5614.12012 0.315996
5614.37988 0.315932
5614.64014 0.317866
5614.89990 0.322669
5615.16016 0.323971
5615.41992 0.329095
5615.68018 0.33068
5615.93994 0.332167
5616.20020 0.33579
5616.45996 0.337954
5616.72021 0.341014
5616.99023 0.341986
5617.25000 0.346142
5617.50977 0.348254
5617.77002 0.352005
5618.02979 0.356348
5618.29004 0.35744
5618.54980 0.359959
5618.81006 0.364132
5619.06982 0.367706
5619.33008 0.368282
5619.58984 0.371827
5619.85010 0.372155
5620.10986 0.376844
5620.37012 0.379843
5620.64014 0.383043
5620.89990 0.384329
5621.16016 0.38618
5621.41992 0.390111
5621.68018 0.394045
5621.93994 0.395602
5622.20020 0.399675
5622.45996 0.403555
5622.72021 0.404576
5622.97998 0.40826
5623.24023 0.412138
5623.50000 0.414402
5623.75977 0.416759
5624.02002 0.418483
5624.29004 0.420388
5624.54980 0.425982
5624.81006 0.428233
5625.06982 0.431518
5625.33008 0.432565
5625.58984 0.436254
5625.85010 0.441696
5626.10986 0.443907
5626.37012 0.44622
5626.62988 0.448303
5626.89014 0.450097
5627.14990 0.454304
5627.41016 0.456295
5627.66992 0.457898
5627.93018 0.461084
5628.20020 0.46553
5628.45996 0.468252
5628.72021 0.470735
5628.97998 0.472904
5629.24023 0.475239
5629.50000 0.481229
5629.75977 0.48369
5630.02002 0.483434
5630.27979 0.488459
5630.54004 0.490086
5630.79980 0.491854
5631.06006 0.496216
5631.31982 0.497602
5631.58008 0.500503
5631.85010 0.503407
5632.10986 0.505349
5632.37012 0.506949
5632.62988 0.508807
5632.89014 0.51453
5633.14990 0.514269
5633.41016 0.519672
5633.66992 0.521346
5633.93018 0.521332
5634.18994 0.526787
5634.45020 0.527783
5634.70996 0.528287
5634.97021 0.532688
5635.22998 0.538064
5635.50000 0.536129
5635.75977 0.539832
5636.02002 0.542226
5636.27979 0.545394
5636.54004 0.546713
5636.79980 0.549975
5637.06006 0.553211
5637.31982 0.556662
5637.58008 0.559502
5637.83984 0.55904
5638.10010 0.562477
5638.35986 0.56143
5638.62012 0.566167
5638.87988 0.568467
5639.14990 0.571414
5639.41016 0.573836
5639.66992 0.574639
5639.93018 0.573144
5640.18994 0.576357
5640.45020 0.579915
5640.70996 0.582921
5640.97021 0.582146
5641.22998 0.585063
5641.49023 0.586538
5641.75000 0.587597
5642.00977 0.58994
5642.27002 0.59235
5642.52979 0.593607
5642.79004 0.594289
5643.06006 0.597852
5643.31982 0.603391
5643.58008 0.604429
5643.83984 0.603463
5644.10010 0.603382
5644.35986 0.605973
5644.62012 0.610302
5644.87988 0.610496
5645.14014 0.60976
5645.39990 0.615803
5645.66016 0.615154
5645.91992 0.617273
5646.18018 0.617505
5646.43994 0.617849
5646.70996 0.619226
5646.97021 0.618279
5647.22998 0.624359
5647.49023 0.623823
5647.75000 0.62497
5648.00977 0.628439
5648.27002 0.628029
5648.52979 0.629676
5648.79004 0.631704
5649.04980 0.633537
5649.31006 0.633261
5649.56982 0.631749
5649.83008 0.635798
5650.08984 0.637561
5650.35010 0.636843
5650.62012 0.635673
5650.87988 0.640243
5651.14014 0.643136
5651.39990 0.63966
5651.66016 0.641943
5651.91992 0.643567
5652.18018 0.643941
5652.43994 0.646456
5652.70020 0.646782
5652.95996 0.647935
5653.22021 0.646054
5653.47998 0.64679
5653.74023 0.650262
5654.00000 0.651358
5654.27002 0.652003
5654.52979 0.653112
5654.79004 0.65481
5655.04980 0.653572
5655.31006 0.65386
5655.56982 0.655414
5655.83008 0.653757
5656.08984 0.654884
5656.35010 0.656282
5656.60986 0.655541
5656.87012 0.657299
5657.12988 0.660621
5657.39014 0.658157
5657.64990 0.660123
5657.91992 0.660682
5658.18018 0.661028
5658.43994 0.661914
5658.70020 0.659937
5658.95996 0.662214
5659.22021 0.661685
5659.47998 0.663852
5659.74023 0.663413
5660.00000 0.665221
5660.25977 0.664959
5660.52002 0.664045
5660.77979 0.664352
5661.04004 0.662809
5661.29980 0.668601
5661.56006 0.665531
5661.83008 0.666263
5662.08984 0.668453
5662.35010 0.66708
5662.60986 0.668469
5662.87012 0.664943
5663.12988 0.666122
5663.39014 0.668727
5663.64990 0.668519
5663.91016 0.668429
5664.16992 0.670272
5664.43018 0.669875
5664.68994 0.665412
5664.95020 0.67036
5665.20996 0.667235
5665.47998 0.669823
5665.74023 0.672098
5666.00000 0.67046
5666.25977 0.669986
5666.52002 0.671657
5666.77979 0.669065
5667.04004 0.67061
5667.29980 0.669948
5667.56006 0.672233
5667.81982 0.67158
5668.08008 0.672088
5668.33984 0.670425
5668.60010 0.669422
5668.85986 0.671196
5669.12988 0.672303
5669.39014 0.675091
5669.64990 0.668344
5669.91016 0.669871
5670.16992 0.669967
5670.43018 0.671487
5670.68994 0.672323
5670.95020 0.672109
5671.20996 0.673874
5671.47021 0.67092
5671.72998 0.6695
5671.99023 0.669863
5672.25000 0.672031
5672.50977 0.670783
5672.77979 0.673788
5673.04004 0.672846
5673.29980 0.669601
5673.56006 0.67284
5673.81982 0.670273
5674.08008 0.670659
5674.33984 0.67124
5674.60010 0.673104
5674.85986 0.672304
5675.12012 0.670643
5675.37988 0.669087
5675.64014 0.668735
5675.89990 0.670622
5676.16016 0.669236
5676.41992 0.671965
5676.68994 0.670972
5676.95020 0.670755
5677.20996 0.670297
5677.47021 0.666867
5677.72998 0.669796
5677.99023 0.671613
5678.25000 0.669453
5678.50977 0.670695
5678.77002 0.668627
5679.02979 0.672129
5679.29004 0.670814
5679.54980 0.66904
5679.81006 0.6648
5680.06982 0.670407
5680.33984 0.667331
5680.60010 0.668548
5680.85986 0.670104
5681.12012 0.670613
5681.37988 0.669046
5681.64014 0.668211
5681.89990 0.667307
5682.16016 0.668769
5682.41992 0.670084
5682.68018 0.667129
5682.93994 0.66877
5683.20020 0.665122
5683.45996 0.665663
5683.72021 0.66856
5683.99023 0.664353
5684.25000 0.666427
5684.50977 0.666207
5684.77002 0.667291
5685.02979 0.667385
5685.29004 0.665248
5685.54980 0.665394
5685.81006 0.667421
5686.06982 0.667176
5686.33008 0.666881
5686.58984 0.667988
5686.85010 0.665386
5687.10986 0.665039
5687.37012 0.669258
5687.64014 0.666806
5687.89990 0.664433
5688.16016 0.66632
5688.41992 0.664849
5688.68018 0.664368
5688.93994 0.665102
5689.20020 0.665038
5689.45996 0.666644
5689.72021 0.665226
5689.97998 0.663844
5690.24023 0.664396
5690.50000 0.66674
5690.75977 0.663482
5691.02002 0.664612
5691.27979 0.663872
5691.54980 0.66294
5691.81006 0.662263
5692.06982 0.664862
5692.33008 0.661357
5692.58984 0.659831
5692.85010 0.665059
5693.10986 0.664131
5693.37012 0.663777
5693.62988 0.664892
5693.89014 0.663836
5694.14990 0.661321
5694.41016 0.660528
5694.66992 0.6593
5694.93018 0.661893
5695.20020 0.66348
5695.45996 0.661055
5695.72021 0.664027
5695.97998 0.6638
5696.24023 0.662622
5696.50000 0.663012
5696.75977 0.659026
5697.02002 0.658643
5697.27979 0.662756
5697.54004 0.66095
5697.79980 0.663842
5698.06006 0.659892
5698.31982 0.65993
5698.58008 0.660657
5698.85010 0.658966
5699.10986 0.661885
5699.37012 0.661865
5699.62988 0.660724
5699.89014 0.658484
5700.14990 0.660123
5700.41016 0.659473
5700.66992 0.659905
5700.93018 0.660454
5701.18994 0.658427
5701.45020 0.658532
5701.70996 0.659312
5701.97021 0.660596
5702.22998 0.657654
5702.50000 0.65937
5702.75977 0.660526
5703.02002 0.659607
5703.27979 0.657518
5703.54004 0.657832
5703.79980 0.659823
5704.06006 0.65716
5704.31982 0.658207
5704.58008 0.657298
5704.83984 0.659286
5705.10010 0.656333
5705.35986 0.65757
5705.62012 0.660426
5705.87988 0.657087
5706.14990 0.657766
5706.41016 0.658436
5706.66992 0.657713
5706.93018 0.658575
5707.18994 0.656683
5707.45020 0.657389
5707.70996 0.657543
5707.97021 0.659253
5708.22998 0.657402
5708.49023 0.658373
5708.75000 0.654555
5709.00977 0.65841
5709.27002 0.658916
5709.52979 0.659029
5709.79004 0.657194
5710.06006 0.658321
5710.31982 0.654526
5710.58008 0.657715
5710.83984 0.65368
5711.10010 0.654089
5711.35986 0.652398
5711.62012 0.654213
5711.87988 0.656179
5712.14014 0.654871
5712.39990 0.653315
5712.66016 0.658256
5712.91992 0.655615
5713.18018 0.656197
5713.43994 0.654695
5713.70996 0.654484
5713.97021 0.656989
5714.22998 0.65357
5714.49023 0.65766
5714.75000 0.653191
5715.00977 0.655716
5715.27002 0.653704
5715.52979 0.655036
5715.79004 0.656577
5716.04980 0.656338
5716.31006 0.654988
5716.56982 0.653591
5716.83008 0.658105
5717.08984 0.656517
5717.35010 0.655337
5717.62012 0.65468
5717.87988 0.654725
5718.14014 0.653525
5718.39990 0.657627
5718.66016 0.654164
5718.91992 0.654533
5719.18018 0.654112
5719.43994 0.652081
5719.70020 0.652252
5719.95996 0.653773
5720.22021 0.651637
5720.47998 0.651328
5720.74023 0.654969
5721.00000 0.654339
5721.27002 0.653207
5721.52979 0.653657
5721.79004 0.653679
5722.04980 0.65293
5722.31006 0.652188
5722.56982 0.650748
5722.83008 0.654415
5723.08984 0.653392
5723.35010 0.651847
5723.60986 0.651494
5723.87012 0.650512
5724.12988 0.655276
5724.39014 0.652304
5724.64990 0.655064
5724.91992 0.652612
5725.18018 0.652618
5725.43994 0.652284
5725.70020 0.653996
5725.95996 0.650158
5726.22021 0.649427
5726.47998 0.651491
5726.74023 0.650626
5727.00000 0.650896
5727.25977 0.651397
5727.52002 0.650126
5727.77979 0.65214
5728.04004 0.651068
5728.29980 0.650352
5728.56006 0.650641
5728.83008 0.651455
5729.08984 0.651805
5729.35010 0.649063
5729.60986 0.649074
5729.87012 0.6509
5730.12988 0.647956
5730.39014 0.649789
5730.64990 0.650132
5730.91016 0.65234
5731.16992 0.647357
5731.43018 0.649916
5731.68994 0.648712
5731.95020 0.647132
5732.20996 0.651027
5732.47998 0.650567
5732.74023 0.646664
5733.00000 0.649067
5733.25977 0.651119
5733.52002 0.649571
5733.77979 0.648386
5734.04004 0.645037
5734.29980 0.65033
5734.56006 0.648909
5734.81982 0.646217
5735.08008 0.647569
5735.33984 0.648056
5735.60010 0.646363
5735.85986 0.645362
5736.12988 0.647058
5736.39014 0.650108
5736.64990 0.648577
5736.91016 0.646834
5737.16992 0.645563
5737.43018 0.648111
5737.68994 0.646869
5737.95020 0.649123
5738.20996 0.646496
5738.47021 0.645019
5738.72998 0.645724
5738.99023 0.647864
5739.25000 0.64655
5739.50977 0.647408
5739.77002 0.648118
5740.04004 0.645621
5740.29980 0.646448
5740.56006 0.642599
5740.81982 0.646072
5741.08008 0.649349
5741.33984 0.644941
5741.60010 0.642562
5741.85986 0.645948
5742.12012 0.643442
5742.37988 0.646001
5742.64014 0.644954
5742.89990 0.644393
5743.16016 0.642683
5743.41992 0.644426
5743.68994 0.646607
5743.95020 0.644646
5744.20996 0.644866
5744.47021 0.644472
5744.72998 0.64452
5744.99023 0.643661
5745.25000 0.644651
5745.50977 0.646055
5745.77002 0.643332
5746.02979 0.641742
5746.29004 0.642241
5746.54980 0.643034
5746.81006 0.639697
5747.06982 0.641052
5747.33984 0.642518
5747.60010 0.643163
5747.85986 0.641973
5748.12012 0.643468
5748.37988 0.638985
5748.64014 0.639055
5748.89990 0.640483
5749.16016 0.641563
5749.41992 0.641077
5749.68018 0.643237
5749.93994 0.640416
5750.20020 0.640865
5750.45996 0.637712
5750.72021 0.636876
5750.99023 0.640789
5751.25000 0.640083
5751.50977 0.63982
5751.77002 0.636424
5752.02979 0.64065
5752.29004 0.638542
5752.54980 0.637939
5752.81006 0.641337
5753.06982 0.639354
5753.33008 0.639912
5753.58984 0.639202
5753.85010 0.63881
5754.10986 0.640514
5754.37012 0.637423
5754.62988 0.639779
5754.89990 0.636047
5755.16016 0.640573
5755.41992 0.63737
5755.68018 0.635572
5755.93994 0.637409
5756.20020 0.63477
5756.45996 0.635643
5756.72021 0.63466
5756.97998 0.637401
5757.24023 0.63708
5757.50000 0.636904
5757.75977 0.634279
5758.02002 0.636236
5758.27979 0.632043
5758.54980 0.635026
5758.81006 0.635594
5759.06982 0.635366
5759.33008 0.63572
5759.58984 0.633171
5759.85010 0.633992
5760.10986 0.634539
5760.37012 0.633752
5760.62988 0.635871
5760.89014 0.631701
5761.14990 0.634178
5761.41016 0.631102
5761.66992 0.631581
5761.93018 0.632157
5762.20020 0.632956
5762.45996 0.631038
5762.72021 0.63292
5762.97998 0.632474
5763.24023 0.632937
5763.50000 0.632355
5763.75977 0.632143
5764.02002 0.631353
5764.27979 0.631702
5764.54004 0.6315
5764.79980 0.632246
5765.06006 0.630931
5765.31982 0.628318
5765.58008 0.629294
5765.85010 0.629155
5766.10986 0.629411
5766.37012 0.626539
5766.62988 0.626155
5766.89014 0.625522
5767.14990 0.628952
5767.41016 0.628295
5767.66992 0.626306
5767.93018 0.629424
5768.18994 0.625113
5768.45020 0.628213
5768.70996 0.626275
5768.97021 0.623634
5769.22998 0.622551
5769.50000 0.62455
5769.75977 0.624366
5770.02002 0.622487
5770.27979 0.622654
5770.54004 0.623536
5770.79980 0.623135
5771.06006 0.623248
5771.31982 0.621395
5771.58008 0.621574
5771.83984 0.621434
5772.10010 0.622645
5772.35986 0.620694
5772.62012 0.622563
5772.87988 0.621021
5773.14014 0.62085
5773.41016 0.620001
5773.66992 0.619949
5773.93018 0.616582
5774.18994 0.620744
5774.45020 0.618724
5774.70996 0.617215
5774.97021 0.617005
5775.22998 0.61596
5775.49023 0.616802
5775.75000 0.616483
5776.00977 0.616932
5776.27002 0.61469
5776.52979 0.614252
5776.79004 0.614778
5777.06006 0.612328
5777.31982 0.614678
5777.58008 0.615413
5777.83984 0.614317
5778.10010 0.614011
5778.35986 0.610665
5778.62012 0.610994
5778.87988 0.609703
5779.14014 0.609409
5779.39990 0.608694
5779.66016 0.609794
5779.91992 0.608285
5780.18018 0.606421
5780.43994 0.610218
5780.70996 0.607195
5780.97021 0.60812
5781.22998 0.604073
5781.49023 0.603074
5781.75000 0.604967
5782.00977 0.603396
5782.27002 0.603148
5782.52979 0.602234
5782.79004 0.601287
5783.04980 0.598935
5783.31006 0.601851
5783.56982 0.599759
5783.83008 0.600982
5784.08984 0.597798
5784.35010 0.597886
5784.62012 0.599044
5784.87988 0.595144
5785.14014 0.594119
5785.39990 0.593003
5785.66016 0.596033
5785.91992 0.592586
5786.18018 0.592009
5786.43994 0.59157
5786.70020 0.591366
5786.95996 0.590409
5787.22021 0.590972
5787.47998 0.587136
5787.74023 0.590386
5788.00000 0.587714
5788.27002 0.58632
5788.52979 0.58734
5788.79004 0.585591
5789.04980 0.583234
5789.31006 0.584949
5789.56982 0.580293
5789.83008 0.58086
5790.08984 0.58016
5790.35010 0.57767
5790.60986 0.580512
5790.87012 0.57747
5791.12988 0.578485
5791.39014 0.57395
5791.64990 0.57434
5791.91992 0.575102
5792.18018 0.573385
5792.43994 0.567515
5792.70020 0.569013
5792.95996 0.56941
5793.22021 0.567675
5793.47998 0.566805
5793.74023 0.565095
5794.00000 0.565253
5794.25977 0.564938
5794.52002 0.563339
5794.77979 0.559984
5795.04004 0.558116
5795.29980 0.559176
5795.56006 0.558498
5795.83008 0.557752
5796.08984 0.554747
5796.35010 0.556661
5796.60986 0.551329
5796.87012 0.551567
5797.12988 0.552858
5797.39014 0.550127
5797.64990 0.547305
5797.91016 0.548369
5798.16992 0.544912
5798.43018 0.543048
5798.68994 0.544934
5798.95020 0.54246
5799.20996 0.540571
5799.47998 0.539217
5799.74023 0.538438
5800.00000 0.535899
5800.25977 0.535398
5800.52002 0.532928
5800.77979 0.53415
5801.04004 0.529909
5801.29980 0.53079
5801.56006 0.527079
5801.81982 0.527361
5802.08008 0.52442
5802.33984 0.522967
5802.60010 0.521871
5802.85986 0.51967
5803.12012 0.519194
5803.39014 0.516791
5803.64990 0.512976
5803.91016 0.516952
5804.16992 0.512267
5804.43018 0.510135
5804.68994 0.507457
5804.95020 0.50726
5805.20996 0.504839
5805.47021 0.5037
5805.72998 0.505145
5805.99023 0.498396
5806.25000 0.498648
5806.50977 0.498084
5806.77002 0.495321
5807.04004 0.495473
5807.29980 0.490238
5807.56006 0.48995
5807.81982 0.4883
5808.08008 0.485226
5808.33984 0.485652
5808.60010 0.481552
5808.85986 0.481214
5809.12012 0.479871
5809.37988 0.476048
5809.64014 0.474452
5809.89990 0.475188
5810.16016 0.471188
5810.41992 0.470016
5810.68994 0.466831
5810.95020 0.466192
5811.20996 0.465673
5811.47021 0.460361
5811.72998 0.457994
5811.99023 0.456776
5812.25000 0.454552
5812.50977 0.454415
5812.77002 0.450551
5813.02979 0.448567
5813.29004 0.446834
5813.54980 0.444387
5813.81006 0.44362
5814.06982 0.444236
5814.33984 0.438732
5814.60010 0.436993
5814.85986 0.43548
5815.12012 0.434669
5815.37988 0.430012
5815.64014 0.431589
5815.89990 0.425198
5816.16016 0.425543
5816.41992 0.422986
5816.68018 0.421303
5816.93994 0.419061
5817.20020 0.416582
5817.45996 0.413083
5817.72021 0.411712
5817.97998 0.411099
5818.25000 0.408012
5818.50977 0.405101
5818.77002 0.405417
5819.02979 0.399442
5819.29004 0.398096
5819.54980 0.398309
5819.81006 0.394917
5820.06982 0.392527
5820.33008 0.389136
5820.58984 0.38801
5820.85010 0.386945
5821.10986 0.380928
5821.37012 0.378487
5821.62988 0.377384
5821.89990 0.376418
5822.16016 0.374484
5822.41992 0.371585
5822.68018 0.37024
5822.93994 0.367466
5823.20020 0.365854
5823.45996 0.36125
5823.72021 0.362152
5823.97998 0.35736
5824.24023 0.355929
5824.50000 0.354364
5824.75977 0.35157
5825.02002 0.350247
5825.27979 0.347715
5825.54980 0.344311
5825.81006 0.341349
5826.06982 0.34108
5826.33008 0.339453
5826.58984 0.334863
5826.85010 0.332248
5827.10986 0.332087
5827.37012 0.329904
5827.62988 0.327918
5827.89014 0.324746
5828.14990 0.322783
5828.41016 0.320006
5828.66992 0.317515
5828.93018 0.313747
5829.20020 0.312812
5829.45996 0.311793
5829.72021 0.30908
5829.97998 0.307432
5830.24023 0.302291
5830.50000 0.301875
5830.75977 0.300551
5831.02002 0.297945
5831.27979 0.29405
5831.54004 0.293896
5831.79980 0.290368
5832.06006 0.288901
5832.31982 0.286461
5832.58008 0.284565
5832.85010 0.281843
5833.10986 0.280685
5833.37012 0.27742
5833.62988 0.27535
5833.89014 0.272472
5834.14990 0.27267
5834.41016 0.269386
5834.66992 0.26713
5834.93018 0.266046
5835.18994 0.262277
5835.45020 0.262066
5835.70996 0.258594
5835.97021 0.256205
5836.22998 0.253242
5836.49023 0.252423
5836.75977 0.24987
5837.02002 0.248964
5837.27979 0.246091
5837.54004 0.24481
5837.79980 0.242203
5838.06006 0.241112
5838.31982 0.238576
5838.58008 0.235151
5838.83984 0.234038
5839.10010 0.230859
5839.35986 0.229173
5839.62012 0.228082
5839.87988 0.226257
5840.14014 0.224435
5840.41016 0.222879
5840.66992 0.221569
5840.93018 0.219174
5841.18994 0.21709
5841.45020 0.216045
5841.70996 0.214282
5841.97021 0.211851
5842.22998 0.210578
5842.49023 0.208674
5842.75000 0.206114
5843.00977 0.204632
5843.27002 0.202209
5843.52979 0.200054
5843.79004 0.199244
5844.06006 0.197108
5844.31982 0.196725
5844.58008 0.193676
5844.83984 0.192074
5845.10010 0.189753
5845.35986 0.189531
5845.62012 0.18821
5845.87988 0.186156
5846.14014 0.183312
5846.39990 0.181533
5846.66016 0.181315
5846.91992 0.178245
5847.18018 0.177216
5847.43994 0.175835
5847.70996 0.174515
5847.97021 0.172496
5848.22998 0.170819
5848.49023 0.169855
5848.75000 0.168209
5849.00977 0.165553
5849.27002 0.165126
5849.52979 0.163733
5849.79004 0.161267
5850.04980 0.161558
5850.31006 0.158386
5850.56982 0.15749
5850.83008 0.155365
5851.08984 0.154361
5851.35010 0.153438
5851.62012 0.15066
5851.87988 0.149455
5852.14014 0.148251
5852.39990 0.147147
5852.66016 0.144974
5852.91992 0.144337
5853.18018 0.142948
5853.43994 0.141409
5853.70020 0.140154
5853.95996 0.138871
5854.22021 0.137913
5854.47998 0.135691
5854.74023 0.135624
5855.00000 0.13327
5855.27002 0.132297
5855.52979 0.130903
5855.79004 0.130966
5856.04980 0.128305
5856.31006 0.127726
5856.56982 0.125997
5856.83008 0.125917
5857.08984 0.124166
5857.35010 0.122879
5857.60986 0.121617
5857.87012 0.12141
5858.12988 0.119333
5858.39014 0.118786
5858.64990 0.117178
5858.91992 0.115715
5859.18018 0.113939
5859.43994 0.114279
5859.70020 0.112706
5859.95996 0.111762
5860.22021 0.10976
5860.47998 0.10946
5860.74023 0.108987
5861.00000 0.108086
5861.25977 0.105564
5861.52002 0.105282
5861.77979 0.104755
5862.04004 0.103121
5862.29980 0.101622
5862.56006 0.101207
5862.83008 0.100059
5863.08984 0.099295
5863.35010 0.098467
5863.60986 0.097225
5863.87012 0.096655
5864.12988 0.095162
5864.39014 0.094276
5864.64990 0.093961
5864.91016 0.092318
5865.16992 0.088747
5865.43018 0.090851
5865.68994 0.089965
5865.95020 0.089807
5866.20996 0.08825
5866.47998 0.087776
5866.74023 0.08754
5867.00000 0.085659
5867.25977 0.085958
5867.52002 0.084822
5867.77979 0.083526
5868.04004 0.082437
5868.29980 0.082107
5868.56006 0.081035
5868.81982 0.080939
5869.08008 0.079497
5869.33984 0.079467
5869.60010 0.07781
5869.85986 0.077919
5870.12012 0.077208
5870.39014 0.075897
5870.64990 0.075234
5870.91016 0.074346
5871.16992 0.074447
5871.43018 0.073274
5871.68994 0.071954
5871.95020 0.070915
5872.20996 0.070414
5872.47021 0.070075
5872.72998 0.070232
5872.99023 0.068471
5873.25000 0.068366
5873.50977 0.067711
5873.77002 0.066986
5874.04004 0.066683
5874.29980 0.06574
5874.56006 0.065373
5874.81982 0.065063
5875.08008 0.06399
5875.33984 0.063778
5875.60010 0.063335
5875.85986 0.062524
5876.12012 0.061279
5876.37988 0.061482
5876.64014 0.060101
5876.89990 0.05945
5877.16016 0.058823
5877.41992 0.058309
5877.68994 0.057699
5877.95020 0.057408
5878.20996 0.056825
5878.47021 0.056675
5878.72998 0.055196
5878.99023 0.054972
5879.25000 0.054733
5879.50977 0.054701
5879.77002 0.053879
5880.02979 0.052983
5880.29004 0.053168
5880.54980 0.052113
5880.81006 0.052404
5881.06982 0.051142
5881.33008 0.050776
5881.60010 0.050576
5881.85986 0.05025
5882.12012 0.049881
5882.37988 0.049169
5882.64014 0.048234
5882.89990 0.048092
5883.16016 0.047842
5883.41992 0.047119
5883.68018 0.046881
5883.93994 0.04653
5884.20020 0.045322
5884.45996 0.045814
5884.72021 0.045024
5884.97998 0.044856
5885.25000 0.044124
5885.50977 0.043784
5885.77002 0.042558
5886.02979 0.042394
5886.29004 0.042967
5886.54980 0.042611
5886.81006 0.041907
5887.06982 0.041444
5887.33008 0.040803
5887.58984 0.040608
5887.85010 0.039958
5888.10986 0.039968
5888.37012 0.039607
5888.62988 0.038968
5888.89990 0.039102
5889.16016 0.038387
5889.41992 0.038206
5889.68018 0.037578
5889.93994 0.03768
5890.20020 0.037155
5890.45996 0.037016
5890.72021 0.036547
5890.97998 0.036224
5891.24023 0.035446
5891.50000 0.035298
5891.75977 0.035493
5892.02002 0.034554
5892.27979 0.034602
5892.54980 0.034273
5892.81006 0.034168
5893.06982 0.033386
5893.33008 0.033632
5893.58984 0.032801
5893.85010 0.033054
5894.10986 0.032382
5894.37012 0.031896
5894.62988 0.031573
5894.89014 0.031316
5895.14990 0.030982
5895.41016 0.03085
5895.66992 0.030676
5895.93018 0.030723
5896.20020 0.030464
5896.45996 0.02957
5896.72021 0.029584
5896.97998 0.029692
5897.24023 0.029157
5897.50000 0.028655
5897.75977 0.028091
5898.02002 0.028598
5898.27979 0.02795
5898.54004 0.028311
5898.79980 0.028019
5899.06006 0.027274
5899.31982 0.026737
5899.58008 0.027031
5899.83984 0.026942
5900.10986 0.026699
5900.37012 0.026158
5900.62988 0.02608
5900.89014 0.026048
5901.14990 0.02582
5901.41016 0.025568
5901.66992 0.025083
5901.93018 0.024621
5902.18994 0.024955
5902.45020 0.024008
5902.70996 0.024265
5902.97021 0.024289
5903.22998 0.024007
5903.49023 0.024108
5903.75977 0.023566
5904.02002 0.023199
5904.27979 0.023141
5904.54004 0.022805
5904.79980 0.022464
5905.06006 0.022928
5905.31982 0.022785
5905.58008 0.02216
5905.83984 0.021782
5906.10010 0.021579
5906.35986 0.021499
5906.62012 0.021598
5906.87988 0.021234
5907.14014 0.021154
5907.41016 0.02074
5907.66992 0.020433
5907.93018 0.020167
5908.18994 0.020434
5908.45020 0.020063
5908.70996 0.019633
5908.97021 0.020042
5909.22998 0.019177
5909.49023 0.019408
5909.75000 0.01951
5910.00977 0.019455
5910.27002 0.019154
5910.52979 0.018741
5910.79004 0.018299
5911.06006 0.018423
5911.31982 0.018445
5911.58008 0.018453
5911.83984 0.017647
5912.10010 0.017957
5912.35986 0.018051
5912.62012 0.017554
5912.87988 0.017434
5913.14014 0.017266
5913.39990 0.016843
5913.66016 0.016954
5913.91992 0.016857
5914.18018 0.016798
5914.43994 0.016881
5914.70020 0.01693
5914.97021 0.016603
5915.22998 0.015945
5915.49023 0.016174
5915.75000 0.016247
5916.00977 0.01596
5916.27002 0.01597
5916.52979 0.015469
5916.79004 0.015643
5917.04980 0.015099
5917.31006 0.015461
5917.56982 0.015352
5917.83008 0.01526
5918.08984 0.015359
5918.35010 0.014693
5918.62012 0.014794
5918.87988 0.01433
5919.14014 0.014161
5919.39990 0.014246
5919.66016 0.014415
5919.91992 0.013972
5920.18018 0.013929
5920.43994 0.014122
5920.70020 0.013818
5920.95996 0.013783
5921.22021 0.013963
5921.47998 0.013179
5921.74023 0.013365
5922.00000 0.013357
5922.27002 0.01314
5922.52979 0.012867
5922.79004 0.013004
5923.04980 0.012538
5923.31006 0.013028
5923.56982 0.012799
5923.83008 0.012714
5924.08984 0.012148
5924.35010 0.012009
5924.60986 0.012239
5924.87012 0.012019
5925.12988 0.011995
5925.39014 0.012175
5925.64990 0.011998
5925.91992 0.01181
5926.18018 0.011841
5926.43994 0.011853
5926.70020 0.011591
5926.95996 0.011539
5927.22021 0.011285
5927.47998 0.011423
5927.74023 0.011345
5928.00000 0.011302
5928.25977 0.011074
5928.52002 0.0109
5928.77979 0.010911
5929.04004 0.01074
5929.29980 0.010695
5929.56006 0.010767
5929.83008 0.010623
5930.08984 0.010625
5930.35010 0.010398
5930.60986 0.010309
5930.87012 0.010305
5931.12988 0.010103
5931.39014 0.010284
5931.64990 0.010166
5931.91016 0.009943
5932.16992 0.009915
5932.43018 0.009707
5932.68994 0.009722
5932.95020 0.009782
5933.20996 0.009753
5933.47998 0.0096
5933.74023 0.0095
5934.00000 0.00951
5934.25977 0.009451
5934.52002 0.009464
5934.77979 0.009315
5935.04004 0.009116
5935.29980 0.008906
5935.56006 0.009225
5935.81982 0.009267
5936.08008 0.008873
5936.33984 0.008743
5936.60010 0.0089
5936.85986 0.008739
5937.12012 0.008767
5937.39014 0.008716
5937.64990 0.008545
5937.91016 0.008635
5938.16992 0.00824
5938.43018 0.00841
5938.68994 0.00823
5938.95020 0.008381
5939.20996 0.008124
5939.47021 0.008137
5939.72998 0.008055
5939.99023 0.007901
5940.25000 0.008032
5940.50977 0.008026
5940.77002 0.00781
5941.04004 0.007918
5941.29980 0.007832
5941.56006 0.007582
5941.81982 0.007813
5942.08008 0.007647
5942.33984 0.007383
5942.60010 0.00731
5942.85986 0.007416
5943.12012 0.007321
5943.37988 0.00726
5943.64014 0.007197
5943.89990 0.00718
5944.16016 0.007435
5944.41992 0.007266
5944.68994 0.007068
5944.95020 0.0072
5945.20996 0.006913
5945.47021 0.007215
5945.72998 0.006881
5945.99023 0.006743
5946.25000 0.006913
5946.50977 0.006668
5946.77002 0.00666
5947.02979 0.006728
5947.29004 0.006677
5947.54980 0.006602
5947.81006 0.006691
5948.06982 0.006624
5948.33008 0.006381
5948.60010 0.006377
5948.85986 0.006503
5949.12012 0.006362
5949.37988 0.006063
5949.64014 0.006164
5949.89990 0.006058
5950.16016 0.006182
5950.41992 0.006294
5950.68018 0.006166
5950.93994 0.006153
5951.20020 0.005985
5951.45996 0.005755
5951.72021 0.006015
5951.97998 0.005949
5952.25000 0.005948
5952.50977 0.005694
5952.77002 0.006001
5953.02979 0.005857
5953.29004 0.00569
5953.54980 0.005659
5953.81006 0.005641
5954.06982 0.005748
5954.33008 0.005551
5954.58984 0.00567
5954.85010 0.005473
5955.10986 0.005636
5955.37012 0.005411
5955.62988 0.00543
5955.89990 0.005486
5956.16016 0.005373
5956.41992 0.005378
5956.68018 0.00531
5956.93994 0.005228
5957.20020 0.00508
5957.45996 0.005276
5957.72021 0.00508
5957.97998 0.005226
5958.24023 0.005022
5958.50000 0.005097
5958.75977 0.004999
5959.02002 0.005165
5959.27979 0.004989
5959.54980 0.004927
5959.81006 0.004758
5960.06982 0.004762
5960.33008 0.004593
5960.58984 0.004984
5960.85010 0.004833
5961.10986 0.004751
5961.37012 0.00456
5961.62988 0.004689
5961.89014 0.004644
5962.14990 0.004674
5962.41016 0.004591
5962.66992 0.004458
5962.93018 0.00481
5963.18994 0.004568
5963.45996 0.004743
5963.72021 0.004712
5963.97998 0.004393
5964.24023 0.004435
5964.50000 0.004262
5964.75977 0.004349
5965.02002 0.004422
5965.27979 0.004437
5965.54004 0.004662
5965.79980 0.004206
5966.06006 0.004427
5966.31982 0.004343
5966.58008 0.004219
5966.83984 0.00419
5967.10986 0.004048
5967.37012 0.004228
5967.62988 0.004187
5967.89014 0.004135
5968.14990 0.004006
5968.41016 0.004098
5968.66992 0.004034
5968.93018 0.004003
6565.82324 0.0
