# %ECSV 0.9
# ---
# datatype:
# - {name: wavelength, unit: Angstrom, datatype: float32}
# - {name: response, datatype: float32}
# meta: !!omap
# - {band_name: f_570_9}
# - {group_name: CAHA}
wavelength response
5037.21924 0.0
5596.91016 0.004055
5597.16992 0.003932
5597.43018 0.004059
5597.68994 0.004157
5597.95020 0.004314
5598.20996 0.004166
5598.47998 0.00432
5598.74023 0.00425
5599.00000 0.004375
5599.25977 0.004398
5599.52002 0.004306
5599.77979 0.004722
5600.04004 0.004628
5600.29980 0.004582
5600.56006 0.004516
5600.81982 0.004577
5601.08008 0.005033
5601.33984 0.00485
5601.60010 0.005083
5601.85986 0.004879
5602.12988 0.004988
5602.39014 0.005112
5602.64990 0.005004
5602.91016 0.005086
5603.16992 0.005163
5603.43018 0.005128
5603.68994 0.005276
5603.95020 0.005359
5604.20996 0.005539
5604.47021 0.005446
5604.72998 0.005668
5604.99023 0.005562
5605.25000 0.005736
5605.50977 0.005703
5605.77979 0.005718
5606.04004 0.005947
5606.29980 0.005971
5606.56006 0.00616
5606.81982 0.006041
5607.08008 0.006095
5607.33984 0.006285
5607.60010 0.006195
5607.85986 0.006339
5608.12012 0.006515
5608.37988 0.006681
5608.64014 0.006713
5608.89990 0.006667
5609.16016 0.006812
5609.43018 0.00674
5609.68994 0.006861
5609.95020 0.007359
5610.20996 0.007267
5610.47021 0.007382
5610.72998 0.007277
5610.99023 0.007586
5611.25000 0.007688
5611.50977 0.007752
5611.77002 0.007653
5612.02979 0.007614
5612.29004 0.007822
5612.54980 0.008124
5612.81006 0.008301
5613.06982 0.008479
5613.33984 0.008435
5613.60010 0.0085
5613.85986 0.008717
5614.12012 0.008618
5614.37988 0.008942
5614.64014 0.009072
5614.89990 0.009152
5615.16016 0.009314
5615.41992 0.009539
5615.68018 0.009589
5615.93994 0.009709
5616.20020 0.009728
5616.45996 0.009933
5616.72021 0.010197
5616.99023 0.0102
5617.25000 0.01031
5617.50977 0.010586
5617.77002 0.010762
5618.02979 0.010924
5618.29004 0.011163
5618.54980 0.010992
5618.81006 0.011374
5619.06982 0.011718
5619.33008 0.011541
5619.58984 0.012027
5619.85010 0.012265
5620.10986 0.012242
5620.37012 0.012658
5620.64014 0.012674
5620.89990 0.013054
5621.16016 0.012994
5621.41992 0.013187
5621.68018 0.013838
5621.93994 0.013371
5622.20020 0.013644
5622.45996 0.014458
5622.72021 0.014365
5622.97998 0.014726
5623.24023 0.015194
5623.50000 0.014973
5623.75977 0.015329
5624.02002 0.015633
5624.29004 0.016152
5624.54980 0.01601
5624.81006 0.016346
5625.06982 0.016709
5625.33008 0.017077
5625.58984 0.017401
5625.85010 0.017728
5626.10986 0.017988
5626.37012 0.018118
5626.62988 0.018688
5626.89014 0.019385
5627.14990 0.019381
5627.41016 0.019842
5627.66992 0.019862
5627.93018 0.020741
5628.20020 0.020997
5628.45996 0.020819
5628.72021 0.021611
5628.97998 0.022511
5629.24023 0.022393
5629.50000 0.022964
5629.75977 0.023091
5630.02002 0.023665
5630.27979 0.023809
5630.54004 0.024854
5630.79980 0.025078
5631.06006 0.02604
5631.31982 0.025933
5631.58008 0.026645
5631.85010 0.027366
5632.10986 0.027762
5632.37012 0.027803
5632.62988 0.028876
5632.89014 0.029415
5633.14990 0.029753
5633.41016 0.030467
5633.66992 0.030892
5633.93018 0.031721
5634.18994 0.032742
5634.45020 0.033036
5634.70996 0.033282
5634.97021 0.034437
5635.22998 0.035183
5635.50000 0.035243
5635.75977 0.036494
5636.02002 0.037284
5636.27979 0.038507
5636.54004 0.039041
5636.79980 0.039777
5637.06006 0.04036
5637.31982 0.041436
5637.58008 0.042302
5637.83984 0.043499
5638.10010 0.044337
5638.35986 0.045059
5638.62012 0.046718
5638.87988 0.047337
5639.14990 0.048342
5639.41016 0.049215
5639.66992 0.050493
5639.93018 0.051915
5640.18994 0.052563
5640.45020 0.054081
5640.70996 0.05504
5640.97021 0.056438
5641.22998 0.057246
5641.49023 0.058555
5641.75000 0.059998
5642.00977 0.062195
5642.27002 0.062459
5642.52979 0.064302
5642.79004 0.066499
5643.06006 0.066512
5643.31982 0.068483
5643.58008 0.070776
5643.83984 0.071991
5644.10010 0.073505
5644.35986 0.075978
5644.62012 0.077611
5644.87988 0.079713
5645.14014 0.081353
5645.39990 0.083798
5645.66016 0.084945
5645.91992 0.087112
5646.18018 0.088777
5646.43994 0.091476
5646.70996 0.093831
5646.97021 0.095737
5647.22998 0.096754
5647.49023 0.100572
5647.75000 0.102303
5648.00977 0.104955
5648.27002 0.107317
5648.52979 0.109342
5648.79004 0.11239
5649.04980 0.114931
5649.31006 0.117341
5649.56982 0.121374
5649.83008 0.123172
5650.08984 0.126224
5650.35010 0.129361
5650.62012 0.132439
5650.87988 0.136289
5651.14014 0.138312
5651.39990 0.141882
5651.66016 0.143921
5651.91992 0.148512
5652.18018 0.151509
5652.43994 0.155955
5652.70020 0.160575
5652.95996 0.163113
5653.22021 0.166782
5653.47998 0.170994
5653.74023 0.173944
5654.00000 0.178943
5654.27002 0.181246
5654.52979 0.18718
5654.79004 0.189568
5655.04980 0.194448
5655.31006 0.1996
5655.56982 0.203844
5655.83008 0.207621
5656.08984 0.212502
5656.35010 0.216511
5656.60986 0.221766
5656.87012 0.226076
5657.12988 0.230562
5657.39014 0.236262
5657.64990 0.240755
5657.91992 0.244975
5658.18018 0.25074
5658.43994 0.257218
5658.70020 0.260514
5658.95996 0.265671
5659.22021 0.271304
5659.47998 0.277072
5659.74023 0.281881
5660.00000 0.287282
5660.25977 0.291943
5660.52002 0.29673
5660.77979 0.303481
5661.04004 0.308946
5661.29980 0.313589
5661.56006 0.31882
5661.83008 0.324063
5662.08984 0.328577
5662.35010 0.333292
5662.60986 0.340423
5662.87012 0.345043
5663.12988 0.352641
5663.39014 0.352908
5663.64990 0.359318
5663.91016 0.365966
5664.16992 0.371972
5664.43018 0.3765
5664.68994 0.381424
5664.95020 0.386884
5665.20996 0.39198
5665.47998 0.39673
5665.74023 0.399692
5666.00000 0.406042
5666.25977 0.408855
5666.52002 0.413651
5666.77979 0.418418
5667.04004 0.423418
5667.29980 0.431017
5667.56006 0.431613
5667.81982 0.437474
5668.08008 0.443383
5668.33984 0.444383
5668.60010 0.449065
5668.85986 0.453955
5669.12988 0.457783
5669.39014 0.459151
5669.64990 0.461875
5669.91016 0.468589
5670.16992 0.470969
5670.43018 0.47177
5670.68994 0.476056
5670.95020 0.479842
5671.20996 0.480868
5671.47021 0.486209
5671.72998 0.490955
5671.99023 0.493363
5672.25000 0.493732
5672.50977 0.494655
5672.77979 0.497967
5673.04004 0.501114
5673.29980 0.505812
5673.56006 0.506942
5673.81982 0.508219
5674.08008 0.51338
5674.33984 0.51152
5674.60010 0.513343
5674.85986 0.514396
5675.12012 0.517705
5675.37988 0.518422
5675.64014 0.521458
5675.89990 0.520482
5676.16016 0.523864
5676.41992 0.524213
5676.68994 0.525742
5676.95020 0.528373
5677.20996 0.529208
5677.47021 0.528348
5677.72998 0.531078
5677.99023 0.531941
5678.25000 0.533257
5678.50977 0.532375
5678.77002 0.533352
5679.02979 0.536293
5679.29004 0.534976
5679.54980 0.535502
5679.81006 0.534962
5680.06982 0.538933
5680.33984 0.536349
5680.60010 0.539848
5680.85986 0.53978
5681.12012 0.539507
5681.37988 0.538716
5681.64014 0.540365
5681.89990 0.540119
5682.16016 0.539612
5682.41992 0.542558
5682.68018 0.540678
5682.93994 0.54135
5683.20020 0.542767
5683.45996 0.542902
5683.72021 0.540103
5683.99023 0.540212
5684.25000 0.541834
5684.50977 0.541918
5684.77002 0.543611
5685.02979 0.54222
5685.29004 0.54269
5685.54980 0.541891
5685.81006 0.542148
5686.06982 0.541712
5686.33008 0.541074
5686.58984 0.54095
5686.85010 0.541371
5687.10986 0.541307
5687.37012 0.543069
5687.64014 0.543585
5687.89990 0.543276
5688.16016 0.540683
5688.41992 0.54414
5688.68018 0.541204
5688.93994 0.539278
5689.20020 0.542263
5689.45996 0.540945
5689.72021 0.540338
5689.97998 0.542139
5690.24023 0.540639
5690.50000 0.54162
5690.75977 0.543531
5691.02002 0.540865
5691.27979 0.542771
5691.54980 0.542365
5691.81006 0.539666
5692.06982 0.539935
5692.33008 0.540911
5692.58984 0.53963
5692.85010 0.539332
5693.10986 0.540501
5693.37012 0.540367
5693.62988 0.540945
5693.89014 0.539109
5694.14990 0.538608
5694.41016 0.539531
5694.66992 0.537854
5694.93018 0.537684
5695.20020 0.536874
5695.45996 0.538524
5695.72021 0.539716
5695.97998 0.537749
5696.24023 0.537408
5696.50000 0.537819
5696.75977 0.535952
5697.02002 0.539152
5697.27979 0.535972
5697.54004 0.540598
5697.79980 0.537846
5698.06006 0.53434
5698.31982 0.536698
5698.58008 0.536023
5698.85010 0.53255
5699.10986 0.534703
5699.37012 0.530926
5699.62988 0.533882
5699.89014 0.533238
5700.14990 0.532228
5700.41016 0.533284
5700.66992 0.532455
5700.93018 0.533734
5701.18994 0.532663
5701.45020 0.531719
5701.70996 0.532294
5701.97021 0.530352
5702.22998 0.531045
5702.50000 0.530402
5702.75977 0.530715
5703.02002 0.529825
5703.27979 0.52891
5703.54004 0.530034
5703.79980 0.527368
5704.06006 0.527775
5704.31982 0.529416
5704.58008 0.526963
5704.83984 0.526047
5705.10010 0.525236
5705.35986 0.52627
5705.62012 0.524607
5705.87988 0.525472
5706.14990 0.524488
5706.41016 0.52253
5706.66992 0.522135
5706.93018 0.52253
5707.18994 0.524049
5707.45020 0.520431
5707.70996 0.520733
5707.97021 0.518807
5708.22998 0.521164
5708.49023 0.519578
5708.75000 0.518482
5709.00977 0.517911
5709.27002 0.519909
5709.52979 0.518031
5709.79004 0.518382
5710.06006 0.515841
5710.31982 0.517869
5710.58008 0.516068
5710.83984 0.513715
5711.10010 0.516293
5711.35986 0.513938
5711.62012 0.514609
5711.87988 0.513283
5712.14014 0.513441
5712.39990 0.513301
5712.66016 0.51073
5712.91992 0.512694
5713.18018 0.511504
5713.43994 0.510297
5713.70996 0.508439
5713.97021 0.510035
5714.22998 0.510184
5714.49023 0.505606
5714.75000 0.506525
5715.00977 0.5061
5715.27002 0.506031
5715.52979 0.50541
5715.79004 0.503627
5716.04980 0.506405
5716.31006 0.502559
5716.56982 0.507077
5716.83008 0.50168
5717.08984 0.503976
5717.35010 0.504325
5717.62012 0.503914
5717.87988 0.502386
5718.14014 0.500638
5718.39990 0.501869
5718.66016 0.502491
5718.91992 0.501742
5719.18018 0.501025
5719.43994 0.500784
5719.70020 0.502802
5719.95996 0.501425
5720.22021 0.501405
5720.47998 0.499381
5720.74023 0.498888
5721.00000 0.499992
5721.27002 0.500196
5721.52979 0.498528
5721.79004 0.497677
5722.04980 0.500497
5722.31006 0.496338
5722.56982 0.498495
5722.83008 0.49751
5723.08984 0.496572
5723.35010 0.497865
5723.60986 0.497733
5723.87012 0.499001
5724.12988 0.49834
5724.39014 0.496646
5724.64990 0.496129
5724.91992 0.497695
5725.18018 0.497069
5725.43994 0.499589
5725.70020 0.496895
5725.95996 0.497257
5726.22021 0.498685
5726.47998 0.499576
5726.74023 0.497457
5727.00000 0.500203
5727.25977 0.499627
5727.52002 0.501113
5727.77979 0.498223
5728.04004 0.498951
5728.29980 0.502264
5728.56006 0.498827
5728.83008 0.50117
5729.08984 0.498085
5729.35010 0.499848
5729.60986 0.500707
5729.87012 0.500988
5730.12988 0.501759
5730.39014 0.498134
5730.64990 0.50014
5730.91016 0.501656
5731.16992 0.500518
5731.43018 0.498748
5731.68994 0.500219
5731.95020 0.500725
5732.20996 0.501212
5732.47998 0.501012
5732.74023 0.500308
5733.00000 0.502374
5733.25977 0.499428
5733.52002 0.500527
5733.77979 0.499322
5734.04004 0.499097
5734.29980 0.498521
5734.56006 0.501151
5734.81982 0.501504
5735.08008 0.499496
5735.33984 0.497889
5735.60010 0.497228
5735.85986 0.496273
5736.12988 0.496939
5736.39014 0.494885
5736.64990 0.493916
5736.91016 0.493986
5737.16992 0.491871
5737.43018 0.492918
5737.68994 0.490546
5737.95020 0.488805
5738.20996 0.490138
5738.47021 0.487906
5738.72998 0.486713
5738.99023 0.486057
5739.25000 0.481308
5739.50977 0.48069
5739.77002 0.480011
5740.04004 0.478209
5740.29980 0.476866
5740.56006 0.472394
5740.81982 0.470482
5741.08008 0.468608
5741.33984 0.467177
5741.60010 0.462914
5741.85986 0.461932
5742.12012 0.458519
5742.37988 0.45655
5742.64014 0.452707
5742.89990 0.450738
5743.16016 0.446905
5743.41992 0.440631
5743.68994 0.439851
5743.95020 0.436155
5744.20996 0.433707
5744.47021 0.430137
5744.72998 0.425878
5744.99023 0.420724
5745.25000 0.414382
5745.50977 0.411905
5745.77002 0.409416
5746.02979 0.403173
5746.29004 0.39889
5746.54980 0.395344
5746.81006 0.390085
5747.06982 0.384055
5747.33984 0.379222
5747.60010 0.375594
5747.85986 0.368857
5748.12012 0.365963
5748.37988 0.359567
5748.64014 0.35545
5748.89990 0.350171
5749.16016 0.343148
5749.41992 0.338829
5749.68018 0.332435
5749.93994 0.329169
5750.20020 0.322105
5750.45996 0.315623
5750.72021 0.312545
5750.99023 0.305577
5751.25000 0.300258
5751.50977 0.292692
5751.77002 0.289464
5752.02979 0.283993
5752.29004 0.279059
5752.54980 0.272706
5752.81006 0.267757
5753.06982 0.263407
5753.33008 0.256013
5753.58984 0.25355
5753.85010 0.247233
5754.10986 0.240108
5754.37012 0.235718
5754.62988 0.231193
5754.89990 0.226965
5755.16016 0.22085
5755.41992 0.216279
5755.68018 0.211437
5755.93994 0.206918
5756.20020 0.201907
5756.45996 0.197053
5756.72021 0.19267
5756.97998 0.187635
5757.24023 0.184649
5757.50000 0.180134
5757.75977 0.174787
5758.02002 0.171094
5758.27979 0.167549
5758.54980 0.163237
5758.81006 0.1597
5759.06982 0.155369
5759.33008 0.151189
5759.58984 0.148767
5759.85010 0.144886
5760.10986 0.140524
5760.37012 0.137076
5760.62988 0.134625
5760.89014 0.131066
5761.14990 0.126783
5761.41016 0.124791
5761.66992 0.120987
5761.93018 0.117835
5762.20020 0.115018
5762.45996 0.11215
5762.72021 0.108756
5762.97998 0.106615
5763.24023 0.104761
5763.50000 0.101518
5763.75977 0.09999
5764.02002 0.09656
5764.27979 0.095014
5764.54004 0.091708
5764.79980 0.089779
5765.06006 0.087309
5765.31982 0.085265
5765.58008 0.083459
5765.85010 0.080786
5766.10986 0.079264
5766.37012 0.076961
5766.62988 0.075923
5766.89014 0.073823
5767.14990 0.07267
5767.41016 0.070559
5767.66992 0.068668
5767.93018 0.066337
5768.18994 0.064596
5768.45020 0.063446
5768.70996 0.062313
5768.97021 0.060212
5769.22998 0.059069
5769.50000 0.058186
5769.75977 0.056856
5770.02002 0.055497
5770.27979 0.053605
5770.54004 0.052856
5770.79980 0.051858
5771.06006 0.049772
5771.31982 0.049078
5771.58008 0.048164
5771.83984 0.046862
5772.10010 0.045054
5772.35986 0.044554
5772.62012 0.043506
5772.87988 0.043056
5773.14014 0.041893
5773.41016 0.04126
5773.66992 0.039757
5773.93018 0.038578
5774.18994 0.03844
5774.45020 0.037334
5774.70996 0.03604
5774.97021 0.035389
5775.22998 0.034455
5775.49023 0.033823
5775.75000 0.033205
5776.00977 0.032525
5776.27002 0.031618
5776.52979 0.031561
5776.79004 0.030491
5777.06006 0.030106
5777.31982 0.029532
5777.58008 0.028307
5777.83984 0.02806
5778.10010 0.027418
5778.35986 0.027042
5778.62012 0.026371
5778.87988 0.025854
5779.14014 0.025028
5779.39990 0.024792
5779.66016 0.023928
5779.91992 0.024172
5780.18018 0.02319
5780.43994 0.022954
5780.70996 0.022278
5780.97021 0.022123
5781.22998 0.02212
5781.49023 0.02094
5781.75000 0.020794
5782.00977 0.020458
5782.27002 0.019384
5782.52979 0.019101
5782.79004 0.019448
5783.04980 0.018881
5783.31006 0.018234
5783.56982 0.017855
5783.83008 0.017682
5784.08984 0.016941
5784.35010 0.017022
5784.62012 0.016841
5784.87988 0.016605
5785.14014 0.016281
5785.39990 0.015595
5785.66016 0.0157
5785.91992 0.015198
5786.18018 0.015241
5786.43994 0.014645
5786.70020 0.014748
5786.95996 0.014218
5787.22021 0.014032
5787.47998 0.01363
5787.74023 0.013325
5788.00000 0.013298
5788.27002 0.013084
5788.52979 0.012769
5788.79004 0.012765
5789.04980 0.012387
5789.31006 0.012166
5789.56982 0.012141
5789.83008 0.011746
5790.08984 0.011508
5790.35010 0.011215
5790.60986 0.01128
5790.87012 0.011023
5791.12988 0.010752
5791.39014 0.010714
5791.64990 0.01029
5791.91992 0.010379
5792.18018 0.010318
5792.43994 0.009962
5792.70020 0.009646
5792.95996 0.00963
5793.22021 0.00949
5793.47998 0.009342
5793.74023 0.009227
5794.00000 0.009178
5794.25977 0.008709
5794.52002 0.008806
5794.77979 0.008722
5795.04004 0.008587
5795.29980 0.008453
5795.56006 0.008154
5795.83008 0.008179
5796.08984 0.007991
5796.35010 0.00803
5796.60986 0.007679
5796.87012 0.007661
5797.12988 0.007535
5797.39014 0.007477
5797.64990 0.00727
5797.91016 0.007043
5798.16992 0.007124
5798.43018 0.006899
5798.68994 0.006914
5798.95020 0.006632
5799.20996 0.006681
5799.47998 0.006672
5799.74023 0.006553
5800.00000 0.006403
5800.25977 0.006422
5800.52002 0.006286
5800.77979 0.006247
5801.04004 0.006259
5801.29980 0.006251
5801.56006 0.006172
5801.81982 0.006036
5802.08008 0.005674
5802.33984 0.005934
5802.60010 0.005442
5802.85986 0.005724
5803.12012 0.005546
5803.39014 0.005546
5803.64990 0.005423
5803.91016 0.00536
5804.16992 0.005286
5804.43018 0.005221
5804.68994 0.005189
5804.95020 0.005162
5805.20996 0.004993
5805.47021 0.004987
5805.72998 0.004763
5805.99023 0.004831
5806.25000 0.004818
5806.50977 0.004683
5806.77002 0.004375
5807.04004 0.004472
5807.29980 0.004587
5807.56006 0.004416
5807.81982 0.00438
5808.08008 0.00438
5808.33984 0.004373
5808.60010 0.004111
5808.85986 0.004395
5809.12012 0.004154
5809.37988 0.004051
5809.64014 0.004133
6390.60400 0.0
