# %ECSV 0.9
# ---
# datatype:
# - {name: wavelength, unit: Angstrom, datatype: float32}
# - {name: response, datatype: float32}
# meta: !!omap
# - {band_name: f_586_21_2}
# - {group_name: CAHA}
wavelength response
4967.58789 0.0
5519.54199 0.004162
5520.40820 0.004433
5521.27393 0.004684
5522.14014 0.00485
5523.00586 0.004881
5523.87207 0.004761
5524.73779 0.004522
5525.60400 0.004237
5526.47021 0.003996
5527.33594 0.003871
5528.20215 0.003897
5529.06787 0.004062
5529.93408 0.004318
5530.79980 0.0046
5531.66602 0.004845
5532.53223 0.005009
5533.39697 0.005067
5534.26416 0.005015
5535.12891 0.004869
5535.99609 0.004675
5536.86084 0.004496
5537.72803 0.004396
5538.59424 0.0044
5539.45898 0.004478
5540.32617 0.004551
5541.19092 0.004532
5542.05811 0.004362
5542.92285 0.004042
5543.79004 0.003628
5544.65479 0.003207
5545.52100 0.002869
5546.38721 0.002683
5547.25293 0.002676
5548.11914 0.002837
5548.98486 0.003114
5549.85107 0.003427
5550.71680 0.003694
5551.58301 0.003865
5552.44922 0.003938
5553.31494 0.003967
5554.18115 0.00403
5555.04688 0.004198
5555.91309 0.004501
5556.77881 0.004915
5557.64502 0.005367
5558.51123 0.005746
5559.37695 0.005952
5560.24316 0.00592
5561.10889 0.005651
5561.97510 0.005206
5562.84082 0.004683
5563.70703 0.00418
5564.57324 0.003781
5565.43896 0.003533
5566.30518 0.003458
5567.17090 0.003548
5568.03711 0.00377
5568.90283 0.004067
5569.76904 0.004365
5570.63477 0.004599
5571.50000 0.004714
5572.36719 0.004691
5573.23193 0.004551
5574.09912 0.004352
5574.96387 0.004174
5575.83105 0.004085
5576.69580 0.004113
5577.56299 0.004241
5578.42822 0.00442
5579.29395 0.004606
5580.16016 0.004773
5581.02588 0.004924
5581.89209 0.005082
5582.75781 0.005269
5583.62402 0.005502
5584.49023 0.005787
5585.35596 0.006108
5586.22217 0.006432
5587.08789 0.006722
5587.95410 0.006951
5588.81982 0.00712
5589.68604 0.007248
5590.55176 0.007361
5591.41797 0.007467
5592.28418 0.007561
5593.14990 0.00763
5594.01611 0.007675
5594.88184 0.007708
5595.74805 0.007757
5596.61377 0.007842
5597.47998 0.007968
5598.34619 0.008124
5599.21191 0.008296
5600.07812 0.008475
5600.94385 0.008664
5601.81006 0.00888
5602.67578 0.009141
5603.54199 0.009453
5604.40820 0.009798
5605.27295 0.010127
5606.14014 0.010379
5607.00488 0.010511
5607.87207 0.010514
5608.73682 0.010424
5609.60400 0.010301
5610.46924 0.010207
5611.33496 0.010185
5612.20117 0.010249
5613.06689 0.010383
5613.93408 0.010556
5614.79883 0.010738
5615.66602 0.010908
5616.53076 0.01106
5617.39697 0.011185
5618.26318 0.01126
5619.12891 0.011262
5619.99512 0.011176
5620.86084 0.011015
5621.72705 0.010817
5622.59277 0.010641
5623.45898 0.01053
5624.32520 0.0105
5625.19092 0.010525
5626.05713 0.010555
5626.92285 0.010547
5627.78906 0.010478
5628.65479 0.010363
5629.52100 0.010239
5630.38721 0.010148
5631.25293 0.010119
5632.11914 0.010164
5632.98486 0.010274
5633.85107 0.010423
5634.71680 0.010588
5635.58301 0.01076
5636.44922 0.010955
5637.31396 0.01121
5638.18115 0.011563
5639.04688 0.012025
5639.91309 0.01256
5640.77881 0.01311
5641.64502 0.013617
5642.51123 0.014057
5643.37598 0.014448
5644.24316 0.014835
5645.10791 0.015269
5645.97510 0.015774
5646.83984 0.01635
5647.70703 0.016974
5648.57178 0.01762
5649.43799 0.018268
5650.30420 0.018905
5651.16992 0.019521
5652.03613 0.020112
5652.90186 0.020682
5653.76807 0.021235
5654.63379 0.021772
5655.50000 0.022286
5656.36621 0.022765
5657.23193 0.023205
5658.09814 0.023612
5658.96387 0.024002
5659.83008 0.024396
5660.69580 0.024808
5661.56201 0.025245
5662.42822 0.025715
5663.29395 0.026231
5664.16016 0.026815
5665.02588 0.0275
5665.89209 0.028307
5666.75781 0.029246
5667.62402 0.030299
5668.49023 0.031412
5669.35596 0.03251
5670.22217 0.033503
5671.08789 0.034314
5671.95410 0.0349
5672.81982 0.035263
5673.68604 0.035452
5674.55176 0.035534
5675.41699 0.035571
5676.28418 0.0356
5677.14893 0.035629
5678.01611 0.035651
5678.88086 0.035657
5679.74805 0.035647
5680.61279 0.035638
5681.47900 0.035654
5682.34521 0.035723
5683.21094 0.035871
5684.07715 0.036116
5684.94287 0.036464
5685.80908 0.036906
5686.67480 0.037422
5687.54102 0.037979
5688.40723 0.038552
5689.27295 0.039133
5690.13916 0.039737
5691.00488 0.040397
5691.87109 0.04115
5692.73682 0.042022
5693.60303 0.043029
5694.46924 0.04418
5695.33496 0.045494
5696.20117 0.047002
5697.06689 0.048732
5697.93311 0.050696
5698.79883 0.052872
5699.66504 0.055208
5700.53076 0.057628
5701.39697 0.06007
5702.26318 0.062502
5703.12891 0.064938
5703.99512 0.067439
5704.86084 0.070082
5705.72705 0.072944
5706.59277 0.076067
5707.45801 0.079451
5708.32520 0.083056
5709.18994 0.086812
5710.05713 0.090643
5710.92188 0.094491
5711.78906 0.098329
5712.65381 0.10217
5713.52100 0.106043
5714.38721 0.109974
5715.25195 0.113967
5716.11914 0.118004
5716.98389 0.122061
5717.85107 0.126119
5718.71582 0.130175
5719.58301 0.134233
5720.44824 0.138296
5721.31396 0.142352
5722.18018 0.146367
5723.04590 0.150285
5723.91211 0.154053
5724.77783 0.157641
5725.64404 0.161052
5726.50977 0.164323
5727.37598 0.167512
5728.24219 0.17067
5729.10791 0.17383
5729.97412 0.176981
5730.83984 0.180073
5731.70605 0.183028
5732.57178 0.185783
5733.43799 0.188318
5734.30420 0.190671
5735.16992 0.19293
5736.03613 0.195202
5736.90186 0.197588
5737.76807 0.200168
5738.63379 0.202998
5739.50000 0.206128
5740.36621 0.209611
5741.23193 0.21352
5742.09814 0.217931
5742.96387 0.22292
5743.83008 0.228542
5744.69580 0.234823
5745.56201 0.241759
5746.42822 0.249326
5747.29297 0.257496
5748.16016 0.266258
5749.02490 0.27562
5749.89209 0.285602
5750.75684 0.29622
5751.62402 0.307461
5752.48877 0.319284
5753.35498 0.331611
5754.22119 0.344341
5755.08691 0.357351
5755.95312 0.370507
5756.81885 0.383682
5757.68506 0.396786
5758.55078 0.409777
5759.41699 0.422647
5760.28320 0.435387
5761.14893 0.447945
5762.01514 0.460206
5762.88086 0.472044
5763.74707 0.483365
5764.61279 0.49415
5765.47900 0.50444
5766.34521 0.514281
5767.21094 0.52366
5768.07715 0.532479
5768.94287 0.540577
5769.80908 0.547786
5770.67480 0.554013
5771.54102 0.559276
5772.40723 0.563697
5773.27295 0.567455
5774.13916 0.570719
5775.00488 0.573576
5775.87109 0.576014
5776.73682 0.577945
5777.60303 0.57926
5778.46924 0.579922
5779.33398 0.580005
5780.20117 0.579701
5781.06592 0.579246
5781.93311 0.578844
5782.79785 0.578609
5783.66504 0.578573
5784.52979 0.578722
5785.39600 0.579038
5786.26221 0.579511
5787.12793 0.58014
5787.99512 0.580924
5788.85986 0.581874
5789.72705 0.583014
5790.59180 0.584395
5791.45801 0.586083
5792.32422 0.588117
5793.18994 0.590492
5794.05615 0.593129
5794.92188 0.595893
5795.78809 0.598635
5796.65381 0.601246
5797.52002 0.603698
5798.38623 0.606059
5799.25195 0.608445
5800.11816 0.610967
5800.98389 0.613678
5801.85010 0.616544
5802.71582 0.619448
5803.58203 0.622231
5804.44824 0.624742
5805.31396 0.626878
5806.18018 0.628617
5807.04590 0.63001
5807.91211 0.631143
5808.77783 0.632095
5809.64404 0.632911
5810.50977 0.6336
5811.37500 0.634148
5812.24219 0.634529
5813.10791 0.634715
5813.97412 0.63466
5814.83984 0.634296
5815.70605 0.633541
5816.57178 0.632312
5817.43799 0.630583
5818.30420 0.628433
5819.16895 0.626055
5820.03613 0.62372
5820.90088 0.621703
5821.76807 0.620191
5822.63281 0.619211
5823.50000 0.618622
5824.36523 0.618162
5825.23096 0.617529
5826.09717 0.616487
5826.96289 0.614943
5827.82910 0.612964
5828.69482 0.610751
5829.56104 0.608558
5830.42676 0.606609
5831.29297 0.605027
5832.15918 0.603804
5833.02490 0.602812
5833.89111 0.601868
5834.75684 0.60082
5835.62305 0.599597
5836.48877 0.59822
5837.35498 0.596783
5838.22119 0.595403
5839.08691 0.594184
5839.95312 0.593186
5840.81885 0.592395
5841.68506 0.591732
5842.55078 0.591072
5843.41699 0.590289
5844.28320 0.589308
5845.14893 0.588112
5846.01514 0.586735
5846.88086 0.585213
5847.74707 0.583582
5848.61279 0.581859
5849.47900 0.580056
5850.34521 0.578167
5851.20996 0.576178
5852.07715 0.574079
5852.94189 0.571886
5853.80908 0.569667
5854.67383 0.56752
5855.54102 0.56553
5856.40576 0.563709
5857.27197 0.561991
5858.13818 0.560244
5859.00391 0.558356
5859.87012 0.556289
5860.73584 0.554102
5861.60205 0.551919
5862.46777 0.549869
5863.33398 0.548004
5864.20020 0.546292
5865.06592 0.544636
5865.93213 0.542951
5866.79785 0.541207
5867.66406 0.539447
5868.52979 0.537746
5869.39600 0.536167
5870.26221 0.534714
5871.12793 0.533333
5871.99414 0.531943
5872.85986 0.530479
5873.72607 0.528952
5874.59180 0.527458
5875.45801 0.526173
5876.32422 0.525279
5877.18994 0.524882
5878.05615 0.52493
5878.92188 0.525229
5879.78809 0.52552
5880.65381 0.5256
5881.52002 0.525393
5882.38623 0.524965
5883.25098 0.524448
5884.11816 0.523971
5884.98291 0.523603
5885.85010 0.523359
5886.71484 0.523216
5887.58203 0.523144
5888.44824 0.523109
5889.31299 0.523085
5890.18018 0.523043
5891.04492 0.522959
5891.91211 0.522815
5892.77686 0.522605
5893.64404 0.522343
5894.50879 0.522066
5895.37500 0.521847
5896.24121 0.52178
5897.10693 0.521948
5897.97314 0.522386
5898.83887 0.523027
5899.70508 0.523722
5900.57080 0.52428
5901.43701 0.524549
5902.30322 0.524482
5903.16895 0.524121
5904.03516 0.523565
5904.90088 0.522899
5905.76709 0.522163
5906.63281 0.521352
5907.49902 0.520444
5908.36523 0.519405
5909.23096 0.518195
5910.09717 0.516763
5910.96289 0.515051
5911.82910 0.513017
5912.69482 0.510637
5913.56104 0.507923
5914.42676 0.504919
5915.29297 0.501691
5916.15918 0.498302
5917.02490 0.494768
5917.89111 0.491052
5918.75684 0.487042
5919.62305 0.482606
5920.48877 0.477637
5921.35400 0.472096
5922.22119 0.466021
5923.08594 0.459497
5923.95312 0.452635
5924.81787 0.445545
5925.68506 0.438308
5926.54980 0.430982
5927.41699 0.423597
5928.28223 0.416156
5929.14795 0.408664
5930.01416 0.401155
5930.87988 0.393705
5931.74609 0.386449
5932.61182 0.37953
5933.47803 0.373058
5934.34424 0.367075
5935.20996 0.361561
5936.07617 0.356475
5936.94189 0.35179
5937.80811 0.347528
5938.67383 0.343755
5939.54004 0.340558
5940.40576 0.338015
5941.27197 0.336164
5942.13818 0.334987
5943.00391 0.334395
5943.87012 0.334257
5944.73584 0.334421
5945.60205 0.334747
5946.46777 0.335131
5947.33398 0.335527
5948.20020 0.335926
5949.06592 0.336348
5949.93213 0.336812
5950.79785 0.337312
5951.66406 0.337822
5952.52979 0.338303
5953.39600 0.338698
5954.26221 0.338906
5955.12695 0.338787
5955.99414 0.338178
5956.85889 0.336969
5957.72607 0.335159
5958.59082 0.332881
5959.45801 0.330337
5960.32324 0.327726
5961.18896 0.325162
5962.05518 0.322652
5962.92090 0.320123
5963.78711 0.317473
5964.65283 0.314615
5965.52002 0.311505
5966.38477 0.308132
5967.25098 0.304507
5968.11719 0.300625
5968.98291 0.296456
5969.84912 0.291953
5970.71484 0.28707
5971.58105 0.281791
5972.44678 0.276137
5973.31299 0.270146
5974.17920 0.263873
5975.04492 0.257364
5975.91113 0.250653
5976.77686 0.24375
5977.64307 0.236647
5978.50879 0.229324
5979.37500 0.221778
5980.24121 0.214048
5981.10693 0.206214
5981.97314 0.198392
5982.83887 0.190697
5983.70508 0.183212
5984.57080 0.175964
5985.43701 0.168922
5986.30322 0.162012
5987.16797 0.155165
5988.03516 0.148344
5988.89990 0.141569
5989.76709 0.134913
5990.63281 0.12847
5991.49902 0.122327
5992.36523 0.116537
5993.22998 0.111109
5994.09717 0.106016
5994.96191 0.101222
5995.82910 0.096697
5996.69385 0.092439
5997.56104 0.088474
5998.42578 0.08484
5999.29199 0.08157
6000.15820 0.078692
6001.02393 0.076225
6001.89014 0.07418
6002.75586 0.072558
6003.62207 0.071336
6004.48779 0.070466
6005.35400 0.069881
6006.22021 0.069506
6007.08594 0.06928
6007.95215 0.069154
6008.81787 0.069099
6009.68408 0.069105
6010.54980 0.069172
6011.41602 0.069305
6012.28223 0.069502
6013.14795 0.069748
6014.01416 0.070016
6014.87988 0.070278
6015.74609 0.070516
6016.61182 0.070713
6017.47803 0.070853
6018.34424 0.07091
6019.20996 0.070845
6020.07617 0.070622
6020.94189 0.070221
6021.80811 0.069652
6022.67383 0.068944
6023.54004 0.068143
6024.40576 0.067286
6025.27100 0.066394
6026.13818 0.065472
6027.00293 0.064519
6027.87012 0.063537
6028.73486 0.062548
6029.60205 0.06158
6030.46680 0.060661
6031.33301 0.059807
6032.19922 0.059019
6033.06494 0.058286
6033.93115 0.057589
6034.79688 0.056906
6035.66309 0.05621
6036.52881 0.055472
6037.39502 0.054679
6038.26123 0.053831
6039.12695 0.052944
6039.99316 0.052029
6040.85889 0.051078
6041.72510 0.050057
6042.59082 0.048918
6043.45703 0.047627
6044.32324 0.046184
6045.18896 0.044635
6046.05518 0.043057
6046.92090 0.041532
6047.78711 0.040112
6048.65283 0.038808
6049.51904 0.037592
6050.38477 0.036425
6051.25098 0.035283
6052.11719 0.034174
6052.98291 0.033118
6053.84912 0.03213
6054.71484 0.031198
6055.58105 0.030281
6056.44678 0.029325
6057.31299 0.028288
6058.17920 0.027161
6059.04395 0.025965
6059.91113 0.024737
6060.77588 0.02351
6061.64307 0.02231
6062.50781 0.021161
6063.37500 0.020086
6064.24121 0.019112
6065.10596 0.018257
6065.97314 0.01752
6066.83789 0.016873
6067.70508 0.016276
6068.56982 0.015685
6069.43701 0.015069
6070.30176 0.014423
6071.16797 0.013765
6072.03418 0.013145
6072.89990 0.012618
6073.76611 0.012226
6074.63184 0.011978
6075.49805 0.011842
6076.36377 0.011768
6077.22998 0.011717
6078.09619 0.011671
6078.96191 0.011635
6079.82812 0.011615
6080.69385 0.011605
6081.56006 0.011584
6082.42578 0.011529
6083.29199 0.011435
6084.15820 0.011331
6085.02393 0.011271
6085.89014 0.011312
6086.75586 0.011485
6087.62207 0.011778
6088.48779 0.012148
6089.35400 0.012537
6090.22021 0.012896
6091.08594 0.013188
6091.95215 0.013392
6092.81787 0.013502
6093.68408 0.013522
6094.54980 0.013469
6095.41602 0.013377
6096.28223 0.013283
6097.14697 0.013226
6098.01416 0.013226
6098.87891 0.013277
6099.74609 0.013351
6100.61084 0.013412
6101.47803 0.013428
6102.34277 0.013386
6103.20898 0.013289
6104.07520 0.013153
6104.94092 0.012997
6105.80713 0.012839
6106.67285 0.012685
6107.53906 0.012533
6108.40479 0.012368
6109.27100 0.012178
6110.13721 0.011965
6111.00293 0.011754
6111.86914 0.011581
6112.73486 0.011482
6113.60107 0.011475
6114.46680 0.011553
6115.33301 0.011687
6116.19922 0.011835
6117.06494 0.011954
6117.93115 0.012012
6118.79688 0.012
6119.66309 0.011929
6120.52881 0.01182
6121.39502 0.011688
6122.26123 0.01154
6123.12695 0.01137
6123.99316 0.011178
6124.85889 0.010967
6125.72510 0.010753
6126.59082 0.010541
6127.45703 0.01033
6128.32324 0.010112
6129.18799 0.009874
6130.05518 0.009612
6130.91992 0.009328
6131.78711 0.00903
6132.65186 0.008731
6133.51904 0.008442
6134.38379 0.008175
6135.25000 0.00794
6136.11621 0.007744
6136.98193 0.007585
6137.84814 0.007452
6138.71387 0.007322
6139.58105 0.007167
6140.44580 0.006966
6141.31299 0.006717
6142.17822 0.006438
6143.04395 0.006158
6143.91016 0.005907
6144.77588 0.0057
6145.64209 0.005544
6146.50781 0.005434
6147.37402 0.005365
6148.24023 0.005334
6149.10596 0.005338
6149.97217 0.005372
6150.83789 0.005426
6151.70410 0.005483
6152.56982 0.005516
6153.43604 0.005497
6154.30176 0.005401
6155.16797 0.005223
6156.03418 0.004979
6156.89990 0.004708
6157.76611 0.004461
6158.63184 0.004287
6159.49805 0.004219
6160.36377 0.004264
6161.22900 0.004397
6162.09619 0.004575
6162.96094 0.004749
6163.82812 0.004884
6164.69385 0.004964
6165.56006 0.004991
6166.42578 0.004967
6167.29199 0.004897
6168.15820 0.004788
6169.02295 0.004658
6169.89014 0.00455
6170.75488 0.004514
6171.62207 0.00459
6172.48682 0.004785
6173.35400 0.005067
6174.21924 0.005369
6175.08496 0.005618
6175.95117 0.005757
6176.81689 0.005768
6177.68311 0.005672
6178.54883 0.005512
6179.41504 0.005332
6180.28076 0.005165
6181.14697 0.005019
6182.01318 0.004885
6182.87891 0.004749
6183.74512 0.004605
6184.61084 0.004463
6185.47705 0.004349
6186.34277 0.004285
6187.20898 0.004283
6188.07520 0.00433
6188.94092 0.004402
6189.80713 0.004475
6190.67285 0.00454
6191.53906 0.004604
6192.40479 0.004682
6193.27100 0.004781
6194.13721 0.004894
6195.00293 0.004994
6195.86914 0.005046
6196.73486 0.005026
6197.60107 0.004934
6198.46680 0.004796
6199.33301 0.004654
6200.19922 0.004548
6201.06396 0.004497
6201.93115 0.004494
6202.79590 0.004513
6203.66309 0.004516
6204.52783 0.004469
6205.39502 0.004353
6206.25977 0.004175
6826.88574 0.0
