# %ECSV 0.9
# ---
# datatype:
# - {name: wavelength, unit: Angstrom, datatype: float32}
# - {name: response, datatype: float32}
# meta: !!omap
# - {band_name: f_655_150}
# - {group_name: CAHA}
wavelength response
4499.72998 0.0
4999.70020 0.020731
5001.79980 0.020708
5003.89014 0.020685
5005.99023 0.020622
5008.08008 0.020564
5010.18018 0.020509
5012.27002 0.020387
5014.37012 0.020402
5016.45996 0.020421
5018.56006 0.02031
5020.64990 0.020178
5022.75000 0.020278
5024.83984 0.020144
5026.93994 0.020132
5029.02979 0.020123
5031.12988 0.020103
5033.22021 0.020053
5035.31982 0.019921
5037.41016 0.019877
5039.50977 0.019775
5041.60010 0.019763
5043.70020 0.019727
5045.79004 0.019667
5047.89014 0.019729
5049.97998 0.019647
5052.08008 0.019571
5054.16992 0.019543
5056.27002 0.019567
5058.35986 0.019489
5060.45996 0.019397
5062.54980 0.019229
5064.64990 0.019259
5066.74023 0.019214
5068.83984 0.019141
5070.93018 0.019172
5073.02979 0.019057
5075.12012 0.018898
5077.22021 0.018887
5079.31006 0.018918
5081.41016 0.01882
5083.50000 0.018898
5085.60010 0.018863
5087.68994 0.01881
5089.79004 0.018766
5091.87988 0.018707
5093.97998 0.01877
5096.06982 0.018701
5098.16992 0.018649
5100.25977 0.018576
5102.35986 0.018647
5104.45020 0.018624
5106.54980 0.018499
5108.64014 0.018452
5110.74023 0.018416
5112.83008 0.018396
5114.93018 0.018378
5117.02002 0.018347
5119.12012 0.018264
5121.20996 0.01823
5123.31006 0.018214
5125.39990 0.018171
5127.50000 0.018096
5129.58984 0.018114
5131.68994 0.018081
5133.77979 0.018044
5135.87988 0.017949
5137.97021 0.017933
5140.06982 0.017952
5142.16016 0.017887
5144.25977 0.017851
5146.35010 0.017845
5148.45020 0.017867
5150.54004 0.017829
5152.64014 0.017741
5154.72998 0.017683
5156.83008 0.017767
5158.91992 0.017727
5161.02002 0.017676
5163.10986 0.017677
5165.20996 0.017587
5167.29980 0.017596
5169.39990 0.017496
5171.49023 0.017493
5173.58984 0.01738
5175.68018 0.017475
5177.77979 0.017423
5179.87012 0.017419
5181.97021 0.0174
5184.06006 0.017378
5186.16016 0.017352
5188.25000 0.017292
5190.35010 0.017287
5192.43994 0.01722
5194.54004 0.017168
5196.62988 0.017147
5198.72998 0.017164
5200.81982 0.017115
5202.91992 0.01713
5205.00977 0.017163
5207.10986 0.017105
5209.20020 0.016994
5211.29980 0.016992
5213.39014 0.017009
5215.49023 0.01699
5217.58008 0.016911
5219.68018 0.016887
5221.77002 0.016952
5223.87012 0.016851
5225.95996 0.016838
5228.06006 0.016827
5230.14990 0.016848
5232.25000 0.016806
5234.33984 0.016793
5236.43994 0.016779
5238.52979 0.016643
5240.62988 0.016746
5242.72021 0.016747
5244.81982 0.016711
5246.91016 0.016695
5249.00977 0.016647
5251.10010 0.016637
5253.20020 0.016627
5255.29004 0.016654
5257.39014 0.016653
5259.47998 0.016604
5261.58008 0.016508
5263.66992 0.016496
5265.77002 0.016549
5267.85986 0.016497
5269.95996 0.016542
5272.04980 0.016446
5274.14990 0.016403
5276.24023 0.016426
5278.33984 0.016367
5280.43018 0.016355
5282.52979 0.016375
5284.62012 0.016361
5286.72021 0.016316
5288.81006 0.01638
5290.91016 0.01636
5293.00000 0.016269
5295.10010 0.016342
5297.18994 0.016372
5299.29004 0.016347
5301.37988 0.016314
5303.47998 0.016189
5305.56982 0.016246
5307.66992 0.016251
5309.75977 0.016217
5311.85986 0.016252
5313.95020 0.016307
5316.04980 0.01621
5318.14014 0.016186
5320.24023 0.016207
5322.33008 0.01623
5324.43018 0.016209
5326.52002 0.016176
5328.62012 0.016195
5330.70996 0.016217
5332.81006 0.016162
5334.89990 0.016144
5337.00000 0.016209
5339.08984 0.016099
5341.18994 0.016098
5343.27979 0.016132
5345.37988 0.016116
5347.47021 0.016093
5349.56982 0.016075
5351.66016 0.016082
5353.75977 0.016125
5355.85010 0.016074
5357.95020 0.016089
5360.04004 0.016091
5362.14014 0.016052
5364.22998 0.016081
5366.33008 0.016079
5368.41992 0.016057
5370.52002 0.01614
5372.60986 0.016121
5374.70996 0.01609
5376.79980 0.016102
5378.89990 0.016091
5380.99023 0.016071
5383.08984 0.016106
5385.18018 0.01612
5387.27979 0.016067
5389.37012 0.016111
5391.47021 0.016075
5393.56006 0.016131
5395.66016 0.016128
5397.75000 0.016089
5399.85010 0.016101
5401.93994 0.016126
5404.04004 0.016149
5406.12988 0.016173
5408.22998 0.016176
5410.31982 0.01616
5412.41992 0.016199
5414.50977 0.016182
5416.60986 0.016219
5418.70020 0.016217
5420.79980 0.016171
5422.89014 0.016276
5424.99023 0.016264
5427.08008 0.016236
5429.18018 0.016237
5431.27002 0.016328
5433.37012 0.016363
5435.45996 0.016333
5437.56006 0.016409
5439.64990 0.016442
5441.75000 0.0164
5443.83984 0.016467
5445.93994 0.016521
5448.02979 0.016513
5450.12988 0.016563
5452.22021 0.016682
5454.31982 0.016681
5456.41016 0.016741
5458.50977 0.016856
5460.60010 0.016834
5462.70020 0.016918
5464.79004 0.016977
5466.89014 0.016984
5468.97998 0.017152
5471.08008 0.01727
5473.16992 0.017336
5475.27002 0.017447
5477.35986 0.017608
5479.45996 0.01771
5481.54980 0.017849
5483.64990 0.017985
5485.74023 0.018119
5487.83984 0.018314
5489.93018 0.01858
5492.02979 0.018771
5494.12012 0.018963
5496.22021 0.019365
5498.31006 0.019594
5500.41016 0.019979
5502.50000 0.020301
5504.60010 0.020753
5506.68994 0.021244
5508.79004 0.021757
5510.87988 0.02244
5512.97998 0.023147
5515.06982 0.023851
5517.16992 0.0246
5519.25977 0.025473
5521.35986 0.026464
5523.45020 0.027535
5525.54980 0.028625
5527.64014 0.029963
5529.74023 0.031445
5531.83008 0.032992
5533.93018 0.034616
5536.02002 0.036386
5538.12012 0.038376
5540.20996 0.040559
5542.31006 0.042965
5544.39990 0.045545
5546.50000 0.048317
5548.58984 0.051302
5550.68994 0.05443
5552.77979 0.057762
5554.87988 0.061364
5556.97021 0.065269
5559.06982 0.069365
5561.16016 0.073829
5563.25977 0.078503
5565.35010 0.083299
5567.45020 0.088561
5569.54004 0.094067
5571.64014 0.09998
5573.72998 0.106221
5575.83008 0.112385
5577.91992 0.118891
5580.02002 0.126059
5582.10986 0.133238
5584.20996 0.140884
5586.29980 0.148864
5588.39990 0.156869
5590.49023 0.165671
5592.58984 0.174501
5594.68018 0.183555
5596.77979 0.192835
5598.87012 0.202234
5600.97021 0.212039
5603.06006 0.222182
5605.16016 0.232297
5607.25000 0.242559
5609.35010 0.253095
5611.43994 0.263892
5613.54004 0.274707
5615.62988 0.28595
5617.72998 0.296976
5619.81982 0.308135
5621.91992 0.319428
5624.00977 0.330701
5626.10986 0.342109
5628.20020 0.353405
5630.29980 0.36444
5632.39014 0.3758
5634.49023 0.386784
5636.58008 0.398106
5638.68018 0.409101
5640.77002 0.420635
5642.87012 0.43123
5644.95996 0.441858
5647.06006 0.452391
5649.14990 0.462396
5651.25000 0.472344
5653.33984 0.482421
5655.43994 0.491827
5657.52979 0.501643
5659.62988 0.510731
5661.72021 0.519558
5663.81982 0.528131
5665.91016 0.536631
5668.00977 0.544701
5670.10010 0.552766
5672.20020 0.560766
5674.29004 0.568261
5676.39014 0.575448
5678.47998 0.582593
5680.58008 0.589611
5682.66992 0.59605
5684.77002 0.602394
5686.85986 0.608721
5688.95996 0.614808
5691.04980 0.620758
5693.14990 0.626572
5695.24023 0.632231
5697.33984 0.637873
5699.43018 0.64354
5701.52979 0.64846
5703.62012 0.653559
5705.72021 0.658568
5707.81006 0.664103
5709.91016 0.669458
5712.00000 0.674544
5714.10010 0.679317
5716.18994 0.684317
5718.29004 0.689514
5720.37988 0.694211
5722.47998 0.699531
5724.56982 0.704822
5726.66992 0.710054
5728.75977 0.714216
5730.85986 0.718887
5732.95020 0.724331
5735.04980 0.729203
5737.14014 0.734545
5739.24023 0.739298
5741.33008 0.744162
5743.43018 0.749282
5745.52002 0.754029
5747.62012 0.758986
5749.70996 0.764125
5751.81006 0.76861
5753.89990 0.774165
5756.00000 0.778843
5758.08984 0.783842
5760.18994 0.788728
5762.27979 0.793396
5764.37988 0.798216
5766.47021 0.802515
5768.56982 0.806919
5770.66016 0.811516
5772.75977 0.815778
5774.85010 0.819365
5776.95020 0.823463
5779.04004 0.827857
5781.14014 0.83134
5783.22998 0.835108
5785.33008 0.83851
5787.41992 0.841631
5789.52002 0.844533
5791.60986 0.84725
5793.70996 0.850118
5795.79980 0.853226
5797.89990 0.855753
5799.99023 0.857773
5802.08984 0.859693
5804.18018 0.861218
5806.27979 0.863199
5808.37012 0.864739
5810.47021 0.865973
5812.56006 0.867741
5814.66016 0.868328
5816.75000 0.869023
5818.85010 0.870212
5820.93994 0.87094
5823.04004 0.87159
5825.12988 0.872414
5827.22998 0.872683
5829.31982 0.872928
5831.41992 0.872697
5833.50977 0.873187
5835.60986 0.873783
5837.70020 0.873159
5839.79980 0.873243
5841.89014 0.873603
5843.99023 0.873829
5846.08008 0.874276
5848.18018 0.87382
5850.27002 0.87424
5852.37012 0.874758
5854.45996 0.876162
5856.56006 0.876079
5858.64990 0.876454
5860.75000 0.876801
5862.83984 0.877365
5864.93994 0.877839
5867.02979 0.878677
5869.12988 0.879549
5871.22021 0.880322
5873.31982 0.880915
5875.41016 0.881861
5877.50977 0.88334
5879.60010 0.884052
5881.70020 0.885113
5883.79004 0.886003
5885.89014 0.887178
5887.97998 0.888676
5890.08008 0.889876
5892.16992 0.891981
5894.27002 0.892626
5896.35986 0.894387
5898.45996 0.895679
5900.54980 0.896068
5902.64990 0.897644
5904.74023 0.898767
5906.83984 0.900012
5908.93018 0.901307
5911.02979 0.902669
5913.12012 0.903596
5915.22021 0.904035
5917.31006 0.905223
5919.41016 0.905226
5921.50000 0.906267
5923.60010 0.906393
5925.68994 0.906614
5927.79004 0.907145
5929.87988 0.90697
5931.97998 0.906613
5934.06982 0.906476
5936.16992 0.905628
5938.25977 0.905362
5940.35986 0.904507
5942.45020 0.903465
5944.54980 0.902368
5946.64014 0.901716
5948.74023 0.900479
5950.83008 0.898695
5952.93018 0.896257
5955.02002 0.895589
5957.12012 0.893776
5959.20996 0.891967
5961.31006 0.889987
5963.39990 0.888286
5965.50000 0.88531
5967.58984 0.884034
5969.68994 0.881866
5971.77979 0.879508
5973.87988 0.877337
5975.97021 0.875332
5978.06982 0.87275
5980.16016 0.870504
5982.25977 0.868516
5984.35010 0.866614
5986.45020 0.864612
5988.54004 0.862773
5990.64014 0.860501
5992.72998 0.858177
5994.83008 0.856862
5996.91992 0.855144
5999.02002 0.853698
6001.10986 0.852453
6003.20996 0.851059
6005.29980 0.849591
6007.39990 0.848246
6009.49023 0.847383
6011.58984 0.846953
6013.68018 0.845779
6015.77979 0.844869
6017.87012 0.844453
6019.97021 0.84391
6022.06006 0.843473
6024.16016 0.8435
6026.25000 0.843561
6028.35010 0.843634
6030.43994 0.843621
6032.54004 0.843498
6034.62988 0.84396
6036.72998 0.84455
6038.81982 0.845145
6040.91992 0.845923
6043.00977 0.846695
6045.10986 0.847782
6047.20020 0.848458
6049.29980 0.8494
6051.39014 0.850209
6053.49023 0.851072
6055.58008 0.852446
6057.68018 0.853465
6059.77002 0.854889
6061.87012 0.855287
6063.95996 0.856148
6066.06006 0.857457
6068.14990 0.858277
6070.25000 0.859304
6072.33984 0.860327
6074.43994 0.860948
6076.52979 0.861529
6078.62988 0.861785
6080.72021 0.862733
6082.81982 0.862524
6084.91016 0.863873
6087.00977 0.8638
6089.10010 0.863869
6091.20020 0.863523
6093.29004 0.863739
6095.39014 0.863473
6097.47998 0.863584
6099.58008 0.862422
6101.66992 0.861493
6103.77002 0.861556
6105.85986 0.860239
6107.95996 0.859212
6110.04980 0.858425
6112.14990 0.857284
6114.24023 0.855973
6116.33984 0.854637
6118.43018 0.85322
6120.52979 0.851286
6122.62012 0.849516
6124.72021 0.847971
6126.81006 0.846381
6128.91016 0.844489
6131.00000 0.842697
6133.10010 0.841073
6135.18994 0.839397
6137.29004 0.837588
6139.37988 0.835765
6141.47998 0.834178
6143.56982 0.832301
6145.66992 0.830689
6147.75977 0.828498
6149.85986 0.827189
6151.95020 0.825938
6154.04980 0.823954
6156.14014 0.823267
6158.24023 0.821641
6160.33008 0.820627
6162.43018 0.819118
6164.52002 0.817748
6166.62012 0.817646
6168.70996 0.817058
6170.81006 0.815899
6172.89990 0.8154
6175.00000 0.815102
6177.08984 0.81505
6179.18994 0.814802
6181.27979 0.814329
6183.37988 0.814599
6185.47021 0.814711
6187.56982 0.815361
6189.66016 0.815874
6191.75977 0.816586
6193.85010 0.81723
6195.95020 0.818114
6198.04004 0.819454
6200.14014 0.820577
6202.22998 0.821611
6204.33008 0.822927
6206.41992 0.824324
6208.52002 0.825889
6210.60986 0.827583
6212.70996 0.82947
6214.79980 0.831407
6216.89990 0.832525
6218.99023 0.83489
6221.08984 0.836978
6223.18018 0.838727
6225.27979 0.840774
6227.37012 0.843141
6229.47021 0.845238
6231.56006 0.847808
6233.66016 0.849134
6235.75000 0.851396
6237.85010 0.85396
6239.93994 0.855688
6242.04004 0.857746
6244.12988 0.859575
6246.22998 0.861639
6248.31982 0.863389
6250.41992 0.865044
6252.50977 0.866559
6254.60986 0.868068
6256.70020 0.86923
6258.79980 0.870479
6260.89014 0.871913
6262.99023 0.872908
6265.08008 0.873967
6267.18018 0.874537
6269.27002 0.874712
6271.37012 0.875382
6273.45996 0.875691
6275.56006 0.876049
6277.64990 0.875523
6279.75000 0.875135
6281.83984 0.875688
6283.93994 0.875108
6286.02979 0.874359
6288.12988 0.8739
6290.22021 0.873353
6292.31982 0.872542
6294.41016 0.870899
6296.50977 0.869612
6298.60010 0.868384
6300.70020 0.867517
6302.79004 0.86589
6304.89014 0.863727
6306.97998 0.862047
6309.08008 0.860632
6311.16992 0.859286
6313.27002 0.857817
6315.35986 0.855709
6317.45996 0.853843
6319.54980 0.851765
6321.64990 0.850226
6323.74023 0.848639
6325.83984 0.846546
6327.93018 0.845151
6330.02979 0.843075
6332.12012 0.84129
6334.22021 0.839808
6336.31006 0.837541
6338.41016 0.836235
6340.50000 0.834566
6342.60010 0.832852
6344.68994 0.831539
6346.79004 0.829869
6348.87988 0.82834
6350.97998 0.827308
6353.06982 0.826241
6355.16992 0.825065
6357.25977 0.823891
6359.35986 0.822993
6361.45020 0.822527
6363.54980 0.821406
6365.64014 0.820527
6367.74023 0.820146
6369.83008 0.819018
6371.93018 0.818855
6374.02002 0.818204
6376.12012 0.817765
6378.20996 0.817371
6380.31006 0.817303
6382.39990 0.817403
6384.50000 0.817265
6386.58984 0.817189
6388.68994 0.816912
6390.77979 0.816866
6392.87988 0.817281
6394.97021 0.817428
6397.06982 0.817504
6399.16016 0.817871
6401.25977 0.817777
6403.35010 0.817556
6405.45020 0.818402
6407.54004 0.819668
6409.64014 0.81948
6411.72998 0.819199
6413.83008 0.819437
6415.91992 0.820268
6418.02002 0.820387
6420.10986 0.820655
6422.20996 0.821057
6424.29980 0.8213
6426.39990 0.821473
6428.49023 0.821614
6430.58984 0.82175
6432.68018 0.821834
6434.77979 0.82164
6436.87012 0.821605
6438.97021 0.822053
6441.06006 0.82177
6443.16016 0.821144
6445.25000 0.821268
6447.35010 0.82111
6449.43994 0.821118
6451.54004 0.820871
6453.62988 0.819835
6455.72998 0.81958
6457.81982 0.81941
6459.91992 0.818809
6462.00977 0.818233
6464.10986 0.817786
6466.20020 0.816986
6468.29980 0.815836
6470.39014 0.814966
6472.49023 0.814559
6474.58008 0.814022
6476.68018 0.813349
6478.77002 0.812682
6480.87012 0.812117
6482.95996 0.81111
6485.06006 0.810224
6487.14990 0.809596
6489.25000 0.808594
6491.33984 0.80802
6493.43994 0.807438
6495.52979 0.806758
6497.62988 0.806119
6499.72021 0.805448
6501.81982 0.804794
6503.91016 0.803888
6506.00977 0.803496
6508.10010 0.802753
6510.20020 0.802819
6512.29004 0.802209
6514.39014 0.801898
6516.47998 0.801575
6518.58008 0.800949
6520.66992 0.80082
6522.77002 0.800789
6524.85986 0.800933
6526.95996 0.801158
6529.04980 0.801159
6531.14990 0.801047
6533.24023 0.801187
6535.33984 0.801543
6537.43018 0.802316
6539.52979 0.802682
6541.62012 0.802853
6543.72021 0.803338
6545.81006 0.803843
6547.91016 0.804552
6550.00000 0.805821
6552.10010 0.80661
6554.18994 0.807672
6556.29004 0.808682
6558.37988 0.809579
6560.47998 0.810568
6562.56982 0.811583
6564.66992 0.81303
6566.75977 0.814308
6568.85986 0.815611
6570.95020 0.816708
6573.04980 0.81839
6575.14014 0.819673
6577.24023 0.820939
6579.33008 0.822436
6581.43018 0.823783
6583.52002 0.824927
6585.62012 0.826618
6587.70996 0.82832
6589.81006 0.829477
6591.89990 0.830842
6594.00000 0.832332
6596.08984 0.833632
6598.18994 0.834704
6600.27979 0.83581
6602.37988 0.83715
6604.47021 0.838235
6606.56982 0.839709
6608.66016 0.840837
6610.75977 0.841633
6612.85010 0.842388
6614.95020 0.843322
6617.04004 0.844161
6619.14014 0.84463
6621.22998 0.845251
6623.33008 0.845951
6625.41992 0.845959
6627.52002 0.846271
6629.60986 0.846666
6631.70996 0.846776
6633.79980 0.846612
6635.89990 0.8464
6637.99023 0.846159
6640.08984 0.845868
6642.18018 0.845404
6644.27979 0.84486
6646.37012 0.844378
6648.47021 0.843657
6650.56006 0.842628
6652.66016 0.842093
6654.75000 0.841405
6656.85010 0.83989
6658.93994 0.838694
6661.04004 0.837642
6663.12988 0.836322
6665.22998 0.834703
6667.31982 0.833294
6669.41992 0.832052
6671.50977 0.83051
6673.60986 0.828904
6675.70020 0.827518
6677.79980 0.825592
6679.89014 0.823719
6681.99023 0.822253
6684.08008 0.820249
6686.18018 0.817991
6688.27002 0.815681
6690.37012 0.814085
6692.45996 0.812611
6694.56006 0.810763
6696.64990 0.808805
6698.75000 0.806961
6700.83984 0.805075
6702.93994 0.80257
6705.02979 0.801133
6707.12988 0.799636
6709.22021 0.798251
6711.31982 0.796445
6713.41016 0.79476
6715.50977 0.79313
6717.60010 0.791555
6719.70020 0.789994
6721.79004 0.788467
6723.89014 0.787283
6725.97998 0.785735
6728.08008 0.783692
6730.16992 0.782256
6732.27002 0.781476
6734.35986 0.780054
6736.45996 0.779154
6738.54980 0.777939
6740.64990 0.776705
6742.74023 0.775849
6744.83984 0.775031
6746.93018 0.774099
6749.02979 0.77397
6751.12012 0.773256
6753.22021 0.772139
6755.31006 0.771471
6757.41016 0.770763
6759.50000 0.770741
6761.60010 0.770399
6763.68994 0.769948
6765.79004 0.769493
6767.87988 0.769299
6769.97998 0.76939
6772.06982 0.768673
6774.16992 0.769629
6776.25977 0.768909
6778.35986 0.769286
6780.45020 0.769235
6782.54980 0.768896
6784.64014 0.769283
6786.74023 0.769565
6788.83008 0.769824
6790.93018 0.770305
6793.02002 0.770493
6795.12012 0.770844
6797.20996 0.771089
6799.31006 0.771968
6801.39990 0.772065
6803.50000 0.772907
6805.58984 0.773623
6807.68994 0.774179
6809.77979 0.774835
6811.87988 0.775368
6813.97021 0.775642
6816.06982 0.77615
6818.16016 0.776647
6820.25977 0.777293
6822.35010 0.778075
6824.45020 0.778676
6826.54004 0.779291
6828.64014 0.780114
6830.72998 0.781136
6832.83008 0.781981
6834.91992 0.782741
6837.02002 0.783669
6839.10986 0.784087
6841.20996 0.78426
6843.29980 0.785493
6845.39990 0.785947
6847.49023 0.786797
6849.58984 0.787207
6851.68018 0.787616
6853.77979 0.788489
6855.87012 0.789323
6857.97021 0.789562
6860.06006 0.790068
6862.16016 0.790631
6864.25000 0.791721
6866.35010 0.79212
6868.43994 0.792866
6870.54004 0.793486
6872.62988 0.793845
6874.72998 0.794298
6876.81982 0.79481
6878.91992 0.795199
6881.00977 0.795921
6883.10986 0.796291
6885.20020 0.796741
6887.29980 0.796785
6889.39014 0.797174
6891.49023 0.797229
6893.58008 0.797656
6895.68018 0.797963
6897.77002 0.798018
6899.87012 0.798317
6901.95996 0.798726
6904.06006 0.798794
6906.14990 0.798995
6908.25000 0.799091
6910.33984 0.799088
6912.43994 0.799266
6914.52979 0.799246
6916.62988 0.799169
6918.72021 0.799112
6920.81982 0.798813
6922.91016 0.798812
6925.00977 0.799334
6927.10010 0.799606
6929.20020 0.79884
6931.29004 0.798544
6933.39014 0.798424
6935.47998 0.798121
6937.58008 0.797859
6939.66992 0.797855
6941.77002 0.797692
6943.85986 0.797178
6945.95996 0.796483
6948.04980 0.795808
6950.14990 0.795975
6952.24023 0.795276
6954.33984 0.794672
6956.43018 0.794238
6958.52979 0.793467
6960.62012 0.792476
6962.72021 0.792061
6964.81006 0.791229
6966.91016 0.790464
6969.00000 0.790062
6971.10010 0.789182
6973.18994 0.788211
6975.29004 0.787136
6977.37988 0.786172
6979.47998 0.785523
6981.56982 0.784445
6983.66992 0.783114
6985.75977 0.781627
6987.85986 0.780692
6989.95020 0.779663
6992.04980 0.778494
6994.14014 0.777335
6996.24023 0.776221
6998.33008 0.775034
7000.43018 0.773978
7002.52002 0.772706
7004.62012 0.770863
7006.70996 0.769513
7008.81006 0.767863
7010.89990 0.766441
7013.00000 0.764886
7015.08984 0.763138
7017.18994 0.7616
7019.27979 0.76036
7021.37988 0.759267
7023.47021 0.757483
7025.56982 0.755028
7027.66016 0.753709
7029.75977 0.752238
7031.85010 0.750614
7033.95020 0.749099
7036.04004 0.747408
7038.14014 0.745782
7040.22998 0.743928
7042.33008 0.741987
7044.41992 0.740076
7046.52002 0.738514
7048.60986 0.736656
7050.70996 0.735078
7052.79980 0.733801
7054.89990 0.731465
7056.99023 0.729619
7059.08984 0.727808
7061.18018 0.72616
7063.27979 0.724485
7065.37012 0.722777
7067.47021 0.721109
7069.56006 0.719511
7071.66016 0.717779
7073.75000 0.71565
7075.85010 0.713995
7077.93994 0.712021
7080.04004 0.710808
7082.12988 0.709253
7084.22998 0.707579
7086.31982 0.705825
7088.41992 0.704193
7090.50977 0.702937
7092.60986 0.701018
7094.70020 0.699336
7096.79980 0.697998
7098.89014 0.696422
7100.99023 0.695036
7103.08008 0.69391
7105.18018 0.692757
7107.27002 0.691355
7109.37012 0.690356
7111.45996 0.689098
7113.56006 0.687526
7115.64990 0.686419
7117.75000 0.685508
7119.83984 0.684442
7121.93994 0.683398
7124.02979 0.68253
7126.12988 0.681432
7128.22021 0.68054
7130.31982 0.679509
7132.41016 0.678976
7134.50977 0.678533
7136.60010 0.677919
7138.70020 0.677142
7140.79004 0.676485
7142.89014 0.676209
7144.97998 0.675621
7147.08008 0.675372
7149.16992 0.675501
7151.27002 0.675493
7153.35986 0.675466
7155.45996 0.675302
7157.54980 0.675139
7159.64990 0.675389
7161.74023 0.675692
7163.83984 0.676119
7165.93018 0.676082
7168.02979 0.676808
7170.12012 0.677427
7172.22021 0.678079
7174.31006 0.679084
7176.41016 0.680185
7178.50000 0.680946
7180.60010 0.681941
7182.68994 0.68316
7184.79004 0.684559
7186.87988 0.685679
7188.97998 0.686879
7191.06982 0.688524
7193.16992 0.690301
7195.25977 0.691717
7197.35986 0.694158
7199.45020 0.69603
7201.54980 0.697686
7203.64014 0.699656
7205.74023 0.701831
7207.83008 0.703901
7209.93018 0.705897
7212.02002 0.708248
7214.12012 0.710829
7216.20996 0.713166
7218.31006 0.715689
7220.39990 0.717677
7222.50000 0.719725
7224.58984 0.72259
7226.68994 0.725096
7228.77979 0.727641
7230.87988 0.729882
7232.97021 0.732313
7235.06982 0.734469
7237.16016 0.736362
7239.25977 0.738188
7241.35010 0.740078
7243.45020 0.742517
7245.54004 0.743865
7247.64014 0.745441
7249.72998 0.746892
7251.83008 0.74819
7253.91992 0.748949
7256.02002 0.749085
7258.10986 0.749192
7260.20996 0.749438
7262.29980 0.748995
7264.39990 0.747428
7266.49023 0.746343
7268.58984 0.744946
7270.68018 0.742779
7272.77979 0.740012
7274.87012 0.73694
7276.97021 0.732457
7279.06006 0.728269
7281.16016 0.723344
7283.25000 0.718397
7285.35010 0.713008
7287.43994 0.706866
7289.54004 0.700531
7291.62988 0.692399
7293.72998 0.684016
7295.81982 0.676273
7297.91992 0.667622
7300.00977 0.658538
7302.10986 0.649232
7304.20020 0.639409
7306.29980 0.629224
7308.39014 0.617054
7310.49023 0.606251
7312.58008 0.594827
7314.68018 0.582966
7316.77002 0.571339
7318.87012 0.560148
7320.95996 0.548028
7323.06006 0.53387
7325.14990 0.521451
7327.25000 0.509205
7329.33984 0.496966
7331.43994 0.484913
7333.52979 0.473081
7335.62988 0.461079
7337.72021 0.447537
7339.81982 0.435034
7341.91016 0.423392
7344.00977 0.412171
7346.10010 0.400963
7348.20020 0.389817
7350.29004 0.379288
7352.39014 0.367748
7354.47998 0.356298
7356.58008 0.346238
7358.66992 0.336332
7360.77002 0.326783
7362.85986 0.317509
7364.95996 0.30817
7367.04980 0.298618
7369.14990 0.289534
7371.24023 0.28102
7373.33984 0.272945
7375.43018 0.265231
7377.52979 0.257797
7379.62012 0.250562
7381.72021 0.242697
7383.81006 0.235241
7385.91016 0.228812
7388.00000 0.222365
7390.10010 0.216151
7392.18994 0.210228
7394.29004 0.204478
7396.37988 0.198635
7398.47998 0.192611
7400.56982 0.187415
7402.66992 0.182342
7404.75977 0.177528
7406.85986 0.172903
7408.95020 0.168294
7411.04980 0.163691
7413.14014 0.159094
7415.24023 0.155037
7417.33008 0.151155
7419.43018 0.147375
7421.52002 0.143713
7423.62012 0.140225
7425.70996 0.13642
7427.81006 0.132727
7429.89990 0.129558
7432.00000 0.126423
7434.08984 0.123394
7436.18994 0.120545
7438.27979 0.117861
7440.37988 0.114719
7442.47021 0.111844
7444.56982 0.109371
7446.66016 0.106961
7448.75977 0.104534
7450.85010 0.102107
7452.95020 0.099799
7455.04004 0.097369
7457.14014 0.09508
7459.22998 0.093077
7461.33008 0.091067
7463.41992 0.089065
7465.52002 0.087172
7467.60986 0.085458
7469.70996 0.083257
7471.79980 0.081468
7473.89990 0.079723
7475.99023 0.078071
7478.08984 0.076486
7480.18018 0.074901
7482.27979 0.073159
7484.37012 0.071653
7486.47021 0.070184
7488.56006 0.068698
7490.66016 0.067285
7492.75000 0.065954
7494.85010 0.064632
7496.93994 0.063113
7499.04004 0.061874
7501.12988 0.060585
7503.22998 0.059336
7505.31982 0.058172
7507.41992 0.057061
7509.50977 0.055865
7511.60986 0.054527
7513.70020 0.053414
7515.79980 0.052326
7517.89014 0.051286
7519.99023 0.050285
7522.08008 0.049285
7524.18018 0.048174
7526.27002 0.047116
7528.37012 0.046212
7530.45996 0.045327
7532.56006 0.044424
7534.64990 0.043505
7536.75000 0.042626
7538.83984 0.041592
7540.93994 0.040794
7543.02979 0.040032
7545.12988 0.039236
7547.22021 0.038392
7549.31982 0.037547
7551.41016 0.036856
7553.50977 0.036003
7555.60010 0.035264
7557.70020 0.034532
7559.79004 0.033831
7561.89014 0.033174
7563.97998 0.032532
7566.08008 0.031758
7568.16992 0.031037
7570.27002 0.030458
7572.35986 0.029869
7574.45996 0.029264
7576.54980 0.028721
7578.64990 0.028016
7580.74023 0.027491
7582.83984 0.026922
7584.93018 0.026388
7587.02979 0.025892
7589.12012 0.025416
7591.22021 0.024948
7593.31006 0.024374
7595.41016 0.023921
7597.50000 0.02346
7599.60010 0.023012
7601.68994 0.022596
7603.79004 0.022217
7605.87988 0.021631
7607.97998 0.021282
7610.06982 0.020896
7612.16992 0.020509
7614.25977 0.02013
7616.35986 0.019749
7618.45020 0.019347
7620.54980 0.01903
7622.64014 0.018685
7624.74023 0.018371
7626.83008 0.01808
7628.93018 0.017778
7631.02002 0.017419
7633.12012 0.017101
7635.20996 0.01678
7637.31006 0.016516
7639.39990 0.016262
7641.50000 0.015989
7643.58984 0.015748
7645.68994 0.015487
7647.77979 0.015254
7649.87988 0.015011
7651.97021 0.014777
7654.06982 0.014552
7656.16016 0.014304
7658.25977 0.014095
7660.35010 0.013896
7662.45020 0.013686
7664.54004 0.01351
7666.64014 0.013367
7668.72998 0.013217
7670.83008 0.01303
7672.91992 0.012885
7675.02002 0.012717
7677.10986 0.012581
7679.20996 0.01245
7681.29980 0.012252
7683.39990 0.012108
7685.49023 0.011938
7687.58984 0.011742
7689.68018 0.011593
7691.77979 0.011479
7693.87012 0.011346
7695.97021 0.011167
7698.06006 0.011054
7700.16016 0.010954
7702.25000 0.010838
7704.35010 0.01072
7706.43994 0.010627
7708.54004 0.010509
7710.62988 0.010395
7712.72998 0.010265
7714.81982 0.010141
7716.91992 0.01003
7719.00977 0.009935
7721.10986 0.009836
7723.20020 0.009756
7725.29980 0.009651
7727.39014 0.009545
7729.49023 0.009451
7731.58008 0.009371
7733.68018 0.00928
7735.77002 0.00918
7737.87012 0.009097
7739.95996 0.009014
7742.06006 0.008934
7744.14990 0.008863
7746.25000 0.008789
7748.33984 0.008718
7750.43994 0.00867
7752.52979 0.008621
7754.62988 0.008556
7756.72021 0.008463
7758.81982 0.008346
7760.91016 0.008355
7763.00977 0.008275
7765.10010 0.00822
7767.20020 0.008195
7769.29004 0.008133
7771.39014 0.00807
7773.47998 0.008046
7775.58008 0.007965
7777.66992 0.007898
7779.77002 0.007863
7781.85986 0.007827
7783.95996 0.007742
7786.04980 0.007719
7788.14990 0.007675
7790.24023 0.007628
7792.33984 0.007587
7794.43018 0.007537
7796.52979 0.007516
7798.62012 0.007494
7800.72021 0.007456
7802.81006 0.007389
7804.91016 0.007306
7807.00000 0.007299
7809.10010 0.00729
7811.18994 0.007256
7813.29004 0.007213
7815.37988 0.007171
7817.47998 0.007138
7819.56982 0.00709
7821.66992 0.007074
7823.75977 0.007036
7825.85986 0.006988
7827.95020 0.006944
7830.04980 0.00692
7832.14014 0.006904
7834.24023 0.0069
7836.33008 0.006862
7838.43018 0.006822
7840.52002 0.006796
7842.62012 0.006785
7844.70996 0.006726
7846.81006 0.006702
7848.89990 0.006693
7851.00000 0.006679
7853.08984 0.006649
7855.18994 0.006603
7857.27979 0.006589
7859.37988 0.006551
7861.47021 0.006526
7863.56982 0.006508
7865.66016 0.006475
7867.75977 0.006473
7869.85010 0.00645
7871.95020 0.00642
7874.04004 0.006395
7876.14014 0.006376
7878.22998 0.006353
7880.33008 0.006321
7882.41992 0.006292
7884.52002 0.006279
7886.60986 0.006267
7888.70996 0.006238
7890.79980 0.006163
7892.89990 0.006198
7894.99023 0.006169
7897.08984 0.006152
7899.18018 0.006144
7901.27979 0.006104
7903.37012 0.00609
7905.47021 0.006039
7907.56006 0.006031
7909.66016 0.006024
7911.75000 0.006
7913.85010 0.00598
7915.93994 0.005942
7918.04004 0.005921
7920.12988 0.005899
7922.22998 0.005877
7924.31982 0.005861
7926.41992 0.005833
7928.50977 0.005803
7930.60986 0.005778
7932.70020 0.005761
7934.79980 0.005748
7936.89014 0.005708
7938.99023 0.00572
7941.08008 0.005686
7943.18018 0.005654
7945.27002 0.005633
7947.37012 0.005623
7949.45996 0.005591
7951.56006 0.005561
7953.64990 0.005546
7955.75000 0.005528
7957.83984 0.005504
7959.93994 0.005501
7962.02979 0.005467
7964.12988 0.005451
7966.22021 0.005444
7968.31982 0.005426
7970.41016 0.005366
7972.50977 0.005383
7974.60010 0.005362
7976.70020 0.00532
7978.79004 0.005299
7980.89014 0.005307
7982.97998 0.005255
7985.08008 0.005268
7987.16992 0.00524
7989.27002 0.005199
7991.35986 0.005167
7993.45996 0.005175
7995.54980 0.00515
7997.64990 0.005144
7999.74023 0.005129
8001.83984 0.005106
8802.02344 0.0
