# %ECSV 0.9
# ---
# datatype:
# - {name: wavelength, unit: Angstrom, datatype: float32}
# - {name: response, datatype: float32}
# meta: !!omap
# - {band_name: f_851_11}
# - {group_name: CAHA}
wavelength response
7549.25537 0.0
8388.06152 0.005015
8388.32227 0.005154
8388.58301 0.00535
8388.84277 0.005602
8389.10352 0.005902
8389.36426 0.006226
8389.62500 0.006549
8389.88574 0.006847
8390.14648 0.007108
8390.40625 0.007329
8390.66699 0.007513
8390.92773 0.007667
8391.18848 0.007797
8391.44922 0.007909
8391.70996 0.008008
8391.97070 0.008103
8392.23145 0.008199
8392.49121 0.008304
8392.75195 0.008423
8393.01270 0.008552
8393.27344 0.008684
8393.53418 0.008807
8393.79492 0.00891
8394.05566 0.008991
8394.31641 0.009053
8394.57715 0.009106
8394.83691 0.00916
8395.09766 0.009221
8395.35840 0.009295
8395.61914 0.009383
8395.87988 0.009484
8396.14062 0.009602
8396.40137 0.009736
8396.66211 0.009881
8396.92285 0.010028
8397.18359 0.010165
8397.44336 0.010284
8397.70410 0.010384
8397.96484 0.010473
8398.22559 0.010558
8398.48633 0.010648
8398.74707 0.010744
8399.00781 0.010845
8399.26855 0.01095
8399.52930 0.011059
8399.79004 0.011178
8400.05078 0.011314
8400.31152 0.011471
8400.57227 0.011647
8400.83301 0.011835
8401.09277 0.012025
8401.35352 0.012206
8401.61426 0.012369
8401.87500 0.012514
8402.13574 0.012647
8402.39648 0.012779
8402.65723 0.012919
8402.91797 0.013071
8403.17871 0.013233
8403.43945 0.0134
8403.70020 0.013568
8403.96094 0.013733
8404.22168 0.0139
8404.48242 0.014073
8404.74316 0.014261
8405.00391 0.014466
8405.26465 0.014686
8405.52539 0.01491
8405.78613 0.015128
8406.04688 0.015331
8406.30762 0.015518
8406.56836 0.015701
8406.82910 0.015892
8407.08984 0.016104
8407.35059 0.016342
8407.61133 0.016601
8407.87207 0.016874
8408.13281 0.017152
8408.39355 0.017429
8408.65430 0.017707
8408.91504 0.017989
8409.17578 0.018281
8409.43652 0.01858
8409.69727 0.018876
8409.95801 0.019156
8410.21875 0.01941
8410.47852 0.019638
8410.74023 0.01985
8411.00098 0.020061
8411.26172 0.020281
8411.52246 0.020518
8411.78320 0.020774
8412.04395 0.021046
8412.30469 0.021334
8412.56543 0.02164
8412.82617 0.021966
8413.08691 0.022312
8413.34766 0.022676
8413.60840 0.023055
8413.86914 0.023445
8414.12988 0.023837
8414.39062 0.024224
8414.65137 0.024597
8414.91211 0.024957
8415.17285 0.025308
8415.43457 0.02566
8415.69531 0.026018
8415.95605 0.026388
8416.21680 0.026773
8416.47754 0.027172
8416.73828 0.027587
8416.99902 0.02802
8417.25977 0.028472
8417.52148 0.028948
8417.78125 0.029447
8418.04199 0.029967
8418.30273 0.030506
8418.56348 0.031058
8418.82422 0.031619
8419.08594 0.032173
8419.34668 0.032707
8419.60742 0.03321
8419.86816 0.033686
8420.12891 0.034145
8420.38965 0.034606
8420.65039 0.035085
8420.91113 0.035597
8421.17188 0.036148
8421.43262 0.036737
8421.69336 0.03736
8421.95508 0.038007
8422.21582 0.038672
8422.47656 0.039345
8422.73730 0.040018
8422.99805 0.040688
8423.25879 0.041365
8423.51953 0.042062
8423.78027 0.042795
8424.04102 0.043572
8424.30273 0.044396
8424.56348 0.045259
8424.82422 0.046148
8425.08496 0.047044
8425.34570 0.047933
8425.60645 0.048811
8425.86719 0.049679
8426.12891 0.050539
8426.38965 0.051389
8426.65039 0.052229
8426.91113 0.05306
8427.17188 0.053884
8427.43262 0.054705
8427.69336 0.055532
8427.95508 0.056381
8428.21582 0.057266
8428.47656 0.058197
8428.73730 0.059177
8428.99805 0.060206
8429.25879 0.06128
8429.52148 0.062396
8429.78125 0.063542
8430.04199 0.064706
8430.30273 0.065882
8430.56348 0.067064
8430.82422 0.068255
8431.08594 0.069459
8431.34668 0.070689
8431.60742 0.071956
8431.86816 0.073268
8432.12891 0.074623
8432.39062 0.076019
8432.65137 0.077451
8432.91211 0.078915
8433.17285 0.080406
8433.43359 0.081915
8433.69531 0.083439
8433.95605 0.08498
8434.21680 0.086542
8434.47754 0.088125
8434.73828 0.08973
8435.00000 0.091365
8435.26074 0.093039
8435.52148 0.094759
8435.78223 0.096524
8436.04297 0.098333
8436.30469 0.100187
8436.56543 0.102085
8436.82617 0.104022
8437.08691 0.10599
8437.34863 0.107987
8437.60938 0.110016
8437.87012 0.112081
8438.13086 0.114182
8438.39160 0.116319
8438.65332 0.118493
8438.91406 0.120704
8439.17480 0.122949
8439.43555 0.125228
8439.69727 0.127551
8439.95801 0.12993
8440.21875 0.132374
8440.47852 0.134878
8440.74121 0.137438
8441.00195 0.140057
8441.26270 0.142737
8441.52344 0.145471
8441.78516 0.148239
8442.04590 0.151021
8442.30664 0.153804
8442.56836 0.156589
8442.82910 0.159387
8443.08984 0.162224
8443.35059 0.165136
8443.61230 0.168154
8443.87305 0.171289
8444.13379 0.17453
8444.39453 0.177857
8444.65625 0.181248
8444.91699 0.184683
8445.17773 0.188145
8445.43945 0.191637
8445.70020 0.195181
8445.96094 0.198804
8446.22266 0.202519
8446.48340 0.206321
8446.74414 0.210208
8447.00488 0.214184
8447.26660 0.218254
8447.52734 0.222416
8447.78809 0.226662
8448.04980 0.230987
8448.31055 0.235384
8448.57129 0.239833
8448.83301 0.244315
8449.09375 0.248822
8449.35352 0.253362
8449.61621 0.257945
8449.87695 0.262569
8450.13770 0.267227
8450.39941 0.271915
8450.66016 0.276635
8450.92090 0.281387
8451.18262 0.286172
8451.44336 0.291003
8451.70410 0.295903
8451.96582 0.300895
8452.22656 0.305986
8452.48730 0.311169
8452.74902 0.316438
8453.00977 0.321788
8453.27148 0.327201
8453.53223 0.332652
8453.79297 0.338123
8454.05371 0.343619
8454.31543 0.349154
8454.57617 0.354741
8454.83691 0.36039
8455.09863 0.366113
8455.35938 0.371919
8455.62109 0.377796
8455.88184 0.383708
8456.14258 0.389624
8456.40430 0.395527
8456.66504 0.401415
8456.92578 0.407284
8457.18848 0.413133
8457.44824 0.418982
8457.70996 0.424863
8457.97070 0.430798
8458.23145 0.436786
8458.49316 0.442817
8458.75391 0.448881
8459.01562 0.454968
8459.27637 0.461062
8459.53711 0.467149
8459.79883 0.473232
8460.05957 0.47932
8460.32129 0.485412
8460.58203 0.49148
8460.84277 0.497503
8461.10352 0.503478
8461.36523 0.509428
8461.62695 0.515379
8461.88770 0.521357
8462.14941 0.527388
8462.41016 0.533486
8462.67090 0.539629
8462.93262 0.545757
8463.19336 0.551804
8463.45508 0.55773
8463.71582 0.563532
8463.97754 0.569221
8464.23828 0.574814
8464.49902 0.580331
8464.76074 0.585794
8465.02148 0.591206
8465.28320 0.596548
8465.54395 0.601794
8465.80566 0.60694
8466.06641 0.611997
8466.32812 0.616979
8466.58887 0.621901
8466.85059 0.626776
8467.11133 0.631624
8467.37207 0.636455
8467.63379 0.641266
8467.89453 0.64604
8468.15625 0.650761
8468.41699 0.655405
8468.67871 0.659938
8468.93945 0.664318
8469.20117 0.668522
8469.46191 0.672558
8469.72363 0.676464
8469.98438 0.680283
8470.24609 0.684063
8470.50684 0.687851
8470.76855 0.691681
8471.02930 0.695551
8471.29102 0.699432
8471.55176 0.703287
8471.81348 0.707087
8472.07422 0.71081
8472.33594 0.714431
8472.59668 0.717933
8472.85840 0.721312
8473.11914 0.724581
8473.38086 0.727755
8473.64160 0.730832
8473.90332 0.7338
8474.16406 0.736649
8474.42578 0.739369
8474.68652 0.741959
8474.94824 0.744438
8475.20898 0.746853
8475.47070 0.749258
8475.73145 0.751685
8475.99316 0.75412
8476.25391 0.756526
8476.51562 0.758865
8476.77734 0.761115
8477.03809 0.76326
8477.29980 0.765286
8477.56055 0.767182
8477.82227 0.768953
8478.08301 0.770617
8478.34473 0.772193
8478.60547 0.773698
8478.86719 0.775139
8479.12793 0.77651
8479.38965 0.777799
8479.65137 0.779
8479.91211 0.780137
8480.17383 0.781258
8480.43457 0.78242
8480.69629 0.783655
8480.95703 0.784957
8481.21875 0.786286
8481.48047 0.787584
8481.74121 0.788789
8482.00293 0.789848
8482.26367 0.790732
8482.52539 0.791439
8482.78613 0.792
8483.04785 0.792463
8483.30957 0.792887
8483.57031 0.793327
8483.83203 0.793826
8484.09277 0.794411
8484.35352 0.795086
8484.61621 0.795837
8484.87695 0.796639
8485.13867 0.797454
8485.39941 0.798239
8485.66113 0.798953
8485.92285 0.799563
8486.18359 0.800051
8486.44531 0.80042
8486.70703 0.800693
8486.96777 0.800916
8487.22852 0.80114
8487.49023 0.801413
8487.75195 0.801754
8488.01367 0.802157
8488.27441 0.802592
8488.53613 0.803032
8488.79785 0.803462
8489.05859 0.80388
8489.32031 0.804296
8489.58105 0.80472
8489.84277 0.805145
8490.10352 0.805562
8490.36523 0.805949
8490.62695 0.806284
8490.88867 0.806543
8491.14941 0.806707
8491.41113 0.806768
8491.67285 0.806738
8491.93359 0.806638
8492.19531 0.806498
8492.45703 0.806337
8492.71777 0.806163
8492.97852 0.805975
8493.24121 0.805776
8493.50195 0.80558
8493.76367 0.805409
8494.02539 0.805284
8494.28613 0.805217
8494.54785 0.805215
8494.80957 0.80527
8495.07031 0.805372
8495.33203 0.805501
8495.59375 0.805641
8495.85352 0.805772
8496.11621 0.805885
8496.37793 0.805978
8496.63867 0.80605
8496.90039 0.806105
8497.16211 0.806142
8497.42383 0.806158
8497.68457 0.806136
8497.94629 0.806056
8498.20801 0.805902
8498.46875 0.805674
8498.73047 0.805396
8498.99219 0.805104
8499.25391 0.804836
8499.51465 0.804621
8499.77637 0.804473
8500.03809 0.8044
8500.29883 0.804406
8500.56055 0.804499
8500.82227 0.804686
8501.08398 0.804964
8501.34473 0.805319
8501.60645 0.805716
8501.86816 0.806112
8502.12988 0.806465
8502.39062 0.80674
8502.65234 0.806912
8502.91406 0.806972
8503.17480 0.806929
8503.43652 0.806804
8503.69824 0.806632
8503.95996 0.806449
8504.22070 0.806288
8504.48242 0.806173
8504.74414 0.806107
8505.00586 0.806076
8505.26758 0.80605
8505.52832 0.806001
8505.79004 0.805916
8506.05176 0.805806
8506.31348 0.805698
8506.57422 0.805606
8506.83594 0.805524
8507.09766 0.805419
8507.35938 0.805256
8507.62012 0.805014
8507.88184 0.804704
8508.14355 0.804359
8508.40527 0.804013
8508.66699 0.803691
8508.92773 0.803408
8509.18945 0.80318
8509.45117 0.803042
8509.71289 0.803035
8509.97461 0.803191
8510.23535 0.803508
8510.49707 0.803944
8510.75879 0.804427
8511.02148 0.80487
8511.28223 0.805203
8511.54297 0.805383
8511.80469 0.8054
8512.06641 0.805277
8512.32812 0.805051
8512.58984 0.804763
8512.85156 0.804451
8513.11230 0.804147
8513.37402 0.803872
8513.63574 0.803632
8513.89746 0.80342
8514.15918 0.803218
8514.41992 0.803009
8514.68164 0.8028
8514.94336 0.802615
8515.20508 0.802495
8515.46680 0.802469
8515.72852 0.802528
8515.99023 0.802633
8516.25098 0.802719
8516.51270 0.802721
8516.77441 0.802607
8517.03613 0.802381
8517.29785 0.802086
8517.55957 0.801783
8517.82129 0.801523
8518.08203 0.801328
8518.34375 0.801188
8518.60547 0.801066
8518.86719 0.800929
8519.12891 0.800758
8519.39062 0.800567
8519.65234 0.80039
8519.91309 0.800271
8520.17480 0.800243
8520.43652 0.80031
8520.69824 0.800447
8520.95996 0.800605
8521.22168 0.800729
8521.48340 0.800785
8521.74512 0.800762
8522.00684 0.800678
8522.26758 0.800561
8522.52930 0.800437
8522.79102 0.800319
8523.05273 0.800206
8523.31445 0.80009
8523.57617 0.799959
8523.83789 0.799799
8524.09961 0.799613
8524.36133 0.799414
8524.62305 0.799234
8524.88477 0.799102
8525.14648 0.799025
8525.40723 0.79897
8525.66895 0.798871
8525.93066 0.798672
8526.19238 0.798356
8526.45410 0.797955
8526.71582 0.797535
8526.97754 0.797149
8527.23926 0.796814
8527.50098 0.796506
8527.76270 0.796185
8528.02441 0.795821
8528.28613 0.795413
8528.54785 0.794993
8528.80859 0.794606
8529.07031 0.794285
8529.33203 0.794041
8529.59375 0.793849
8529.85547 0.793661
8530.11719 0.793417
8530.37891 0.793054
8530.64062 0.792524
8530.90234 0.791817
8531.16406 0.790975
8531.42578 0.790087
8531.68848 0.789252
8531.94922 0.788549
8532.21094 0.788003
8532.47266 0.787581
8532.73438 0.787207
8532.99609 0.786793
8533.25781 0.786272
8533.51953 0.785615
8533.78125 0.784829
8534.04297 0.783944
8534.30469 0.782995
8534.56641 0.782022
8534.82812 0.781073
8535.08984 0.780185
8535.35156 0.779386
8535.61328 0.778667
8535.87500 0.777993
8536.13672 0.777309
8536.39844 0.77656
8536.66016 0.775706
8536.92188 0.774737
8537.18359 0.773671
8537.44531 0.772536
8537.70703 0.771346
8537.96875 0.770098
8538.23047 0.768784
8538.49219 0.767401
8538.75391 0.765944
8539.01562 0.76441
8539.27734 0.76279
8539.53906 0.761073
8539.80078 0.759251
8540.06348 0.757324
8540.32422 0.755308
8540.58594 0.753244
8540.84766 0.751189
8541.10938 0.749193
8541.37109 0.747276
8541.63281 0.745412
8541.89453 0.743542
8542.15625 0.741594
8542.41895 0.739506
8542.68066 0.737241
8542.94238 0.734809
8543.20410 0.732255
8543.46582 0.729649
8543.72754 0.727053
8543.98926 0.724502
8544.25098 0.722005
8544.51270 0.719534
8544.77441 0.71703
8545.03613 0.714418
8545.29785 0.711641
8545.55957 0.708679
8545.82129 0.705554
8546.08398 0.702307
8546.34570 0.698984
8546.60742 0.695629
8546.86914 0.692267
8547.13086 0.688893
8547.39258 0.685462
8547.65430 0.68192
8547.91602 0.678236
8548.17773 0.674415
8548.43945 0.670483
8548.70117 0.666471
8548.96387 0.662404
8549.22559 0.658303
8549.48730 0.65418
8549.74902 0.65003
8550.01074 0.645831
8550.27246 0.641565
8550.53418 0.637221
8550.79590 0.632788
8551.05762 0.628253
8551.32031 0.623609
8551.58203 0.618875
8551.84375 0.614089
8552.10547 0.609289
8552.36719 0.604486
8552.62891 0.599671
8552.89062 0.594818
8553.15332 0.589893
8553.41504 0.584868
8553.67676 0.579739
8553.93848 0.574532
8554.20020 0.569296
8554.46191 0.564063
8554.72363 0.558834
8554.98633 0.553593
8555.24805 0.548331
8555.50977 0.543056
8555.77148 0.537771
8556.03320 0.532465
8556.29492 0.527116
8556.55664 0.52171
8556.81934 0.516237
8557.08105 0.510697
8557.34277 0.505086
8557.60352 0.499417
8557.86621 0.49371
8558.12793 0.487988
8558.39062 0.482267
8558.65234 0.476563
8558.91406 0.470896
8559.17578 0.465277
8559.43848 0.459695
8559.70020 0.45412
8559.96191 0.448524
8560.22363 0.442898
8560.48535 0.437253
8560.74707 0.431609
8561.00977 0.425983
8561.27148 0.420396
8561.53320 0.414859
8561.79492 0.40937
8562.05664 0.403906
8562.31934 0.398446
8562.58105 0.392986
8562.84277 0.387536
8563.10352 0.382107
8563.36621 0.376708
8563.62891 0.371347
8563.89062 0.366038
8564.15234 0.360787
8564.41406 0.355588
8564.67676 0.350432
8564.93848 0.345319
8565.20020 0.340257
8565.46191 0.335249
8565.72461 0.330283
8565.98633 0.325346
8566.24805 0.320438
8566.50977 0.315557
8566.77148 0.310696
8567.03418 0.305844
8567.29590 0.300992
8567.55762 0.296157
8567.81934 0.291365
8568.08203 0.286639
8568.34375 0.281996
8568.60547 0.27744
8568.86816 0.272979
8569.12988 0.268606
8569.39160 0.264312
8569.65332 0.260083
8569.91602 0.255914
8570.17773 0.251804
8570.43945 0.247744
8570.70117 0.24372
8570.96387 0.239723
8571.22559 0.235748
8571.48730 0.231797
8571.75000 0.227865
8572.01172 0.223949
8572.27344 0.220055
8572.53516 0.216201
8572.79785 0.212402
8573.05957 0.208668
8573.32129 0.205001
8573.58398 0.201405
8573.84570 0.197883
8574.10742 0.194433
8574.36914 0.191051
8574.63184 0.187735
8574.89355 0.184489
8575.15527 0.181314
8575.41797 0.1782
8575.67969 0.17513
8575.94141 0.172093
8576.20410 0.169088
8576.46582 0.166125
8576.72754 0.163213
8576.99023 0.160364
8577.25195 0.157589
8577.51367 0.154895
8577.77637 0.15227
8578.03809 0.149689
8578.29980 0.147131
8578.56348 0.144586
8578.82422 0.142056
8579.08594 0.139544
8579.34863 0.137056
8579.61035 0.134596
8579.87207 0.132174
8580.13477 0.129801
8580.39648 0.127485
8580.65820 0.125234
8580.92090 0.123058
8581.18262 0.12096
8581.44434 0.118931
8581.70703 0.116949
8581.96875 0.114988
8582.23145 0.11303
8582.49316 0.111071
8582.75488 0.109119
8583.01758 0.107184
8583.27930 0.10528
8583.54102 0.103425
8583.80371 0.101627
8584.06543 0.099889
8584.32812 0.098205
8584.58984 0.096568
8584.85156 0.094969
8585.11426 0.093399
8585.37598 0.091843
8585.63770 0.090289
8585.90039 0.088734
8586.16211 0.087181
8586.42480 0.085636
8586.68652 0.084107
8586.94824 0.082599
8587.21094 0.081123
8587.47266 0.07969
8587.73535 0.078306
8587.99707 0.07697
8588.25977 0.07568
8588.52148 0.074433
8588.78320 0.073223
8589.04590 0.072042
8589.30762 0.070882
8589.57031 0.069737
8589.83203 0.068605
8590.09375 0.067484
8590.35645 0.066374
8590.61816 0.065278
8590.88086 0.064199
8591.14258 0.06314
8591.40527 0.062099
8591.66699 0.061071
8591.92871 0.060049
8592.19141 0.059032
8592.45312 0.058023
8592.71582 0.057028
8592.97754 0.056055
8593.24023 0.05511
8593.50195 0.054201
8593.76465 0.05333
8594.02637 0.052496
8594.28906 0.051695
8594.55078 0.050925
8594.81348 0.050185
8595.07520 0.049469
8595.33691 0.048766
8595.59961 0.048063
8595.86133 0.047347
8596.12402 0.046613
8596.38574 0.045861
8596.64844 0.045096
8596.91016 0.04433
8597.17285 0.043575
8597.43457 0.042843
8597.69727 0.042142
8597.95898 0.041472
8598.22168 0.040829
8598.48340 0.040202
8598.74609 0.039577
8599.00781 0.038942
8599.27148 0.038294
8599.53223 0.037642
8599.79492 0.037001
8600.05664 0.036382
8600.31934 0.035789
8600.58105 0.035216
8600.84375 0.034653
8601.10547 0.034089
8601.36816 0.03352
8601.62988 0.032949
8601.89258 0.032385
8602.15430 0.031842
8602.41699 0.031332
8602.67871 0.030863
8602.94141 0.030434
8603.20312 0.030042
8603.46582 0.029681
8603.72754 0.029347
8603.99023 0.029034
8604.25293 0.028734
8604.51465 0.028433
8604.77734 0.028116
8605.03906 0.027768
8605.30176 0.027391
8605.56348 0.026994
8605.82617 0.026594
8606.08789 0.026204
8606.35059 0.025827
8606.61230 0.025455
8606.87500 0.025079
8607.13770 0.024697
8607.39941 0.024311
8607.66211 0.023932
8607.92383 0.02357
8608.18652 0.023233
8608.44824 0.022923
8608.71094 0.022634
8608.97363 0.022355
8609.23535 0.022072
8609.49805 0.021775
8609.75977 0.021461
8610.02246 0.021131
8610.28418 0.020798
8610.54688 0.020472
8610.80957 0.020162
8611.07129 0.01987
8611.33398 0.019591
8611.59570 0.019321
8611.85840 0.019057
8612.12109 0.018801
8612.38281 0.018552
8612.64648 0.01831
8612.90723 0.018068
8613.16992 0.017821
8613.43262 0.017562
8613.69434 0.017291
8613.95703 0.017011
8614.21973 0.016732
8614.48145 0.016467
8614.74414 0.016223
8615.00586 0.016007
8615.26855 0.015814
8615.53125 0.01564
8615.79297 0.015475
8616.05566 0.015312
8616.31836 0.015149
8616.58008 0.014989
8616.84277 0.014838
8617.10352 0.014702
8617.36719 0.01458
8617.62988 0.014461
8617.89160 0.014328
8618.15430 0.014167
8618.41699 0.013973
8618.67871 0.01375
8618.94141 0.013511
8619.20410 0.013272
8619.46582 0.013048
8619.72852 0.012848
8619.99121 0.012672
8620.25293 0.012518
8620.51562 0.012377
8620.77832 0.012241
8621.04004 0.012102
8621.30273 0.011956
8621.56543 0.011804
8621.82715 0.011656
8622.08984 0.011524
8622.35254 0.011414
8622.61426 0.011326
8622.87695 0.011252
8623.13965 0.011178
8623.40137 0.011089
8623.66406 0.010977
8623.92676 0.010837
8624.18848 0.010672
8624.45117 0.010492
8624.71387 0.01031
8624.97559 0.010144
8625.23828 0.010007
8625.50098 0.009906
8625.76367 0.009839
8626.02539 0.009794
8626.28809 0.009756
8626.55078 0.009712
8626.81348 0.009653
8627.07520 0.009575
8627.33789 0.009483
8627.60059 0.009385
8627.86230 0.009287
8628.12500 0.009194
8628.38770 0.0091
8628.65039 0.009
8628.91211 0.008884
8629.17480 0.00875
8629.43848 0.0086
8629.69922 0.008444
8629.96191 0.008295
8630.22461 0.008162
8630.48730 0.008049
8630.74902 0.007955
8631.01172 0.007873
8631.27441 0.007798
8631.53711 0.007725
8631.79883 0.007654
8632.06152 0.007585
8632.32422 0.007519
8632.58691 0.007457
8632.84863 0.007396
8633.11133 0.007333
8633.37402 0.007264
8633.63672 0.007188
8633.89941 0.007111
8634.16113 0.007041
8634.42383 0.006985
8634.68652 0.006944
8634.94922 0.006916
8635.21094 0.006894
8635.47363 0.006871
8635.73633 0.006835
8635.99902 0.006781
8636.26172 0.006707
8636.52344 0.00662
8636.78613 0.006531
8637.04883 0.00645
8637.31152 0.006385
8637.57422 0.006331
8637.83594 0.006282
8638.09863 0.006228
8638.36133 0.006165
8638.62402 0.006099
8638.88672 0.006035
8639.14844 0.005981
8639.41113 0.005937
8639.67383 0.005898
8639.93652 0.005855
8640.19922 0.005802
8640.46094 0.005737
8640.72363 0.005661
8640.98633 0.00558
8641.24902 0.005502
8641.51172 0.005431
8641.77441 0.005373
8642.03613 0.00533
8642.29883 0.005305
8642.56152 0.005297
8642.82422 0.005306
8643.08691 0.005327
8643.34961 0.005354
8643.61133 0.00538
8643.87402 0.005398
8644.13672 0.005402
8644.39941 0.005389
8644.66211 0.005354
8644.92480 0.005299
8645.18848 0.005222
8645.44922 0.005128
8645.71191 0.005026
8645.97461 0.004925
8646.23730 0.004834
8646.50000 0.004759
8646.76270 0.004697
8647.02539 0.004644
8647.28711 0.004594
8647.54980 0.004546
8647.81348 0.0045
8648.07520 0.004458
8648.33789 0.004421
8648.60059 0.004389
8648.86328 0.004359
8649.12598 0.004333
8649.38867 0.004312
8649.65039 0.004295
8649.91309 0.004278
8650.17578 0.004257
8650.43848 0.004226
8650.70117 0.004188
8650.96387 0.004149
8651.22656 0.004118
8651.48926 0.004102
8651.75195 0.004104
8652.01465 0.004117
8652.27637 0.00413
8652.53906 0.004133
8652.80176 0.004122
8653.06445 0.004103
8653.32715 0.004083
8653.58984 0.004071
8653.85254 0.004071
8654.11523 0.004083
8654.37793 0.004101
8654.64062 0.004122
8654.90332 0.004139
8655.16602 0.004153
8655.42871 0.004163
8655.69141 0.00417
9521.26074 0.0
