# %ECSV 0.9
# ---
# datatype:
# - {name: wavelength, unit: Angstrom, datatype: float32}
# - {name: response, datatype: float32}
# meta: !!omap
# - {band_name: f_507_10}
# - {group_name: CAHA}
wavelength response
4428.43213 0.0
4920.47998 0.004087
4920.75000 0.00355
4921.00000 0.003754
4921.25977 0.003603
4921.52002 0.004039
4921.77979 0.003782
4922.04004 0.003623
4922.29980 0.00396
4922.56006 0.003797
4922.81982 0.003854
4923.08008 0.003802
4923.33984 0.003671
4923.60010 0.003999
4923.85986 0.003928
4924.12012 0.004214
4924.37988 0.003578
4924.64014 0.003944
4924.89990 0.004203
4925.16016 0.003909
4925.41992 0.003911
4925.68018 0.004475
4925.93994 0.004317
4926.20020 0.003881
4926.45996 0.00424
4926.72021 0.004351
4926.97998 0.004598
4927.24023 0.004267
4927.50000 0.004343
4927.75977 0.004243
4928.02002 0.004078
4928.27979 0.004508
4928.54004 0.004379
4928.79980 0.004454
4929.06006 0.004104
4929.31982 0.004354
4929.58008 0.004699
4929.83984 0.004018
4930.10010 0.004185
4930.35986 0.004564
4930.62012 0.004562
4930.87988 0.004063
4931.14014 0.004448
4931.39990 0.004541
4931.66016 0.004734
4931.91992 0.004143
4932.18018 0.004298
4932.43994 0.00474
4932.70020 0.004632
4932.95996 0.004673
4933.22021 0.004697
4933.47998 0.004325
4933.74023 0.004772
4934.00000 0.004324
4934.25977 0.004636
4934.52002 0.004895
4934.77979 0.004915
4935.04004 0.005257
4935.29980 0.005189
4935.56006 0.005119
4935.81982 0.004712
4936.08008 0.005835
4936.33984 0.004814
4936.60010 0.005001
4936.85986 0.004711
4937.12012 0.00516
4937.37988 0.005025
4937.64014 0.005682
4937.89990 0.005415
4938.16016 0.005263
4938.41992 0.0052
4938.68018 0.005377
4938.93994 0.005289
4939.20020 0.005342
4939.45996 0.005482
4939.72021 0.005484
4939.97998 0.005724
4940.24023 0.005712
4940.50000 0.005899
4940.75977 0.006074
4941.02002 0.005606
4941.27979 0.005508
4941.54004 0.005823
4941.79980 0.005958
4942.06006 0.005833
4942.31982 0.006198
4942.58008 0.006596
4942.83984 0.005828
4943.10010 0.005999
4943.35986 0.006182
4943.62012 0.005524
4943.87988 0.005746
4944.14014 0.00579
4944.39990 0.006408
4944.66016 0.005835
4944.91992 0.006186
4945.18018 0.006685
4945.43994 0.006141
4945.70020 0.006779
4945.95996 0.006703
4946.22021 0.006851
4946.47998 0.006875
4946.72998 0.006789
4946.99023 0.006638
4947.25000 0.007314
4947.50977 0.007069
4947.77002 0.007028
4948.02979 0.00723
4948.29004 0.007018
4948.54980 0.007126
4948.81006 0.006988
4949.06982 0.006964
4949.33008 0.006979
4949.58984 0.007177
4949.85010 0.00753
4950.10986 0.007762
4950.37012 0.007552
4950.62988 0.007568
4950.89014 0.007759
4951.14990 0.007851
4951.41016 0.007545
4951.66992 0.008143
4951.93018 0.008462
4952.18994 0.007964
4952.45020 0.008082
4952.70996 0.008276
4952.97021 0.008722
4953.22998 0.008692
4953.49023 0.00812
4953.75000 0.008773
4954.00977 0.008314
4954.27002 0.008327
4954.52979 0.00819
4954.79004 0.008961
4955.04980 0.008986
4955.31006 0.009033
4955.56982 0.009243
4955.83008 0.008979
4956.08984 0.009291
4956.35010 0.009424
4956.60986 0.009877
4956.87012 0.009481
4957.12988 0.010213
4957.39014 0.010145
4957.64990 0.009828
4957.91016 0.010587
4958.16992 0.009667
4958.43018 0.010319
4958.68994 0.010018
4958.95020 0.010361
4959.20996 0.010889
4959.47021 0.01046
4959.72998 0.010694
4959.99023 0.011153
4960.25000 0.010986
4960.50977 0.010984
4960.77002 0.010859
4961.02979 0.011197
4961.29004 0.011464
4961.54980 0.011921
4961.81006 0.011627
4962.06982 0.011903
4962.33008 0.012054
4962.58984 0.012647
4962.85010 0.012266
4963.10986 0.013629
4963.37012 0.012916
4963.62988 0.01292
4963.89014 0.012875
4964.14990 0.013002
4964.41016 0.013805
4964.66992 0.012551
4964.93018 0.013786
4965.18994 0.013495
4965.45020 0.014157
4965.70996 0.013747
4965.97021 0.014715
4966.22998 0.014785
4966.49023 0.0145
4966.75000 0.014586
4967.00977 0.015535
4967.27002 0.014616
4967.52979 0.016178
4967.79004 0.015741
4968.04980 0.015821
4968.31006 0.016892
4968.56982 0.016257
4968.83008 0.016279
4969.08984 0.015643
4969.35010 0.017546
4969.60986 0.016537
4969.87012 0.01778
4970.12988 0.01804
4970.39014 0.018063
4970.64990 0.018049
4970.91016 0.017996
4971.16992 0.018991
4971.43018 0.019489
4971.68994 0.020037
4971.95020 0.020039
4972.20996 0.019978
4972.45996 0.020001
4972.72998 0.020268
4972.97998 0.020387
4973.24023 0.02117
4973.50000 0.021544
4973.75977 0.021766
4974.02002 0.022214
4974.27979 0.022396
4974.54004 0.022713
4974.79980 0.023945
4975.06006 0.022815
4975.31982 0.024273
4975.58008 0.024081
4975.83984 0.02435
4976.10010 0.023911
4976.35986 0.024353
4976.62012 0.02608
4976.87988 0.026444
4977.14014 0.025765
4977.39990 0.026041
4977.66016 0.027952
4977.91992 0.027845
4978.18018 0.027759
4978.43994 0.028559
4978.70020 0.028856
4978.95996 0.029285
4979.22021 0.030011
4979.47998 0.030988
4979.74023 0.030772
4980.00000 0.031827
4980.25977 0.032008
4980.52002 0.032434
4980.77979 0.034146
4981.04004 0.033602
4981.29980 0.034343
4981.56006 0.03486
4981.81982 0.03553
4982.08008 0.036099
4982.33984 0.037826
4982.60010 0.038064
4982.85986 0.038258
4983.12012 0.03838
4983.37988 0.040171
4983.64014 0.039902
4983.89990 0.040863
4984.16016 0.041962
4984.41992 0.042609
4984.68018 0.043051
4984.93994 0.045106
4985.20020 0.045957
4985.45996 0.045631
4985.72021 0.045673
4985.97998 0.046336
4986.24023 0.04849
4986.50000 0.049744
4986.75977 0.049959
4987.02002 0.050588
4987.27979 0.051992
4987.54004 0.0525
4987.79980 0.053769
4988.06006 0.055942
4988.31982 0.057007
4988.58008 0.058224
4988.83984 0.058662
4989.10010 0.059231
4989.35986 0.059953
4989.62012 0.06167
4989.87988 0.062968
4990.14014 0.064462
4990.39990 0.066522
4990.66016 0.067906
4990.91992 0.069465
4991.18018 0.069946
4991.43994 0.072621
4991.70020 0.073436
4991.95996 0.075679
4992.22021 0.077761
4992.47998 0.076906
4992.74023 0.079415
4993.00000 0.082224
4993.25977 0.083676
4993.52002 0.085377
4993.77979 0.087142
4994.04004 0.086185
4994.29980 0.089967
4994.56006 0.092119
4994.81982 0.093217
4995.08008 0.096148
4995.33984 0.097885
4995.60010 0.099984
4995.85986 0.104222
4996.12012 0.103722
4996.37988 0.108988
4996.64014 0.109621
4996.89990 0.111312
4997.16016 0.114676
4997.41992 0.116598
4997.68018 0.119551
4997.93994 0.123706
4998.20020 0.12545
4998.45996 0.126544
4998.70996 0.130712
4998.97021 0.13295
4999.22998 0.135728
4999.49023 0.139395
4999.75000 0.143298
5000.00977 0.146248
5000.27002 0.14863
5000.52979 0.152428
5000.79004 0.155993
5001.04980 0.158633
5001.31006 0.166767
5001.56982 0.166352
5001.83008 0.17019
5002.08984 0.17489
5002.35010 0.179166
5002.60986 0.179891
5002.87012 0.185412
5003.12988 0.190236
5003.39014 0.194156
5003.64990 0.198314
5003.91016 0.202624
5004.16992 0.206255
5004.43018 0.209765
5004.68994 0.215264
5004.95020 0.224401
5005.20996 0.229287
5005.47021 0.231935
5005.72998 0.238041
5005.99023 0.240332
5006.25000 0.246032
5006.50977 0.251728
5006.77002 0.259371
5007.02979 0.260144
5007.29004 0.269106
5007.54980 0.273467
5007.81006 0.280126
5008.06982 0.284294
5008.33008 0.291858
5008.58984 0.297806
5008.85010 0.303722
5009.10986 0.309615
5009.37012 0.309624
5009.62988 0.318918
5009.89014 0.327612
5010.14990 0.335804
5010.41016 0.343576
5010.66992 0.345748
5010.93018 0.349756
5011.18994 0.357025
5011.45020 0.366957
5011.70996 0.373821
5011.97021 0.382242
5012.22998 0.384449
5012.49023 0.393647
5012.75000 0.401545
5013.00977 0.408717
5013.27002 0.414482
5013.52979 0.419051
5013.79004 0.427732
5014.04980 0.438664
5014.31006 0.441639
5014.56982 0.447702
5014.83008 0.453877
5015.08984 0.462032
5015.35010 0.472908
5015.60986 0.473071
5015.87012 0.481821
5016.12988 0.489928
5016.39014 0.498683
5016.64990 0.502577
5016.91016 0.508526
5017.16992 0.513756
5017.43018 0.520272
5017.68994 0.530898
5017.95020 0.538509
5018.20996 0.538514
5018.47021 0.545115
5018.72998 0.55077
5018.99023 0.558829
5019.25000 0.565672
5019.50977 0.573325
5019.77002 0.57211
5020.02979 0.582461
5020.29004 0.589188
5020.54980 0.58866
5020.81006 0.597287
5021.06982 0.600276
5021.33008 0.609377
5021.58984 0.616581
5021.85010 0.615759
5022.10986 0.625507
5022.37012 0.626443
5022.62988 0.627095
5022.89014 0.635366
5023.14990 0.637115
5023.41016 0.642775
5023.66992 0.646946
5023.93018 0.649045
5024.18994 0.652593
5024.43994 0.655865
5024.70996 0.663019
5024.95996 0.666607
5025.22021 0.668857
5025.47998 0.670006
5025.74023 0.675866
5026.00000 0.675593
5026.25977 0.677821
5026.52002 0.677195
5026.77979 0.68322
5027.04004 0.686952
5027.29980 0.690819
5027.56006 0.689959
5027.81982 0.693315
5028.08008 0.695772
5028.33984 0.695599
5028.60010 0.695541
5028.85986 0.697553
5029.12012 0.701412
5029.37988 0.705049
5029.64014 0.706685
5029.89990 0.712477
5030.16016 0.707074
5030.41992 0.710295
5030.68018 0.710496
5030.93994 0.71027
5031.20020 0.7159
5031.45996 0.710162
5031.72021 0.710698
5031.97998 0.71436
5032.24023 0.717713
5032.50000 0.714359
5032.75977 0.716872
5033.02002 0.716618
5033.27979 0.719746
5033.54004 0.72024
5033.79980 0.721143
5034.06006 0.717635
5034.31982 0.723268
5034.58008 0.722244
5034.83984 0.722544
5035.10010 0.718112
5035.35986 0.722874
5035.62012 0.725166
5035.87988 0.721513
5036.14014 0.726435
5036.39990 0.726077
5036.66016 0.721001
5036.91992 0.725508
5037.18018 0.72616
5037.43994 0.724213
5037.70020 0.72486
5037.95996 0.730767
5038.22021 0.731557
5038.47998 0.731616
5038.74023 0.7283
5039.00000 0.72923
5039.25977 0.727349
5039.52002 0.731295
5039.77979 0.726007
5040.04004 0.731661
5040.29980 0.72683
5040.56006 0.732711
5040.81982 0.731928
5041.08008 0.730204
5041.33984 0.726449
5041.60010 0.728445
5041.85986 0.732295
5042.12012 0.730164
5042.37988 0.729653
5042.64014 0.734309
5042.89990 0.734297
5043.16016 0.734956
5043.41992 0.727003
5043.68018 0.731166
5043.93994 0.730525
5044.20020 0.73521
5044.45996 0.736071
5044.72021 0.733996
5044.97998 0.732586
5045.24023 0.730714
5045.50000 0.730388
5045.75977 0.73089
5046.02002 0.734291
5046.27979 0.73833
5046.54004 0.731972
5046.79980 0.736094
5047.06006 0.736425
5047.31982 0.732016
5047.58008 0.736991
5047.83984 0.73449
5048.10010 0.732782
5048.35986 0.736325
5048.62012 0.735636
5048.87988 0.739462
5049.14014 0.737099
5049.39990 0.745975
5049.66016 0.734585
5049.91992 0.744406
5050.18018 0.738025
5050.43994 0.741063
5050.68994 0.743003
5050.95020 0.746266
5051.20996 0.744808
5051.47021 0.738178
5051.72998 0.739742
5051.99023 0.746144
5052.25000 0.745908
5052.50977 0.737182
5052.77002 0.745238
5053.02979 0.743534
5053.29004 0.746409
5053.54980 0.740272
5053.81006 0.744522
5054.06982 0.749728
5054.33008 0.746448
5054.58984 0.743707
5054.85010 0.744845
5055.10986 0.74505
5055.37012 0.746107
5055.62988 0.747132
5055.89014 0.748031
5056.14990 0.751426
5056.41016 0.750645
5056.66992 0.75231
5056.93018 0.757832
5057.18994 0.749069
5057.45020 0.748263
5057.70996 0.746671
5057.97021 0.74808
5058.22998 0.747367
5058.49023 0.743955
5058.75000 0.751213
5059.00977 0.752917
5059.27002 0.750393
5059.52979 0.753268
5059.79004 0.754189
5060.04980 0.756791
5060.31006 0.750726
5060.56982 0.75254
5060.83008 0.752003
5061.08984 0.754924
5061.35010 0.754835
5061.60986 0.752822
5061.87012 0.749597
5062.12988 0.760307
5062.39014 0.754406
5062.64990 0.755982
5062.91016 0.757566
5063.16992 0.750131
5063.43018 0.752785
5063.68994 0.753879
5063.95020 0.749847
5064.20996 0.757512
5064.47021 0.754255
5064.72998 0.757464
5064.99023 0.754972
5065.25000 0.760715
5065.50977 0.756734
5065.77002 0.753995
5066.02979 0.7564
5066.29004 0.753629
5066.54980 0.758261
5066.81006 0.753795
5067.06982 0.753791
5067.33008 0.754178
5067.58984 0.75856
5067.85010 0.752481
5068.10986 0.753126
5068.37012 0.760446
5068.62988 0.756691
5068.89014 0.756823
5069.14990 0.755537
5069.41016 0.754347
5069.66992 0.762673
5069.93018 0.75342
5070.18994 0.757725
5070.45020 0.758278
5070.70996 0.752617
5070.97021 0.756166
5071.22998 0.759082
5071.49023 0.759728
5071.75000 0.759063
5072.00977 0.755398
5072.27002 0.756769
5072.52979 0.757356
5072.79004 0.753378
5073.04980 0.756557
5073.31006 0.761346
5073.56982 0.753047
5073.83008 0.753141
5074.08984 0.758307
5074.35010 0.757399
5074.60986 0.759557
5074.87012 0.757192
5075.12988 0.759112
5075.39014 0.755466
5075.64990 0.758246
5075.91016 0.757201
5076.16992 0.755794
5076.41992 0.761295
5076.68994 0.759089
5076.93994 0.756695
5077.20020 0.763112
5077.45996 0.754235
5077.72021 0.759324
5077.97998 0.758241
5078.24023 0.756883
5078.50000 0.760925
5078.75977 0.761557
5079.02002 0.758175
5079.27979 0.759488
5079.54004 0.755569
5079.79980 0.760145
5080.06006 0.760976
5080.31982 0.759668
5080.58008 0.76532
5080.83984 0.760993
5081.10010 0.767239
5081.35986 0.758788
5081.62012 0.762937
5081.87988 0.76204
5082.14014 0.758996
5082.39990 0.764388
5082.66016 0.768473
5082.91992 0.761538
5083.18018 0.762595
5083.43994 0.762976
5083.70020 0.768607
5083.95996 0.763237
5084.22021 0.762899
5084.47998 0.771734
5084.74023 0.757621
5085.00000 0.767861
5085.25977 0.763043
5085.52002 0.764245
5085.77979 0.765902
5086.04004 0.76418
5086.29980 0.768412
5086.56006 0.764685
5086.81982 0.768815
5087.08008 0.771561
5087.33984 0.763357
5087.60010 0.765363
5087.85986 0.766211
5088.12012 0.77192
5088.37988 0.76819
5088.64014 0.765257
5088.89990 0.766504
5089.16016 0.770926
5089.41992 0.76563
5089.68018 0.766639
5089.93994 0.769787
5090.20020 0.762583
5090.45996 0.769939
5090.72021 0.769142
5090.97998 0.7674
5091.24023 0.767796
5091.50000 0.763842
5091.75977 0.767515
5092.02002 0.763558
5092.27979 0.76524
5092.54004 0.763965
5092.79980 0.766545
5093.06006 0.76252
5093.31982 0.759972
5093.58008 0.758801
5093.83984 0.761611
5094.10010 0.758106
5094.35986 0.756666
5094.62012 0.754826
5094.87988 0.75479
5095.14014 0.753632
5095.39990 0.748222
5095.66016 0.753566
5095.91992 0.749329
5096.18018 0.74317
5096.43994 0.74641
5096.70020 0.746987
5096.95996 0.743413
5097.22021 0.740179
5097.47998 0.736067
5097.74023 0.731595
5098.00000 0.735237
5098.25977 0.731967
5098.52002 0.730447
5098.77979 0.726604
5099.04004 0.723843
5099.29980 0.720781
5099.56006 0.72291
5099.81982 0.717288
5100.08008 0.712624
5100.33984 0.706152
5100.60010 0.703533
5100.85986 0.698394
5101.12012 0.694221
5101.37988 0.69448
5101.64014 0.689849
5101.89990 0.688863
5102.16016 0.677948
5102.41992 0.675211
5102.66992 0.67438
5102.93018 0.665733
5103.18994 0.663692
5103.45020 0.65707
5103.70996 0.651177
5103.97021 0.648802
5104.22998 0.642013
5104.49023 0.633664
5104.75000 0.628718
5105.00977 0.619681
5105.27002 0.615953
5105.52979 0.612028
5105.79004 0.609397
5106.04980 0.598561
5106.31006 0.59152
5106.56982 0.589615
5106.83008 0.578777
5107.08984 0.575033
5107.35010 0.566017
5107.60986 0.559222
5107.87012 0.55437
5108.12988 0.543479
5108.39014 0.543933
5108.64990 0.535002
5108.91016 0.524516
5109.16992 0.519931
5109.43018 0.509677
5109.68994 0.509806
5109.95020 0.497257
5110.20996 0.48956
5110.47021 0.484912
5110.72998 0.476413
5110.99023 0.471151
5111.25000 0.464373
5111.50977 0.452082
5111.77002 0.447382
5112.02979 0.440735
5112.29004 0.435318
5112.54980 0.426403
5112.81006 0.42213
5113.06982 0.414448
5113.33008 0.405828
5113.58984 0.40023
5113.85010 0.391552
5114.10986 0.389391
5114.37012 0.38123
5114.62988 0.374351
5114.89014 0.36426
5115.14990 0.361429
5115.41016 0.353516
5115.66992 0.349341
5115.93018 0.341115
5116.18994 0.333611
5116.45020 0.326683
5116.70996 0.321046
5116.97021 0.316416
5117.22998 0.308845
5117.49023 0.3033
5117.75000 0.296646
5118.00977 0.295854
5118.27002 0.286963
5118.52979 0.281818
5118.79004 0.277614
5119.04980 0.269457
5119.31006 0.267447
5119.56982 0.259896
5119.83008 0.254219
5120.08984 0.251303
5120.35010 0.243153
5120.60986 0.239586
5120.87012 0.236345
5121.12988 0.229422
5121.39014 0.2258
5121.64990 0.223069
5121.91016 0.216826
5122.16992 0.211266
5122.43018 0.209173
5122.68994 0.203634
5122.95020 0.199693
5123.20996 0.194323
5123.47021 0.191131
5123.72998 0.187303
5123.99023 0.184968
5124.25000 0.181281
5124.50977 0.173091
5124.77002 0.172425
5125.02979 0.167891
5125.29004 0.167392
5125.54980 0.161902
5125.81006 0.160156
5126.06982 0.154049
5126.33008 0.152006
5126.58984 0.149788
5126.85010 0.14614
5127.10986 0.143393
5127.37012 0.141342
5127.62988 0.138119
5127.89014 0.135017
5128.14990 0.132741
5128.39990 0.131449
5128.66992 0.127666
5128.91992 0.12419
5129.18018 0.122029
5129.43994 0.120291
5129.70020 0.117965
5129.95996 0.114024
5130.22021 0.112649
5130.47998 0.109203
5130.74023 0.108834
5131.00000 0.107056
5131.25977 0.104458
5131.52002 0.102077
5131.77979 0.099996
5132.04004 0.099347
5132.29980 0.095974
5132.56006 0.094299
5132.81982 0.092381
5133.08008 0.092271
5133.33984 0.091017
5133.60010 0.086841
5133.85986 0.085562
5134.12012 0.083856
5134.37988 0.082458
5134.64014 0.081901
5134.89990 0.078076
5135.16016 0.078351
5135.41992 0.075791
5135.68018 0.074862
5135.93994 0.073738
5136.20020 0.072565
5136.45996 0.071106
5136.72021 0.069233
5136.97998 0.068243
5137.24023 0.06755
5137.50000 0.065895
5137.75977 0.064711
5138.02002 0.063891
5138.27979 0.062559
5138.54004 0.060899
5138.79980 0.060993
5139.06006 0.058873
5139.31982 0.057139
5139.58008 0.057197
5139.83984 0.056852
5140.10010 0.05387
5140.35986 0.054393
5140.62012 0.05224
5140.87988 0.052167
5141.14014 0.051254
5141.39990 0.049671
5141.66016 0.049532
5141.91992 0.048185
5142.18018 0.047645
5142.43994 0.047375
5142.70020 0.046555
5142.95996 0.044517
5143.22021 0.04485
5143.47998 0.043789
5143.74023 0.042991
5144.00000 0.042648
5144.25977 0.042264
5144.52002 0.040558
5144.77979 0.040052
5145.04004 0.039606
5145.29980 0.03966
5145.56006 0.038246
5145.81982 0.037407
5146.08008 0.036552
5146.33984 0.035751
5146.60010 0.036564
5146.85986 0.034794
5147.12012 0.035457
5147.37988 0.034078
5147.64014 0.033245
5147.89990 0.032971
5148.16016 0.03292
5148.41992 0.032702
5148.68018 0.031471
5148.93994 0.031072
5149.20020 0.031556
5149.45996 0.030359
5149.72021 0.02954
5149.97998 0.02941
5150.24023 0.028938
5150.50000 0.028311
5150.75977 0.027723
5151.02002 0.027756
5151.27979 0.027189
5151.54004 0.027376
5151.79980 0.02646
5152.06006 0.02583
5152.31982 0.025315
5152.58008 0.024921
5152.83984 0.024968
5153.10010 0.024847
5153.35986 0.023732
5153.62012 0.02341
5153.87988 0.023297
5154.14014 0.022854
5154.39990 0.023171
5154.64990 0.022736
5154.91992 0.022061
5155.16992 0.022119
5155.43018 0.021739
5155.68994 0.020801
5155.95020 0.021213
5156.20996 0.020733
5156.47021 0.020966
5156.72998 0.020764
5156.99023 0.020548
5157.25000 0.019331
5157.50977 0.02054
5157.77002 0.019568
5158.02979 0.019006
5158.29004 0.01877
5158.54980 0.018732
5158.81006 0.017661
5159.06982 0.018135
5159.33008 0.017596
5159.58984 0.017374
5159.85010 0.017405
5160.10986 0.017382
5160.37012 0.016679
5160.62988 0.01733
5160.89014 0.016371
5161.14990 0.015954
5161.41016 0.015684
5161.66992 0.016145
5161.93018 0.015239
5162.18994 0.015064
5162.45020 0.015345
5162.70996 0.014743
5162.97021 0.01488
5163.22998 0.014637
5163.49023 0.014492
5163.75000 0.014818
5164.00977 0.014236
5164.27002 0.013828
5164.52979 0.013856
5164.79004 0.01342
5165.04980 0.013461
5165.31006 0.012895
5165.56982 0.013119
5165.83008 0.013337
5166.08984 0.012659
5166.35010 0.013166
5166.60986 0.012725
5166.87012 0.012451
5167.12988 0.01253
5167.39014 0.011961
5167.64990 0.012766
5167.91016 0.012108
5168.16992 0.011823
5168.43018 0.011896
5168.68994 0.01156
5168.95020 0.010912
5169.20996 0.011336
5169.47021 0.010687
5169.72998 0.011134
5169.99023 0.011535
5170.25000 0.01127
5170.50977 0.010797
5170.77002 0.010225
5171.02979 0.010547
5171.29004 0.010914
5171.54980 0.010311
5171.81006 0.009878
5172.06982 0.00959
5172.33008 0.010231
5172.58984 0.00936
5172.85010 0.009972
5173.10986 0.009698
5173.37012 0.009618
5173.62988 0.009298
5173.89014 0.009561
5174.14990 0.00934
5174.41016 0.009525
5174.66992 0.008999
5174.93018 0.00899
5175.18994 0.008933
5175.45020 0.008853
5175.70996 0.008958
5175.97021 0.008739
5176.22998 0.008331
5176.49023 0.008018
5176.75000 0.008285
5177.00977 0.008109
5177.27002 0.008104
5177.52979 0.008292
5177.79004 0.008063
5178.04980 0.008233
5178.31006 0.007544
5178.56982 0.00799
5178.83008 0.007965
5179.08984 0.007766
5179.35010 0.007758
5179.60986 0.007684
5179.87012 0.007476
5180.12012 0.007527
5180.37988 0.007457
5180.64990 0.007372
5180.89990 0.007229
5181.16016 0.007059
5181.41992 0.007261
5181.68018 0.007117
5181.93994 0.007013
5182.20020 0.006744
5182.45996 0.006702
5182.72021 0.006654
5182.97998 0.006743
5183.24023 0.006437
5183.50000 0.006796
5183.75977 0.006887
5184.02002 0.00681
5184.27979 0.00678
5184.54004 0.006288
5184.79980 0.006003
5185.06006 0.006404
5185.31982 0.006134
5185.58008 0.006508
5185.83984 0.006434
5186.10010 0.006145
5186.35986 0.005534
5186.62012 0.006012
5186.87988 0.005996
5187.14014 0.00624
5187.39990 0.006254
5187.66016 0.005849
5187.91992 0.006019
5188.18018 0.005916
5188.43994 0.005557
5188.70020 0.005786
5188.95996 0.005784
5189.22021 0.005655
5189.47998 0.005425
5189.74023 0.005647
5190.00000 0.005335
5190.25977 0.005722
5190.52002 0.005534
5190.77979 0.005458
5191.04004 0.004991
5191.29980 0.00562
5191.56006 0.005303
5191.81982 0.005354
5192.08008 0.00558
5192.33984 0.005091
5192.60010 0.00519
5192.85986 0.005048
5193.12012 0.004835
5193.37988 0.005228
5193.64014 0.004886
5193.89990 0.004921
5194.16016 0.005012
5194.41992 0.004998
5194.68018 0.004617
5194.93994 0.004962
5195.20020 0.004827
5195.45996 0.005292
5195.72021 0.004651
5195.97998 0.004864
5196.24023 0.004935
5196.50000 0.004725
5196.75977 0.004527
5197.02002 0.004405
5197.27979 0.004268
5197.54004 0.004345
5197.79980 0.004199
5198.06006 0.004659
5198.31982 0.004264
5198.58008 0.004251
5198.83984 0.004282
5199.10010 0.004215
5199.35986 0.00408
5199.62012 0.004329
5199.87988 0.004397
5200.14014 0.004305
5720.15430 0.0
