# %ECSV 0.9
# ---
# datatype:
# - {name: wavelength, unit: Angstrom, datatype: float32}
# - {name: response, datatype: float32}
# meta: !!omap
# - {band_name: f_625_20}
# - {group_name: CAHA}
wavelength response
5509.54834 0.0
6121.72021 0.004093
6121.97998 0.004141
6122.24023 0.00419
6122.50000 0.004115
6122.75977 0.004105
6123.02002 0.004336
6123.27979 0.004342
6123.54004 0.004337
6123.79980 0.004518
6124.06006 0.004556
6124.31982 0.004515
6124.58008 0.004777
6124.85010 0.004888
6125.10986 0.004802
6125.37012 0.004864
6125.62988 0.004824
6125.89014 0.00511
6126.14990 0.005233
6126.41016 0.005332
6126.66992 0.005492
6126.93018 0.00535
6127.18994 0.005543
6127.45020 0.005721
6127.70996 0.005649
6127.97021 0.006009
6128.24023 0.0062
6128.50000 0.006329
6128.75977 0.00629
6129.02002 0.006592
6129.27979 0.006577
6129.54004 0.00672
6129.79980 0.006998
6130.06006 0.007227
6130.31982 0.007452
6130.58008 0.007708
6130.83984 0.007926
6131.10010 0.00797
6131.37012 0.008355
6131.62988 0.008689
6131.89014 0.008841
6132.14990 0.008846
6132.41016 0.009318
6132.66992 0.009458
6132.93018 0.009945
6133.18994 0.010614
6133.45020 0.010799
6133.70996 0.010921
6133.97021 0.011389
6134.22998 0.012006
6134.49023 0.012411
6134.75977 0.012907
6135.02002 0.013528
6135.27979 0.013965
6135.54004 0.014525
6135.79980 0.015243
6136.06006 0.015695
6136.31982 0.016732
6136.58008 0.017749
6136.83984 0.018612
6137.10010 0.019301
6137.35986 0.020166
6137.62012 0.021125
6137.87988 0.022477
6138.14990 0.023286
6138.41016 0.02492
6138.66992 0.026131
6138.93018 0.027526
6139.18994 0.028908
6139.45020 0.030392
6139.70996 0.032201
6139.97021 0.034232
6140.22998 0.036505
6140.49023 0.038968
6140.75000 0.041509
6141.00977 0.04394
6141.27979 0.046671
6141.54004 0.049314
6141.79980 0.053241
6142.06006 0.057176
6142.31982 0.060959
6142.58008 0.065614
6142.83984 0.069701
6143.10010 0.074358
6143.35986 0.080714
6143.62012 0.087249
6143.87988 0.094189
6144.14014 0.101035
6144.39990 0.108173
6144.66992 0.115694
6144.93018 0.125534
6145.18994 0.136485
6145.45020 0.148586
6145.70996 0.160239
6145.97021 0.172755
6146.22998 0.184917
6146.49023 0.19888
6146.75000 0.213784
6147.00977 0.232674
6147.27002 0.250501
6147.52979 0.268971
6147.79980 0.28731
6148.06006 0.303102
6148.31982 0.322447
6148.58008 0.345277
6148.83984 0.365849
6149.10010 0.387213
6149.35986 0.403944
6149.62012 0.418427
6149.87988 0.432668
6150.14014 0.447969
6150.39990 0.46272
6150.66016 0.475654
6150.91992 0.484797
6151.18994 0.49408
6151.45020 0.498405
6151.70996 0.502309
6151.97021 0.507279
6152.22998 0.511216
6152.49023 0.513074
6152.75000 0.514469
6153.00977 0.512903
6153.27002 0.513237
6153.52979 0.509646
6153.79004 0.506491
6154.04980 0.504785
6154.31982 0.50231
6154.58008 0.497822
6154.83984 0.494462
6155.10010 0.489825
6155.35986 0.484349
6155.62012 0.478731
6155.87988 0.47241
6156.14014 0.465669
6156.39990 0.463005
6156.66016 0.457597
6156.91992 0.45036
6157.18018 0.441645
6157.43994 0.435764
6157.70996 0.429833
6157.97021 0.424924
6158.22998 0.420076
6158.49023 0.414218
6158.75000 0.406521
6159.00977 0.402417
6159.27002 0.398035
6159.52979 0.393229
6159.79004 0.387566
6160.04980 0.383711
6160.31006 0.37906
6160.56982 0.37645
6160.83984 0.372792
6161.10010 0.36864
6161.35986 0.366599
6161.62012 0.364278
6161.87988 0.359425
6162.14014 0.35725
6162.39990 0.355445
6162.66016 0.354842
6162.91992 0.352809
6163.18018 0.352031
6163.43994 0.347818
6163.70020 0.350208
6163.95996 0.347474
6164.22998 0.34813
6164.49023 0.348537
6164.75000 0.348648
6165.00977 0.3482
6165.27002 0.347673
6165.52979 0.347408
6165.79004 0.348594
6166.04980 0.349308
6166.31006 0.351295
6166.56982 0.352852
6166.83008 0.352566
6167.08984 0.353736
6167.35986 0.355076
6167.62012 0.355902
6167.87988 0.359875
6168.14014 0.360211
6168.39990 0.364018
6168.66016 0.365628
6168.91992 0.365808
6169.18018 0.369132
6169.43994 0.371645
6169.70020 0.375789
6169.95996 0.378889
6170.22021 0.380943
6170.47998 0.38319
6170.75000 0.385152
6171.00977 0.388815
6171.27002 0.393128
6171.52979 0.396777
6171.79004 0.400496
6172.04980 0.403474
6172.31006 0.406159
6172.56982 0.410396
6172.83008 0.414438
6173.08984 0.419657
6173.35010 0.423291
6173.60986 0.428212
6173.87988 0.430281
6174.14014 0.434396
6174.39990 0.437662
6174.66016 0.4437
6174.91992 0.446997
6175.18018 0.452786
6175.43994 0.455349
6175.70020 0.458985
6175.95996 0.464343
6176.22021 0.469668
6176.47998 0.473841
6176.74023 0.481053
6177.00000 0.483735
6177.27002 0.488047
6177.52979 0.491978
6177.79004 0.494538
6178.04980 0.500902
6178.31006 0.506131
6178.56982 0.512095
6178.83008 0.515288
6179.08984 0.51818
6179.35010 0.520661
6179.60986 0.52392
6179.87012 0.529197
6180.12988 0.536482
6180.39990 0.536803
6180.66016 0.542302
6180.91992 0.544187
6181.18018 0.549395
6181.43994 0.552242
6181.70020 0.554761
6181.95996 0.560328
6182.22021 0.561931
6182.47998 0.565792
6182.74023 0.566972
6183.00000 0.568162
6183.25977 0.572996
6183.52002 0.575913
6183.79004 0.579247
6184.04980 0.580868
6184.31006 0.581541
6184.56982 0.583965
6184.83008 0.585762
6185.08984 0.587737
6185.35010 0.589999
6185.60986 0.591681
6185.87012 0.59178
6186.12988 0.59466
6186.39014 0.594729
6186.64990 0.597618
6186.91992 0.596699
6187.18018 0.599783
6187.43994 0.598516
6187.70020 0.598403
6187.95996 0.599321
6188.22021 0.601781
6188.47998 0.599786
6188.74023 0.601327
6189.00000 0.600862
6189.25977 0.604093
6189.52002 0.600309
6189.77979 0.600924
6190.04004 0.602261
6190.31006 0.599619
6190.56982 0.601587
6190.83008 0.600977
6191.08984 0.600923
6191.35010 0.598346
6191.60986 0.598308
6191.87012 0.597088
6192.12988 0.598714
6192.39014 0.597446
6192.64990 0.594506
6192.91016 0.595086
6193.16992 0.593986
6193.43994 0.594085
6193.70020 0.590943
6193.95996 0.592116
6194.22021 0.594283
6194.47998 0.59041
6194.74023 0.588855
6195.00000 0.586935
6195.25977 0.587758
6195.52002 0.585414
6195.77979 0.587285
6196.04004 0.587174
6196.29980 0.58362
6196.56006 0.583073
6196.83008 0.581275
6197.08984 0.58351
6197.35010 0.582231
6197.60986 0.58207
6197.87012 0.578167
6198.12988 0.578442
6198.39014 0.575705
6198.64990 0.578372
6198.91016 0.57677
6199.16992 0.575991
6199.43018 0.575574
6199.68994 0.575012
6199.95996 0.573042
6200.22021 0.571875
6200.47998 0.573446
6200.74023 0.574213
6201.00000 0.570886
6201.25977 0.572543
6201.52002 0.569746
6201.77979 0.569001
6202.04004 0.569734
6202.29980 0.569899
6202.56006 0.570293
6202.81982 0.570036
6203.08008 0.570385
6203.35010 0.567023
6203.60986 0.566746
6203.87012 0.567672
6204.12988 0.567028
6204.39014 0.567092
6204.64990 0.565944
6204.91016 0.566122
6205.16992 0.567492
6205.43018 0.567071
6205.68994 0.568469
6205.95020 0.567536
6206.20996 0.567179
6206.47998 0.565919
6206.74023 0.567077
6207.00000 0.56616
6207.25977 0.565604
6207.52002 0.568078
6207.77979 0.56798
6208.04004 0.568108
6208.29980 0.569746
6208.56006 0.567137
6208.81982 0.568822
6209.08008 0.568403
6209.33984 0.569423
6209.60010 0.569422
6209.87012 0.569735
6210.12988 0.570009
6210.39014 0.571188
6210.64990 0.570633
6210.91016 0.570641
6211.16992 0.572842
6211.43018 0.571964
6211.68994 0.57371
6211.95020 0.571512
6212.20996 0.573821
6212.47021 0.574368
6212.72998 0.574421
6213.00000 0.574394
6213.25977 0.575873
6213.52002 0.576887
6213.77979 0.576196
6214.04004 0.57475
6214.29980 0.578136
6214.56006 0.576278
6214.81982 0.579613
6215.08008 0.577795
6215.33984 0.57717
6215.60010 0.578812
6215.85986 0.579301
6216.12012 0.579209
6216.39014 0.581818
6216.64990 0.581826
6216.91016 0.581104
6217.16992 0.582171
6217.43018 0.582184
6217.68994 0.583636
6217.95020 0.585174
6218.20996 0.584495
6218.47021 0.58575
6218.72998 0.585017
6218.99023 0.586941
6219.25000 0.586186
6219.52002 0.587028
6219.77979 0.588514
6220.04004 0.588499
6220.29980 0.588789
6220.56006 0.5876
6220.81982 0.590698
6221.08008 0.589679
6221.33984 0.589261
6221.60010 0.590062
6221.85986 0.59328
6222.12012 0.593187
6222.37988 0.592496
6222.64990 0.592153
6222.91016 0.592388
6223.16992 0.59374
6223.43018 0.592493
6223.68994 0.593504
6223.95020 0.594073
6224.20996 0.593054
6224.47021 0.593341
6224.72998 0.595858
6224.99023 0.594527
6225.25000 0.594844
6225.50977 0.595328
6225.77002 0.595432
6226.04004 0.595562
6226.29980 0.596547
6226.56006 0.597361
6226.81982 0.598109
6227.08008 0.594732
6227.33984 0.596793
6227.60010 0.598626
6227.85986 0.597153
6228.12012 0.599492
6228.37988 0.598821
6228.64014 0.596792
6228.89990 0.596825
6229.16992 0.599795
6229.43018 0.599769
6229.68994 0.599665
6229.95020 0.598818
6230.20996 0.59772
6230.47021 0.600584
6230.72998 0.599687
6230.99023 0.601281
6231.25000 0.600305
6231.50977 0.599291
6231.77002 0.599157
6232.02979 0.600057
6232.29004 0.600885
6232.56006 0.599395
6232.81982 0.599185
6233.08008 0.599478
6233.33984 0.598957
6233.60010 0.598365
6233.85986 0.602803
6234.12012 0.598867
6234.37988 0.599132
6234.64014 0.601772
6234.89990 0.598877
6235.16016 0.597403
6235.41992 0.599493
6235.68994 0.600477
6235.95020 0.598833
6236.20996 0.599458
6236.47021 0.599562
6236.72998 0.601044
6236.99023 0.5983
6237.25000 0.597358
6237.50977 0.599075
6237.77002 0.598196
6238.02979 0.598684
6238.29004 0.600985
6238.54980 0.597655
6238.81006 0.598848
6239.08008 0.599705
6239.33984 0.59794
6239.60010 0.599364
6239.85986 0.597535
6240.12012 0.596707
6240.37988 0.595925
6240.64014 0.597483
6240.89990 0.597565
6241.16016 0.59761
6241.41992 0.598156
6241.68018 0.598003
6241.93994 0.598498
6242.20996 0.597607
6242.47021 0.596125
6242.72998 0.597906
6242.99023 0.595928
6243.25000 0.597289
6243.50977 0.596274
6243.77002 0.596622
6244.02979 0.5943
6244.29004 0.594831
6244.54980 0.593989
6244.81006 0.59681
6245.06982 0.595943
6245.33008 0.597472
6245.60010 0.59487
6245.85986 0.594598
6246.12012 0.593512
6246.37988 0.595078
6246.64014 0.592923
6246.89990 0.593492
6247.16016 0.594653
6247.41992 0.594293
6247.68018 0.594601
6247.93994 0.593691
6248.20020 0.593885
6248.45996 0.592943
6248.72998 0.591644
6248.99023 0.592469
6249.25000 0.591927
6249.50977 0.59193
6249.77002 0.591833
6250.02979 0.58984
6250.29004 0.589127
6250.54980 0.589999
6250.81006 0.588722
6251.06982 0.587898
6251.33008 0.588382
6251.58984 0.587907
6251.85010 0.58771
6252.12012 0.589868
6252.37988 0.587208
6252.64014 0.586117
6252.89990 0.588942
6253.16016 0.5868
6253.41992 0.585219
6253.68018 0.587042
6253.93994 0.587828
6254.20020 0.584721
6254.45996 0.585949
6254.72021 0.584412
6254.97998 0.583587
6255.25000 0.586868
6255.50977 0.584152
6255.77002 0.583128
6256.02979 0.582425
6256.29004 0.582502
6256.54980 0.582401
6256.81006 0.580059
6257.06982 0.582885
6257.33008 0.581238
6257.58984 0.582307
6257.85010 0.581967
6258.10986 0.580955
6258.37012 0.579347
6258.64014 0.580006
6258.89990 0.579098
6259.16016 0.579074
6259.41992 0.579751
6259.68018 0.579126
6259.93994 0.576721
6260.20020 0.578282
6260.45996 0.578548
6260.72021 0.576543
6260.97998 0.576596
6261.24023 0.576824
6261.50000 0.577349
6261.77002 0.575499
6262.02979 0.575986
6262.29004 0.573947
6262.54980 0.577687
6262.81006 0.576589
6263.06982 0.573258
6263.33008 0.573266
6263.58984 0.574033
6263.85010 0.573929
6264.10986 0.574496
6264.37012 0.573229
6264.62988 0.572441
6264.89014 0.574009
6265.16016 0.573764
6265.41992 0.571093
6265.68018 0.572492
6265.93994 0.572536
6266.20020 0.572954
6266.45996 0.571927
6266.72021 0.571983
6266.97998 0.569108
6267.24023 0.570959
6267.50000 0.57048
6267.75977 0.571869
6268.02002 0.570822
6268.29004 0.569383
6268.54980 0.57277
6268.81006 0.570253
6269.06982 0.568762
6269.33008 0.569368
6269.58984 0.569568
6269.85010 0.571714
6270.10986 0.568311
6270.37012 0.571024
6270.62988 0.568279
6270.89014 0.567759
6271.14990 0.567347
6271.41016 0.567065
6271.68018 0.568554
6271.93994 0.566917
6272.20020 0.565566
6272.45996 0.567638
6272.72021 0.564955
6272.97998 0.567431
6273.24023 0.56521
6273.50000 0.56526
6273.75977 0.565179
6274.02002 0.563434
6274.27979 0.562775
6274.54004 0.56058
6274.81006 0.562071
6275.06982 0.560567
6275.33008 0.560501
6275.58984 0.561209
6275.85010 0.560593
6276.10986 0.55897
6276.37012 0.559304
6276.62988 0.557516
6276.89014 0.556642
6277.14990 0.557445
6277.41016 0.556246
6277.66992 0.553972
6277.93018 0.552952
6278.20020 0.551106
6278.45996 0.551604
6278.72021 0.549638
6278.97998 0.548989
6279.24023 0.54824
6279.50000 0.545867
6279.75977 0.544304
6280.02002 0.541289
6280.27979 0.54319
6280.54004 0.541168
6280.79980 0.539986
6281.06006 0.538046
6281.33008 0.536374
6281.58984 0.534279
6281.85010 0.533184
6282.10986 0.530025
6282.37012 0.529346
6282.62988 0.524768
6282.89014 0.524663
6283.14990 0.519683
6283.41016 0.51883
6283.66992 0.517878
6283.93018 0.514801
6284.18994 0.510496
6284.45020 0.509616
6284.72021 0.506393
6284.97998 0.503864
6285.24023 0.501588
6285.50000 0.496545
6285.75977 0.493853
6286.02002 0.49121
6286.27979 0.488963
6286.54004 0.485941
6286.79980 0.483471
6287.06006 0.479504
6287.31982 0.477491
6287.58008 0.473776
6287.85010 0.470296
6288.10986 0.466206
6288.37012 0.464229
6288.62988 0.460107
6288.89014 0.458316
6289.14990 0.453117
6289.41016 0.451204
6289.66992 0.445414
6289.93018 0.442649
6290.18994 0.439048
6290.45020 0.436221
6290.70996 0.431353
6290.97021 0.429487
6291.24023 0.425049
6291.50000 0.42084
6291.75977 0.417697
6292.02002 0.413476
6292.27979 0.409967
6292.54004 0.407728
6292.79980 0.402544
6293.06006 0.399254
6293.31982 0.395492
6293.58008 0.391988
6293.83984 0.389432
6294.10010 0.385291
6294.37012 0.382163
6294.62988 0.377982
6294.89014 0.374617
6295.14990 0.370143
6295.41016 0.366566
6295.66992 0.365431
6295.93018 0.362561
6296.18994 0.358687
6296.45020 0.35418
6296.70996 0.352041
6296.97021 0.348638
6297.22998 0.346754
6297.49023 0.342845
6297.75977 0.338992
6298.02002 0.33664
6298.27979 0.333625
6298.54004 0.331399
6298.79980 0.329426
6299.06006 0.32602
6299.31982 0.324102
6299.58008 0.320174
6299.83984 0.319449
6300.10010 0.315777
6300.35986 0.313322
6300.62012 0.310319
6300.87988 0.310059
6301.14990 0.308154
6301.41016 0.305087
6301.66992 0.303785
6301.93018 0.302122
6302.18994 0.299636
6302.45020 0.298002
6302.70996 0.296853
6302.97021 0.296173
6303.22998 0.295274
6303.49023 0.292921
6303.75000 0.290618
6304.00977 0.291327
6304.27979 0.289683
6304.54004 0.289228
6304.79980 0.28947
6305.06006 0.288046
6305.31982 0.286726
6305.58008 0.287502
6305.83984 0.284995
6306.10010 0.285892
6306.35986 0.286075
6306.62012 0.286225
6306.87988 0.285849
6307.14014 0.287515
6307.39990 0.285695
6307.66992 0.28709
6307.93018 0.286854
6308.18994 0.289401
6308.45020 0.290911
6308.70996 0.291692
6308.97021 0.292051
6309.22998 0.292174
6309.49023 0.294168
6309.75000 0.296198
6310.00977 0.298921
6310.27002 0.301269
6310.52979 0.30226
6310.79980 0.305042
6311.06006 0.307577
6311.31982 0.310071
6311.58008 0.311653
6311.83984 0.317267
6312.10010 0.321757
6312.35986 0.32351
6312.62012 0.32627
6312.87988 0.330327
6313.14014 0.334586
6313.39990 0.340115
6313.66016 0.345177
6313.91992 0.351228
6314.18994 0.355531
6314.45020 0.359611
6314.70996 0.363894
6314.97021 0.368049
6315.22998 0.375736
6315.49023 0.381809
6315.75000 0.388926
6316.00977 0.39516
6316.27002 0.398566
6316.52979 0.401662
6316.79004 0.406965
6317.04980 0.41268
6317.31982 0.419521
6317.58008 0.423186
6317.83984 0.425253
6318.10010 0.425828
6318.35986 0.426743
6318.62012 0.430406
6318.87988 0.42921
6319.14014 0.42912
6319.39990 0.427433
6319.66016 0.422613
6319.91992 0.418038
6320.18018 0.412312
6320.43994 0.407702
6320.70996 0.402083
6320.97021 0.392308
6321.22998 0.382959
6321.49023 0.375866
6321.75000 0.365435
6322.00977 0.355852
6322.27002 0.345318
6322.52979 0.333212
6322.79004 0.321765
6323.04980 0.310769
6323.31006 0.30043
6323.56982 0.292
6323.83984 0.280717
6324.10010 0.268539
6324.35986 0.255525
6324.62012 0.246191
6324.87988 0.233877
6325.14014 0.224962
6325.39990 0.214794
6325.66016 0.205112
6325.91992 0.193173
6326.18018 0.182125
6326.43994 0.172231
6326.70020 0.163244
6326.95996 0.155675
6327.22998 0.146823
6327.49023 0.138614
6327.75000 0.128438
6328.00977 0.120974
6328.27002 0.112226
6328.52979 0.107107
6328.79004 0.101005
6329.04980 0.094475
6329.31006 0.089294
6329.56982 0.082184
6329.83008 0.077723
6330.08984 0.071757
6330.35986 0.068369
6330.62012 0.064736
6330.87988 0.060433
6331.14014 0.056448
6331.39990 0.052592
6331.66016 0.04971
6331.91992 0.046488
6332.18018 0.043837
6332.43994 0.042152
6332.70020 0.039591
6332.95996 0.036885
6333.22021 0.034666
6333.47998 0.032941
6333.75000 0.030976
6334.00977 0.029635
6334.27002 0.02806
6334.52979 0.026513
6334.79004 0.025103
6335.04980 0.023732
6335.31006 0.02247
6335.56982 0.021559
6335.83008 0.020407
6336.08984 0.019759
6336.35010 0.018676
6336.60986 0.018018
6336.87988 0.016755
6337.14014 0.016145
6337.39990 0.015633
6337.66016 0.015143
6337.91992 0.014587
6338.18018 0.013685
6338.43994 0.013194
6338.70020 0.012701
6338.95996 0.011977
6339.22021 0.011829
6339.47998 0.011376
6339.74023 0.010965
6340.00000 0.010675
6340.27002 0.009928
6340.52979 0.009556
6340.79004 0.009319
6341.04980 0.009191
6341.31006 0.008927
6341.56982 0.00869
6341.83008 0.008378
6342.08984 0.008036
6342.35010 0.00758
6342.60986 0.00749
6342.87012 0.007174
6343.12988 0.007107
6343.39990 0.006798
6343.66016 0.006631
6343.91992 0.006728
6344.18018 0.006354
6344.43994 0.006002
6344.70020 0.005975
6344.95996 0.005863
6345.22021 0.006003
6345.47998 0.005629
6345.74023 0.005634
6346.00000 0.005367
6346.25977 0.005142
6346.52002 0.005138
6346.79004 0.004978
6347.04980 0.004789
6347.31006 0.004765
6347.56982 0.004677
6347.83008 0.004636
6348.08984 0.00442
6348.35010 0.004317
6348.60986 0.004305
6348.87012 0.004182
6349.12988 0.00415
6349.39014 0.004096
6984.32910 0.0
