# %ECSV 0.9
# ---
# datatype:
# - {name: wavelength, unit: Angstrom, datatype: float64}
# - {name: response, datatype: float64}
# meta: !!omap
# - {band_name: r}
# - {group_name: GROND}
wavelength response
3500.00000 0.0
3510.00000 1e-05
3520.00000 1e-05
3530.00000 2e-05
3540.00000 3e-05
3550.00000 5e-05
3560.00000 7e-05
3570.00000 9e-05
3580.00000 0.00011
3590.00000 0.00016
3600.00000 0.00021
3610.00000 0.00027
3620.00000 0.00032
3630.00000 0.00033
3640.00000 0.00028
3650.00000 0.00024
3660.00000 0.00023
3670.00000 0.00026
3680.00000 0.00031
3690.00000 0.00034
3700.00000 0.00034
3710.00000 0.00034
3720.00000 0.00037
3730.00000 0.00044
3740.00000 0.00045
3750.00000 0.00047
3760.00000 0.00043
3770.00000 0.00039
3780.00000 0.00039
3790.00000 0.00036
3800.00000 0.00032
3810.00000 0.00027
3820.00000 0.00021
3830.00000 0.00019
3840.00000 0.00016
3850.00000 0.00017
3860.00000 0.00016
3870.00000 0.00013
3880.00000 0.0001
3890.00000 8e-05
3900.00000 6e-05
3910.00000 6e-05
3920.00000 6e-05
3930.00000 8e-05
3940.00000 0.0001
3950.00000 0.00015
3960.00000 0.0002
3970.00000 0.0003
3980.00000 0.0004
3990.00000 0.00045
4000.00000 0.00046
4010.00000 0.00051
4020.00000 0.00047
4030.00000 0.00049
4040.00000 0.00041
4050.00000 0.00041
4060.00000 0.00049
4070.00000 0.0005
4080.00000 0.00061
4090.00000 0.00072
4100.00000 0.00082
4110.00000 0.00101
4120.00000 0.00116
4130.00000 0.00124
4140.00000 0.00131
4150.00000 0.00121
4160.00000 0.00095
4170.00000 0.00071
4180.00000 0.00048
4190.00000 0.00028
4200.00000 0.00018
4210.00000 0.0001
4220.00000 8e-05
4230.00000 6e-05
4240.00000 4e-05
4250.00000 4e-05
4260.00000 2e-05
4270.00000 2e-05
4280.00000 1e-05
4290.00000 1e-05
4300.00000 1e-05
4310.00000 1e-05
4320.00000 1e-05
4330.00000 1e-05
4340.00000 1e-05
4350.00000 2e-05
4360.00000 2e-05
4370.00000 3e-05
4380.00000 4e-05
4390.00000 6e-05
4400.00000 8e-05
4410.00000 9e-05
4420.00000 9e-05
4430.00000 0.00016
4440.00000 0.00015
4450.00000 0.00014
4460.00000 0.00021
4470.00000 0.00027
4480.00000 0.00034
4490.00000 0.00038
4500.00000 0.00041
4510.00000 0.00046
4520.00000 0.00051
4530.00000 0.0005
4540.00000 0.0005
4550.00000 0.00049
4560.00000 0.00049
4570.00000 0.00052
4580.00000 0.00053
4590.00000 0.00055
4600.00000 0.00057
4610.00000 0.00059
4620.00000 0.00059
4630.00000 0.00057
4640.00000 0.00052
4650.00000 0.00054
4660.00000 0.00046
4670.00000 0.00046
4680.00000 0.00046
4690.00000 0.00044
4700.00000 0.00043
4710.00000 0.0004
4720.00000 0.00037
4730.00000 0.00034
4740.00000 0.00031
4750.00000 0.00028
4760.00000 0.00032
4770.00000 0.00031
4780.00000 0.00035
4790.00000 0.0004
4800.00000 0.00046
4810.00000 0.00048
4820.00000 0.00055
4830.00000 0.00067
4840.00000 0.00073
4850.00000 0.00084
4860.00000 0.00093
4870.00000 0.00107
4880.00000 0.00116
4890.00000 0.00137
4900.00000 0.00155
4910.00000 0.00178
4920.00000 0.00213
4930.00000 0.00258
4940.00000 0.00306
4950.00000 0.00368
4960.00000 0.00422
4970.00000 0.00477
4980.00000 0.00505
4990.00000 0.00513
5000.00000 0.00505
5010.00000 0.00492
5020.00000 0.0048
5030.00000 0.00474
5040.00000 0.00486
5050.00000 0.00505
5060.00000 0.00544
5070.00000 0.00604
5080.00000 0.00681
5090.00000 0.00786
5100.00000 0.00894
5110.00000 0.01014
5120.00000 0.01107
5130.00000 0.01171
5140.00000 0.01207
5150.00000 0.01227
5160.00000 0.01239
5170.00000 0.0127
5180.00000 0.01324
5190.00000 0.01418
5200.00000 0.01558
5210.00000 0.0176
5220.00000 0.02039
5230.00000 0.02432
5240.00000 0.02965
5250.00000 0.03689
5260.00000 0.04649
5270.00000 0.05936
5280.00000 0.07589
5290.00000 0.09666
5300.00000 0.1216
5310.00000 0.15048
5320.00000 0.18203
5330.00000 0.21474
5340.00000 0.24837
5350.00000 0.28201
5360.00000 0.31456
5370.00000 0.34658
5380.00000 0.37945
5390.00000 0.41287
5400.00000 0.44515
5410.00000 0.4781
5420.00000 0.51189
5430.00000 0.5447
5440.00000 0.57474
5450.00000 0.60267
5460.00000 0.62886
5470.00000 0.65046
5480.00000 0.66579
5490.00000 0.67654
5500.00000 0.6832
5510.00000 0.68426
5520.00000 0.68009
5530.00000 0.67431
5540.00000 0.66626
5550.00000 0.65362
5560.00000 0.63973
5570.00000 0.62587
5580.00000 0.61118
5590.00000 0.59627
5600.00000 0.58221
5610.00000 0.57041
5620.00000 0.55892
5630.00000 0.54798
5640.00000 0.53928
5650.00000 0.53251
5660.00000 0.52796
5670.00000 0.52448
5680.00000 0.52245
5690.00000 0.52375
5700.00000 0.52727
5710.00000 0.5307
5720.00000 0.53628
5730.00000 0.5432
5740.00000 0.55097
5750.00000 0.55934
5760.00000 0.56909
5770.00000 0.58055
5780.00000 0.59137
5790.00000 0.6014
5800.00000 0.61235
5810.00000 0.62439
5820.00000 0.63491
5830.00000 0.6449
5840.00000 0.65634
5850.00000 0.66736
5860.00000 0.67705
5870.00000 0.68661
5880.00000 0.69563
5890.00000 0.70352
5900.00000 0.70959
5910.00000 0.71506
5920.00000 0.72021
5930.00000 0.72372
5940.00000 0.72459
5950.00000 0.72531
5960.00000 0.72488
5970.00000 0.72334
5980.00000 0.72043
5990.00000 0.71876
6000.00000 0.7177
6010.00000 0.7135
6020.00000 0.70981
6030.00000 0.70842
6040.00000 0.70612
6050.00000 0.70298
6060.00000 0.70129
6070.00000 0.70102
6080.00000 0.7005
6090.00000 0.69844
6100.00000 0.69762
6110.00000 0.69726
6120.00000 0.69647
6130.00000 0.69487
6140.00000 0.69516
6150.00000 0.69507
6160.00000 0.69344
6170.00000 0.69197
6180.00000 0.6928
6190.00000 0.69306
6200.00000 0.69092
6210.00000 0.69025
6220.00000 0.69037
6230.00000 0.69055
6240.00000 0.68971
6250.00000 0.68947
6260.00000 0.69019
6270.00000 0.69057
6280.00000 0.69028
6290.00000 0.69109
6300.00000 0.6918
6310.00000 0.69117
6320.00000 0.69209
6330.00000 0.69318
6340.00000 0.69353
6350.00000 0.6921
6360.00000 0.69285
6370.00000 0.69396
6380.00000 0.69303
6390.00000 0.69205
6400.00000 0.69245
6410.00000 0.69267
6420.00000 0.69185
6430.00000 0.6914
6440.00000 0.69199
6450.00000 0.69189
6460.00000 0.69057
6470.00000 0.69044
6480.00000 0.69155
6490.00000 0.69222
6500.00000 0.69086
6510.00000 0.68985
6520.00000 0.69067
6530.00000 0.69133
6540.00000 0.6899
6550.00000 0.68984
6560.00000 0.69006
6570.00000 0.68897
6580.00000 0.68694
6590.00000 0.68691
6600.00000 0.68735
6610.00000 0.68558
6620.00000 0.6831
6630.00000 0.68318
6640.00000 0.68216
6650.00000 0.68029
6660.00000 0.67814
6670.00000 0.67875
6680.00000 0.67783
6690.00000 0.67534
6700.00000 0.67462
6710.00000 0.67547
6720.00000 0.67391
6730.00000 0.67142
6740.00000 0.67111
6750.00000 0.67027
6760.00000 0.66877
6770.00000 0.66642
6780.00000 0.66454
6790.00000 0.66281
6800.00000 0.65971
6810.00000 0.65646
6820.00000 0.65437
6830.00000 0.65208
6840.00000 0.64875
6850.00000 0.6463
6860.00000 0.64517
6870.00000 0.6434
6880.00000 0.64174
6890.00000 0.64014
6900.00000 0.63987
6910.00000 0.64016
6920.00000 0.63736
6930.00000 0.6341
6940.00000 0.62953
6950.00000 0.62315
6960.00000 0.61311
6970.00000 0.60017
6980.00000 0.58536
6990.00000 0.56529
7000.00000 0.54292
7010.00000 0.51993
7020.00000 0.49468
7030.00000 0.46852
7040.00000 0.44075
7050.00000 0.41352
7060.00000 0.38467
7070.00000 0.35324
7080.00000 0.31657
7090.00000 0.2725
7100.00000 0.22171
7110.00000 0.16722
7120.00000 0.11636
7130.00000 0.07494
7140.00000 0.04501
7150.00000 0.02563
7160.00000 0.01424
7170.00000 0.00786
7180.00000 0.00441
7190.00000 0.00261
7200.00000 0.00168
7210.00000 0.00116
7220.00000 0.00085
7230.00000 0.00065
7240.00000 0.00051
7250.00000 0.0004
7260.00000 0.00031
7270.00000 0.00024
7280.00000 0.00019
7290.00000 0.00014
7300.00000 0.00011
7310.00000 8e-05
7320.00000 6e-05
7330.00000 5e-05
7340.00000 3e-05
7350.00000 3e-05
7360.00000 2e-05
7370.00000 1e-05
7380.00000 1e-05
7390.00000 1e-05
7400.00000 1e-05
7410.00000 1e-05
7420.00000 1e-05
7430.00000 1e-05
7440.00000 1e-05
7450.00000 1e-05
7460.00000 1e-05
7470.00000 1e-05
7480.00000 1e-05
7490.00000 1e-05
7500.00000 1e-05
7510.00000 1e-05
7520.00000 1e-05
7530.00000 1e-05
7540.00000 1e-05
7550.00000 1e-05
7560.00000 0.0
7570.00000 1e-05
7580.00000 1e-05
7590.00000 0.0
7600.00000 0.0
7610.00000 0.0
7620.00000 0.0
7630.00000 0.0
7640.00000 0.0
7650.00000 0.0
7660.00000 0.0
7670.00000 0.0
7680.00000 0.0
7690.00000 0.0
7700.00000 0.0
7710.00000 0.0
7720.00000 0.0
7730.00000 0.0
7740.00000 0.0
7750.00000 0.0
7760.00000 0.0
7770.00000 0.0
7780.00000 0.0
7790.00000 0.0
7800.00000 0.0
7810.00000 0.0
7820.00000 0.0
7830.00000 0.0
7840.00000 0.0
7850.00000 0.0
7860.00000 0.0
7870.00000 0.0
7880.00000 0.0
7890.00000 0.0
7900.00000 0.0
7910.00000 0.0
7920.00000 0.0
7930.00000 1e-05
7940.00000 1e-05
7950.00000 1e-05
7960.00000 0.0
7970.00000 1e-05
7980.00000 1e-05
7990.00000 1e-05
8000.00000 1e-05
8010.00000 1e-05
8020.00000 1e-05
8030.00000 1e-05
8040.00000 2e-05
8050.00000 2e-05
8060.00000 2e-05
8070.00000 3e-05
8080.00000 4e-05
8090.00000 5e-05
8100.00000 6e-05
8110.00000 6e-05
8120.00000 6e-05
8130.00000 5e-05
8140.00000 3e-05
8150.00000 2e-05
8160.00000 2e-05
8170.00000 1e-05
8180.00000 1e-05
8190.00000 1e-05
8200.00000 1e-05
8210.00000 0.0
