# %ECSV 0.9
# ---
# datatype:
# - {name: wavelength, unit: Angstrom, datatype: float32}
# - {name: response, datatype: float32}
# meta: !!omap
# - {band_name: F770W}
# - {group_name: MIRI}
wavelength response
55872.00000 0.0
62080.00000 0.0001
62140.00000 0.0001
62200.00000 0.0001
62260.00000 0.0001
62320.00000 0.0002
62370.00000 0.0002
62430.00000 0.0003
62490.00000 0.0005
62550.00000 0.0007
62610.00000 0.0009
62660.00000 0.0008
62720.00000 0.0007
62780.00000 0.0007
62840.00000 0.0006
62900.00000 0.0005
62950.00000 0.0004
63010.00000 0.0003
63070.00000 0.0002
63130.00000 0.0002
63190.00000 0.0001
63240.00000 0.0001
63300.00000 0.0001
63360.00000 0.0001
63420.00000 0.0001
63480.00000 0.0001
63530.00000 0.0001
63590.00000 0.0002
63650.00000 0.0002
63710.00000 0.0002
63770.00000 0.0002
63820.00000 0.0002
63880.00000 0.0002
63940.00000 0.0003
64000.00000 0.0003
64060.00000 0.0004
64110.00000 0.0004
64170.00000 0.0005
64230.00000 0.0005
64290.00000 0.0007
64350.00000 0.0008
64400.00000 0.001
64460.00000 0.0013
64520.00000 0.0015
64580.00000 0.0018
64640.00000 0.0025
64690.00000 0.0033
64750.00000 0.0041
64810.00000 0.0052
64870.00000 0.0079
64930.00000 0.0105
64980.00000 0.0131
65040.00000 0.0194
65100.00000 0.0272
65160.00000 0.0349
65220.00000 0.0455
65270.00000 0.0637
65330.00000 0.0818
65390.00000 0.0999
65450.00000 0.1192
65510.00000 0.1388
65560.00000 0.1584
65620.00000 0.1734
65680.00000 0.1812
65740.00000 0.1889
65800.00000 0.1966
65850.00000 0.2024
65910.00000 0.2081
65970.00000 0.2137
66030.00000 0.2222
66090.00000 0.2337
66140.00000 0.2452
66200.00000 0.2568
66260.00000 0.2707
66320.00000 0.2847
66380.00000 0.2986
66430.00000 0.3053
66490.00000 0.3069
66550.00000 0.3085
66610.00000 0.3095
66670.00000 0.3073
66720.00000 0.305
66780.00000 0.3027
66840.00000 0.2983
66900.00000 0.293
66960.00000 0.2876
67010.00000 0.2832
67070.00000 0.2817
67130.00000 0.2802
67190.00000 0.2787
67250.00000 0.2792
67300.00000 0.2802
67360.00000 0.2813
67420.00000 0.284
67480.00000 0.2899
67540.00000 0.2958
67590.00000 0.3017
67650.00000 0.3102
67710.00000 0.319
67770.00000 0.3277
67830.00000 0.3349
67880.00000 0.3403
67940.00000 0.3457
68000.00000 0.351
68060.00000 0.3536
68120.00000 0.3562
68170.00000 0.3588
68230.00000 0.3594
68290.00000 0.3584
68350.00000 0.3574
68410.00000 0.3565
68460.00000 0.3569
68520.00000 0.3573
68580.00000 0.3576
68640.00000 0.3543
68700.00000 0.3491
68750.00000 0.3439
68810.00000 0.3394
68870.00000 0.3377
68930.00000 0.3359
68990.00000 0.3342
69040.00000 0.3331
69100.00000 0.3322
69160.00000 0.3314
69220.00000 0.3309
69280.00000 0.3314
69330.00000 0.3319
69390.00000 0.3324
69450.00000 0.3345
69510.00000 0.3368
69570.00000 0.3391
69620.00000 0.3406
69680.00000 0.3406
69740.00000 0.3407
69800.00000 0.3408
69860.00000 0.3419
69910.00000 0.343
69970.00000 0.3441
70030.00000 0.3455
70090.00000 0.3473
70150.00000 0.3491
70200.00000 0.3509
70260.00000 0.3538
70320.00000 0.3566
70380.00000 0.3594
70440.00000 0.3612
70490.00000 0.3623
70550.00000 0.3635
70610.00000 0.3645
70670.00000 0.3654
70730.00000 0.3663
70780.00000 0.3671
70840.00000 0.3681
70900.00000 0.3691
70960.00000 0.37
71020.00000 0.3709
71070.00000 0.3713
71130.00000 0.3718
71190.00000 0.3723
71250.00000 0.372
71310.00000 0.3716
71360.00000 0.3712
71420.00000 0.3708
71480.00000 0.3704
71540.00000 0.37
71600.00000 0.3696
71650.00000 0.3683
71710.00000 0.367
71770.00000 0.3656
71830.00000 0.3649
71890.00000 0.365
71940.00000 0.3651
72000.00000 0.3652
72060.00000 0.3658
72120.00000 0.3664
72180.00000 0.3671
72230.00000 0.368
72290.00000 0.3691
72350.00000 0.3702
72410.00000 0.3713
72470.00000 0.373
72520.00000 0.3747
72580.00000 0.3764
72640.00000 0.3776
72700.00000 0.3787
72760.00000 0.3798
72810.00000 0.3804
72870.00000 0.3796
72930.00000 0.3787
72990.00000 0.3779
73050.00000 0.3768
73100.00000 0.3756
73160.00000 0.3744
73220.00000 0.3733
73280.00000 0.3724
73340.00000 0.3714
73390.00000 0.3705
73450.00000 0.3686
73510.00000 0.3665
73570.00000 0.3645
73630.00000 0.3632
73680.00000 0.3627
73740.00000 0.3622
73800.00000 0.3617
73860.00000 0.3623
73920.00000 0.3629
73970.00000 0.3635
74030.00000 0.3647
74090.00000 0.3662
74150.00000 0.3678
74210.00000 0.3695
74260.00000 0.3716
74320.00000 0.3738
74380.00000 0.3759
74440.00000 0.3783
74500.00000 0.3809
74550.00000 0.3834
74610.00000 0.3855
74670.00000 0.3862
74730.00000 0.3869
74790.00000 0.3876
74840.00000 0.3872
74900.00000 0.3864
74960.00000 0.3857
75020.00000 0.3847
75080.00000 0.3833
75130.00000 0.3819
75190.00000 0.3805
75250.00000 0.3786
75310.00000 0.3766
75370.00000 0.3746
75420.00000 0.3727
75480.00000 0.371
75540.00000 0.3693
75600.00000 0.3676
75660.00000 0.3666
75710.00000 0.3656
75770.00000 0.3646
75830.00000 0.364
75890.00000 0.3637
75950.00000 0.3634
76000.00000 0.3632
76060.00000 0.364
76120.00000 0.3647
76180.00000 0.3654
76240.00000 0.3665
76290.00000 0.3679
76350.00000 0.3692
76410.00000 0.3706
76470.00000 0.3723
76530.00000 0.3739
76580.00000 0.3756
76640.00000 0.3772
76700.00000 0.3787
76760.00000 0.3802
76820.00000 0.3816
76870.00000 0.3827
76930.00000 0.3839
76990.00000 0.385
77050.00000 0.3856
77110.00000 0.3861
77160.00000 0.3865
77220.00000 0.3869
77280.00000 0.387
77340.00000 0.3871
77400.00000 0.3872
77450.00000 0.3873
77510.00000 0.3874
77570.00000 0.3874
77630.00000 0.3874
77690.00000 0.3874
77740.00000 0.3874
77800.00000 0.3874
77860.00000 0.3875
77920.00000 0.3876
77980.00000 0.3878
78030.00000 0.388
78090.00000 0.3883
78150.00000 0.3887
78210.00000 0.389
78270.00000 0.3893
78320.00000 0.3896
78380.00000 0.3899
78440.00000 0.3901
78500.00000 0.3903
78560.00000 0.3905
78610.00000 0.3905
78670.00000 0.3902
78730.00000 0.3899
78790.00000 0.3897
78850.00000 0.3891
78900.00000 0.3885
78960.00000 0.3879
79020.00000 0.3872
79080.00000 0.3864
79140.00000 0.3856
79190.00000 0.3848
79250.00000 0.3842
79310.00000 0.3836
79370.00000 0.383
79430.00000 0.3826
79480.00000 0.3824
79540.00000 0.3822
79600.00000 0.382
79660.00000 0.3823
79720.00000 0.3826
79770.00000 0.3829
79830.00000 0.3836
79890.00000 0.3844
79950.00000 0.3853
80010.00000 0.3862
80060.00000 0.3873
80120.00000 0.3883
80180.00000 0.3894
80240.00000 0.3905
80300.00000 0.3915
80350.00000 0.3926
80410.00000 0.3936
80470.00000 0.3943
80530.00000 0.395
80590.00000 0.3958
80640.00000 0.3962
80700.00000 0.3964
80760.00000 0.3967
80820.00000 0.3968
80880.00000 0.3965
80930.00000 0.3963
80990.00000 0.396
81050.00000 0.3954
81110.00000 0.3948
81170.00000 0.3941
81220.00000 0.3934
81280.00000 0.3927
81340.00000 0.3919
81400.00000 0.3912
81460.00000 0.3906
81510.00000 0.39
81570.00000 0.3894
81630.00000 0.389
81690.00000 0.3887
81750.00000 0.3885
81800.00000 0.3883
81860.00000 0.3884
81920.00000 0.3886
81980.00000 0.3888
82040.00000 0.3891
82090.00000 0.3896
82150.00000 0.39
82210.00000 0.3905
82270.00000 0.391
82330.00000 0.3915
82380.00000 0.392
82440.00000 0.3924
82500.00000 0.3928
82560.00000 0.3931
82620.00000 0.3934
82670.00000 0.3933
82730.00000 0.3933
82790.00000 0.3932
82850.00000 0.3928
82910.00000 0.3923
82960.00000 0.3918
83020.00000 0.3911
83080.00000 0.3903
83140.00000 0.3895
83200.00000 0.3886
83250.00000 0.3876
83310.00000 0.3866
83370.00000 0.3855
83430.00000 0.3845
83490.00000 0.3836
83540.00000 0.3828
83600.00000 0.3819
83660.00000 0.3813
83720.00000 0.3806
83780.00000 0.38
83830.00000 0.3796
83890.00000 0.3794
83950.00000 0.3791
84010.00000 0.3789
84070.00000 0.3791
84120.00000 0.3793
84180.00000 0.3795
84240.00000 0.3799
84300.00000 0.3804
84360.00000 0.3809
84410.00000 0.3815
84470.00000 0.382
84530.00000 0.3826
84590.00000 0.3832
84650.00000 0.3837
84700.00000 0.3843
84760.00000 0.3848
84820.00000 0.3853
84880.00000 0.3856
84940.00000 0.3859
84990.00000 0.3862
85050.00000 0.3861
85110.00000 0.3858
85170.00000 0.3856
85230.00000 0.3852
85280.00000 0.3847
85340.00000 0.3841
85400.00000 0.3836
85460.00000 0.3827
85520.00000 0.3818
85570.00000 0.3809
85630.00000 0.3799
85690.00000 0.3788
85750.00000 0.3776
85810.00000 0.3765
85860.00000 0.3749
85920.00000 0.3733
85980.00000 0.3718
86040.00000 0.3694
86100.00000 0.3666
86150.00000 0.3638
86210.00000 0.3602
86270.00000 0.3532
86330.00000 0.3462
86390.00000 0.3392
86440.00000 0.3273
86500.00000 0.3137
86560.00000 0.3002
86620.00000 0.2847
86680.00000 0.2648
86730.00000 0.2449
86790.00000 0.225
86850.00000 0.2035
86910.00000 0.1818
86970.00000 0.1601
87020.00000 0.1402
87080.00000 0.1228
87140.00000 0.1054
87200.00000 0.0881
87260.00000 0.0764
87310.00000 0.0649
87370.00000 0.0535
87430.00000 0.0448
87490.00000 0.0386
87550.00000 0.0324
87600.00000 0.0264
87660.00000 0.0231
87720.00000 0.0198
87780.00000 0.0165
87840.00000 0.0141
87890.00000 0.0123
87950.00000 0.0104
88010.00000 0.0087
88070.00000 0.0077
88130.00000 0.0067
88180.00000 0.0057
88240.00000 0.005
88300.00000 0.0045
88360.00000 0.0039
88420.00000 0.0034
88470.00000 0.0031
88530.00000 0.0027
88590.00000 0.0024
88650.00000 0.0021
88710.00000 0.0019
88760.00000 0.0017
88820.00000 0.0016
88880.00000 0.0014
88940.00000 0.0013
89000.00000 0.0012
89050.00000 0.0011
89110.00000 0.001
89170.00000 0.0009
89230.00000 0.0008
89290.00000 0.0008
89340.00000 0.0007
89400.00000 0.0006
89460.00000 0.0006
89520.00000 0.0006
89580.00000 0.0005
89630.00000 0.0005
89690.00000 0.0005
89750.00000 0.0004
89810.00000 0.0004
89870.00000 0.0004
89920.00000 0.0004
89980.00000 0.0004
90040.00000 0.0004
90100.00000 0.0004
90160.00000 0.0003
90210.00000 0.0003
90270.00000 0.0003
90330.00000 0.0003
90390.00000 0.0003
90450.00000 0.0003
90500.00000 0.0003
90560.00000 0.0003
90620.00000 0.0003
90680.00000 0.0003
90740.00000 0.0003
90790.00000 0.0003
90850.00000 0.0003
90910.00000 0.0003
90970.00000 0.0003
91030.00000 0.0003
91080.00000 0.0003
91140.00000 0.0003
91200.00000 0.0003
91260.00000 0.0003
91320.00000 0.0003
91370.00000 0.0003
91430.00000 0.0003
91490.00000 0.0003
91550.00000 0.0003
91610.00000 0.0003
91660.00000 0.0003
91720.00000 0.0003
91780.00000 0.0003
91840.00000 0.0003
91900.00000 0.0002
91950.00000 0.0002
92010.00000 0.0002
92070.00000 0.0002
92130.00000 0.0002
92190.00000 0.0002
92240.00000 0.0002
92300.00000 0.0002
92360.00000 0.0002
92420.00000 0.0001
92480.00000 0.0001
92530.00000 0.0001
92590.00000 0.0001
92650.00000 0.0001
92710.00000 0.0001
92770.00000 0.0001
92820.00000 0.0001
92880.00000 0.0001
92940.00000 0.0001
93000.00000 0.0001
93060.00000 0.0001
93110.00000 0.0001
93170.00000 0.0001
93230.00000 0.0001
93290.00000 0.0001
102619.00000 0.0
