# %ECSV 0.9
# ---
# datatype:
# - {name: wavelength, unit: Angstrom, datatype: float32}
# - {name: response, datatype: float32}
# meta: !!omap
# - {band_name: F090W}
# - {group_name: NIRISS}
wavelength response
7083.00000 0.0
7870.00000 0.001248
7880.00000 0.00349741
7890.00000 0.00972894
7900.00000 0.0253918
7910.00000 0.0585776
7920.00000 0.116005
7930.00000 0.19934
7940.00000 0.303442
7950.00000 0.415515
7960.00000 0.524289
7970.00000 0.623563
7980.00000 0.707472
7990.00000 0.764076
8000.00000 0.81023
8010.00000 0.840402
8020.00000 0.862077
8030.00000 0.881172
8040.00000 0.893117
8050.00000 0.905565
8060.00000 0.897031
8070.00000 0.880671
8080.00000 0.850257
8090.00000 0.829965
8100.00000 0.81409
8110.00000 0.807657
8120.00000 0.811454
8130.00000 0.816558
8140.00000 0.813233
8150.00000 0.805295
8160.00000 0.795825
8170.00000 0.794306
8180.00000 0.807019
8190.00000 0.833528
8200.00000 0.85949
8210.00000 0.886699
8220.00000 0.902411
8230.00000 0.912851
8240.00000 0.908123
8250.00000 0.8941
8260.00000 0.878477
8270.00000 0.865341
8280.00000 0.860034
8290.00000 0.863133
8300.00000 0.865251
8310.00000 0.865947
8320.00000 0.865795
8330.00000 0.85784
8340.00000 0.844666
8350.00000 0.836182
8360.00000 0.829632
8370.00000 0.834214
8380.00000 0.84037
8390.00000 0.846818
8400.00000 0.849443
8410.00000 0.853072
8420.00000 0.862252
8430.00000 0.865193
8440.00000 0.879981
8450.00000 0.887617
8460.00000 0.890521
8470.00000 0.902488
8480.00000 0.899627
8490.00000 0.908965
8500.00000 0.912041
8510.00000 0.915201
8520.00000 0.914591
8530.00000 0.910001
8540.00000 0.899554
8550.00000 0.889493
8560.00000 0.882735
8570.00000 0.87468
8580.00000 0.869102
8590.00000 0.861184
8600.00000 0.852895
8610.00000 0.843274
8620.00000 0.835518
8630.00000 0.832222
8640.00000 0.839377
8650.00000 0.846269
8660.00000 0.854108
8670.00000 0.866993
8680.00000 0.877476
8690.00000 0.89299
8700.00000 0.905857
8710.00000 0.913026
8720.00000 0.918143
8730.00000 0.918922
8740.00000 0.915723
8750.00000 0.910128
8760.00000 0.899133
8770.00000 0.888305
8780.00000 0.875968
8790.00000 0.866738
8800.00000 0.86537
8810.00000 0.864324
8820.00000 0.856103
8830.00000 0.839307
8840.00000 0.826099
8850.00000 0.813083
8860.00000 0.800774
8870.00000 0.795051
8880.00000 0.793389
8890.00000 0.804867
8900.00000 0.818851
8910.00000 0.832044
8920.00000 0.849849
8930.00000 0.877222
8940.00000 0.897561
8950.00000 0.899142
8960.00000 0.899664
8970.00000 0.890979
8980.00000 0.883662
8990.00000 0.87616
9000.00000 0.866088
9010.00000 0.855429
9020.00000 0.842188
9030.00000 0.828226
9040.00000 0.815694
9050.00000 0.809362
9060.00000 0.804254
9070.00000 0.799732
9080.00000 0.800157
9090.00000 0.802836
9100.00000 0.811037
9110.00000 0.820744
9120.00000 0.83302
9130.00000 0.846923
9140.00000 0.86285
9150.00000 0.880822
9160.00000 0.895049
9170.00000 0.909865
9180.00000 0.921417
9190.00000 0.927669
9200.00000 0.931237
9210.00000 0.932868
9220.00000 0.931945
9230.00000 0.930176
9240.00000 0.919227
9250.00000 0.905737
9260.00000 0.897425
9270.00000 0.887458
9280.00000 0.879972
9290.00000 0.873032
9300.00000 0.868337
9310.00000 0.86572
9320.00000 0.864055
9330.00000 0.862601
9340.00000 0.860682
9350.00000 0.858079
9360.00000 0.858486
9370.00000 0.858665
9380.00000 0.860262
9390.00000 0.865739
9400.00000 0.875
9410.00000 0.885041
9420.00000 0.896212
9430.00000 0.909348
9440.00000 0.919539
9450.00000 0.925121
9460.00000 0.92932
9470.00000 0.928514
9480.00000 0.924867
9490.00000 0.920177
9500.00000 0.913179
9510.00000 0.907713
9520.00000 0.904228
9530.00000 0.900549
9540.00000 0.893716
9550.00000 0.88678
9560.00000 0.882755
9570.00000 0.87884
9580.00000 0.876582
9590.00000 0.879317
9600.00000 0.882296
9610.00000 0.886662
9620.00000 0.889028
9630.00000 0.892731
9640.00000 0.8999
9650.00000 0.9093
9660.00000 0.920172
9670.00000 0.925283
9680.00000 0.927967
9690.00000 0.931677
9700.00000 0.934062
9710.00000 0.933199
9720.00000 0.931826
9730.00000 0.931783
9740.00000 0.930897
9750.00000 0.930894
9760.00000 0.92744
9770.00000 0.923857
9780.00000 0.916844
9790.00000 0.906402
9800.00000 0.901217
9810.00000 0.900595
9820.00000 0.90023
9830.00000 0.904792
9840.00000 0.914165
9850.00000 0.92718
9860.00000 0.941462
9870.00000 0.951447
9880.00000 0.955086
9890.00000 0.960379
9900.00000 0.958847
9910.00000 0.954676
9920.00000 0.950403
9930.00000 0.945506
9940.00000 0.939987
9950.00000 0.933425
9960.00000 0.927766
9970.00000 0.923187
9980.00000 0.918419
9990.00000 0.913397
10000.00000 0.905514
10010.00000 0.877657
10020.00000 0.818117
10030.00000 0.727267
10040.00000 0.603887
10050.00000 0.47261
10060.00000 0.371467
10070.00000 0.296752
10080.00000 0.237436
10090.00000 0.192182
10100.00000 0.157495
10110.00000 0.131236
10120.00000 0.110342
10130.00000 0.0968202
10140.00000 0.0829644
10150.00000 0.0712997
10160.00000 0.0624009
10170.00000 0.0564349
10180.00000 0.0488414
10190.00000 0.0416585
10200.00000 0.0339347
10210.00000 0.0259439
10220.00000 0.0191611
10230.00000 0.0138011
10240.00000 0.00960284
10250.00000 0.00662765
10260.00000 0.00457419
10270.00000 0.00315531
10280.00000 0.00220914
10290.00000 0.00157701
10300.00000 0.00113539
11330.00000 0.0
