# %ECSV 0.9
# ---
# datatype:
# - {name: wavelength, unit: Angstrom, datatype: float32}
# - {name: response, datatype: float32}
# meta: !!omap
# - {band_name: F200W}
# - {group_name: NIRISS}
wavelength response
15327.00000 0.0
17030.00000 0.00111802
17040.00000 0.00126655
17050.00000 0.00143674
17060.00000 0.00163091
17070.00000 0.00185311
17080.00000 0.00210546
17090.00000 0.00239045
17100.00000 0.0027133
17110.00000 0.00307916
17120.00000 0.00349271
17130.00000 0.00396323
17140.00000 0.00450134
17150.00000 0.00511105
17160.00000 0.00580208
17170.00000 0.00659887
17180.00000 0.00751153
17190.00000 0.00856122
17200.00000 0.00977127
17210.00000 0.0111718
17220.00000 0.0128015
17230.00000 0.0147271
17240.00000 0.0170096
17250.00000 0.0197114
17260.00000 0.0229133
17270.00000 0.0267077
17280.00000 0.031224
17290.00000 0.0366063
17300.00000 0.0428415
17310.00000 0.0495025
17320.00000 0.0560319
17330.00000 0.0621286
17340.00000 0.0681502
17350.00000 0.0746267
17360.00000 0.0819963
17370.00000 0.0906187
17380.00000 0.100757
17390.00000 0.112948
17400.00000 0.126513
17410.00000 0.142057
17420.00000 0.159276
17430.00000 0.179772
17440.00000 0.204411
17450.00000 0.234536
17460.00000 0.269898
17470.00000 0.309897
17480.00000 0.354033
17490.00000 0.401532
17500.00000 0.451298
17510.00000 0.502064
17520.00000 0.552019
17530.00000 0.598762
17540.00000 0.640929
17550.00000 0.678493
17560.00000 0.71128
17570.00000 0.740058
17580.00000 0.765238
17590.00000 0.786912
17600.00000 0.80663
17610.00000 0.824904
17620.00000 0.841703
17630.00000 0.857437
17640.00000 0.87252
17650.00000 0.887293
17660.00000 0.901867
17670.00000 0.914783
17680.00000 0.927631
17690.00000 0.938144
17700.00000 0.946758
17710.00000 0.953237
17720.00000 0.958752
17730.00000 0.962531
17740.00000 0.964254
17750.00000 0.965117
17760.00000 0.965904
17770.00000 0.965904
17780.00000 0.96467
17790.00000 0.963813
17800.00000 0.962787
17810.00000 0.962111
17820.00000 0.961666
17830.00000 0.962899
17840.00000 0.964683
17850.00000 0.965227
17860.00000 0.964718
17870.00000 0.964445
17880.00000 0.965008
17890.00000 0.965367
17900.00000 0.96462
17910.00000 0.962647
17920.00000 0.960669
17930.00000 0.959244
17940.00000 0.957878
17950.00000 0.956445
17960.00000 0.954399
17970.00000 0.951172
17980.00000 0.947698
17990.00000 0.944682
18000.00000 0.941773
18010.00000 0.93902
18020.00000 0.936917
18030.00000 0.934885
18040.00000 0.93262
18050.00000 0.930776
18060.00000 0.929847
18070.00000 0.929675
18080.00000 0.929496
18090.00000 0.929046
18100.00000 0.929327
18110.00000 0.930437
18120.00000 0.931853
18130.00000 0.934395
18140.00000 0.936808
18150.00000 0.939714
18160.00000 0.941888
18170.00000 0.944314
18180.00000 0.946509
18190.00000 0.948096
18200.00000 0.949821
18210.00000 0.951239
18220.00000 0.952628
18230.00000 0.955385
18240.00000 0.958545
18250.00000 0.96114
18260.00000 0.962677
18270.00000 0.964365
18280.00000 0.966269
18290.00000 0.967329
18300.00000 0.968342
18310.00000 0.969084
18320.00000 0.969054
18330.00000 0.969469
18340.00000 0.970724
18350.00000 0.971519
18360.00000 0.972673
18370.00000 0.973298
18380.00000 0.973284
18390.00000 0.973678
18400.00000 0.973657
18410.00000 0.974109
18420.00000 0.972875
18430.00000 0.971164
18440.00000 0.969866
18450.00000 0.970043
18460.00000 0.970398
18470.00000 0.969477
18480.00000 0.966595
18490.00000 0.964458
18500.00000 0.963496
18510.00000 0.963064
18520.00000 0.963209
18530.00000 0.962659
18540.00000 0.960641
18550.00000 0.958406
18560.00000 0.956209
18570.00000 0.954883
18580.00000 0.954348
18590.00000 0.95433
18600.00000 0.953693
18610.00000 0.953227
18620.00000 0.95192
18630.00000 0.950863
18640.00000 0.950099
18650.00000 0.949901
18660.00000 0.950271
18670.00000 0.950761
18680.00000 0.951164
18690.00000 0.951073
18700.00000 0.951463
18710.00000 0.952427
18720.00000 0.953982
18730.00000 0.955386
18740.00000 0.956446
18750.00000 0.958174
18760.00000 0.960267
18770.00000 0.961518
18780.00000 0.962419
18790.00000 0.963342
18800.00000 0.964131
18810.00000 0.964997
18820.00000 0.965783
18830.00000 0.967315
18840.00000 0.969775
18850.00000 0.971468
18860.00000 0.971649
18870.00000 0.971356
18880.00000 0.971325
18890.00000 0.971462
18900.00000 0.971265
18910.00000 0.971171
18920.00000 0.971243
18930.00000 0.971704
18940.00000 0.971471
18950.00000 0.971991
18960.00000 0.971603
18970.00000 0.972
18980.00000 0.972418
18990.00000 0.973907
19000.00000 0.975036
19010.00000 0.97527
19020.00000 0.975136
19030.00000 0.976062
19040.00000 0.97751
19050.00000 0.978905
19060.00000 0.978513
19070.00000 0.978647
19080.00000 0.979139
19090.00000 0.979932
19100.00000 0.98074
19110.00000 0.98201
19120.00000 0.98257
19130.00000 0.982643
19140.00000 0.9828
19150.00000 0.982961
19160.00000 0.982839
19170.00000 0.983876
19180.00000 0.984018
19190.00000 0.984842
19200.00000 0.984946
19210.00000 0.985694
19220.00000 0.98494
19230.00000 0.982717
19240.00000 0.980098
19250.00000 0.978015
19260.00000 0.976858
19270.00000 0.975219
19280.00000 0.974836
19290.00000 0.974161
19300.00000 0.974189
19310.00000 0.973493
19320.00000 0.97321
19330.00000 0.972186
19340.00000 0.971527
19350.00000 0.971048
19360.00000 0.970433
19370.00000 0.969884
19380.00000 0.969728
19390.00000 0.969761
19400.00000 0.970429
19410.00000 0.970479
19420.00000 0.970875
19430.00000 0.97137
19440.00000 0.971912
19450.00000 0.972916
19460.00000 0.973855
19470.00000 0.973402
19480.00000 0.973905
19490.00000 0.974065
19500.00000 0.973886
19510.00000 0.973657
19520.00000 0.973878
19530.00000 0.974677
19540.00000 0.975346
19550.00000 0.975076
19560.00000 0.974432
19570.00000 0.973716
19580.00000 0.974405
19590.00000 0.975111
19600.00000 0.975676
19610.00000 0.975602
19620.00000 0.97462
19630.00000 0.973811
19640.00000 0.972335
19650.00000 0.972237
19660.00000 0.970776
19670.00000 0.968263
19680.00000 0.966116
19690.00000 0.965032
19700.00000 0.965321
19710.00000 0.964378
19720.00000 0.962756
19730.00000 0.960985
19740.00000 0.960436
19750.00000 0.958862
19760.00000 0.957027
19770.00000 0.955523
19780.00000 0.95514
19790.00000 0.954306
19800.00000 0.952025
19810.00000 0.950434
19820.00000 0.949824
19830.00000 0.950193
19840.00000 0.951044
19850.00000 0.951194
19860.00000 0.95034
19870.00000 0.949121
19880.00000 0.947488
19890.00000 0.946595
19900.00000 0.946143
19910.00000 0.945388
19920.00000 0.944583
19930.00000 0.942715
19940.00000 0.94138
19950.00000 0.940133
19960.00000 0.93853
19970.00000 0.937569
19980.00000 0.93665
19990.00000 0.934924
20000.00000 0.932815
20010.00000 0.931954
20020.00000 0.931705
20030.00000 0.930471
20040.00000 0.928049
20050.00000 0.92529
20060.00000 0.922638
20070.00000 0.92029
20080.00000 0.916951
20090.00000 0.914596
20100.00000 0.913359
20110.00000 0.912632
20120.00000 0.911178
20130.00000 0.909546
20140.00000 0.908733
20150.00000 0.90884
20160.00000 0.908398
20170.00000 0.907561
20180.00000 0.907758
20190.00000 0.907819
20200.00000 0.908136
20210.00000 0.907746
20220.00000 0.906988
20230.00000 0.906207
20240.00000 0.906119
20250.00000 0.906979
20260.00000 0.907465
20270.00000 0.907244
20280.00000 0.905836
20290.00000 0.905188
20300.00000 0.904662
20310.00000 0.904605
20320.00000 0.903331
20330.00000 0.902453
20340.00000 0.902271
20350.00000 0.902092
20360.00000 0.900746
20370.00000 0.899157
20380.00000 0.897796
20390.00000 0.897047
20400.00000 0.896554
20410.00000 0.895303
20420.00000 0.894003
20430.00000 0.892399
20440.00000 0.891367
20450.00000 0.889893
20460.00000 0.887936
20470.00000 0.886428
20480.00000 0.885273
20490.00000 0.884634
20500.00000 0.884573
20510.00000 0.884546
20520.00000 0.885159
20530.00000 0.886118
20540.00000 0.885828
20550.00000 0.88586
20560.00000 0.885365
20570.00000 0.885771
20580.00000 0.885378
20590.00000 0.886741
20600.00000 0.888962
20610.00000 0.891586
20620.00000 0.893681
20630.00000 0.894922
20640.00000 0.896415
20650.00000 0.898165
20660.00000 0.900596
20670.00000 0.903058
20680.00000 0.905533
20690.00000 0.907758
20700.00000 0.909893
20710.00000 0.911976
20720.00000 0.914663
20730.00000 0.91732
20740.00000 0.919483
20750.00000 0.921482
20760.00000 0.922586
20770.00000 0.92377
20780.00000 0.924108
20790.00000 0.926284
20800.00000 0.928381
20810.00000 0.931047
20820.00000 0.93308
20830.00000 0.934681
20840.00000 0.934218
20850.00000 0.93452
20860.00000 0.935465
20870.00000 0.935909
20880.00000 0.936163
20890.00000 0.936419
20900.00000 0.937283
20910.00000 0.938753
20920.00000 0.939796
20930.00000 0.940398
20940.00000 0.940522
20950.00000 0.941222
20960.00000 0.94319
20970.00000 0.944588
20980.00000 0.944425
20990.00000 0.944588
21000.00000 0.945295
21010.00000 0.947001
21020.00000 0.948537
21030.00000 0.948959
21040.00000 0.949552
21050.00000 0.950139
21060.00000 0.952097
21070.00000 0.952515
21080.00000 0.952033
21090.00000 0.952517
21100.00000 0.953995
21110.00000 0.957045
21120.00000 0.957997
21130.00000 0.958168
21140.00000 0.957642
21150.00000 0.957961
21160.00000 0.957702
21170.00000 0.957487
21180.00000 0.956883
21190.00000 0.956547
21200.00000 0.956823
21210.00000 0.958099
21220.00000 0.958392
21230.00000 0.958761
21240.00000 0.957047
21250.00000 0.957027
21260.00000 0.957238
21270.00000 0.956791
21280.00000 0.95699
21290.00000 0.956934
21300.00000 0.958921
21310.00000 0.95991
21320.00000 0.960133
21330.00000 0.960828
21340.00000 0.961064
21350.00000 0.96149
21360.00000 0.961741
21370.00000 0.962574
21380.00000 0.963399
21390.00000 0.964236
21400.00000 0.96613
21410.00000 0.968594
21420.00000 0.970564
21430.00000 0.970593
21440.00000 0.971241
21450.00000 0.97209
21460.00000 0.973363
21470.00000 0.973569
21480.00000 0.974173
21490.00000 0.975532
21500.00000 0.97568
21510.00000 0.975107
21520.00000 0.974644
21530.00000 0.975762
21540.00000 0.976733
21550.00000 0.975916
21560.00000 0.974198
21570.00000 0.972045
21580.00000 0.970548
21590.00000 0.96924
21600.00000 0.968302
21610.00000 0.966885
21620.00000 0.965064
21630.00000 0.963474
21640.00000 0.961362
21650.00000 0.959219
21660.00000 0.956702
21670.00000 0.954103
21680.00000 0.952095
21690.00000 0.950609
21700.00000 0.949027
21710.00000 0.94754
21720.00000 0.945977
21730.00000 0.945536
21740.00000 0.945604
21750.00000 0.945519
21760.00000 0.944745
21770.00000 0.943907
21780.00000 0.944261
21790.00000 0.944971
21800.00000 0.94483
21810.00000 0.945149
21820.00000 0.945682
21830.00000 0.946588
21840.00000 0.946434
21850.00000 0.946164
21860.00000 0.947246
21870.00000 0.947575
21880.00000 0.947306
21890.00000 0.946253
21900.00000 0.946796
21910.00000 0.948132
21920.00000 0.949184
21930.00000 0.949726
21940.00000 0.950452
21950.00000 0.951001
21960.00000 0.95215
21970.00000 0.95354
21980.00000 0.954572
21990.00000 0.95601
22000.00000 0.956837
22010.00000 0.95803
22020.00000 0.958796
22030.00000 0.960074
22040.00000 0.96169
22050.00000 0.961746
22060.00000 0.960978
22070.00000 0.959099
22080.00000 0.957229
22090.00000 0.954203
22100.00000 0.950188
22110.00000 0.944972
22120.00000 0.93652
22130.00000 0.924728
22140.00000 0.910481
22150.00000 0.893217
22160.00000 0.873101
22170.00000 0.850282
22180.00000 0.823709
22190.00000 0.79358
22200.00000 0.759849
22210.00000 0.723843
22220.00000 0.685232
22230.00000 0.644153
22240.00000 0.599521
22250.00000 0.554273
22260.00000 0.510364
22270.00000 0.469115
22280.00000 0.4304
22290.00000 0.394334
22300.00000 0.360814
22310.00000 0.330052
22320.00000 0.301474
22330.00000 0.275072
22340.00000 0.25019
22350.00000 0.226851
22360.00000 0.205118
22370.00000 0.184742
22380.00000 0.165602
22390.00000 0.147806
22400.00000 0.131512
22410.00000 0.116603
22420.00000 0.103131
22430.00000 0.0909174
22440.00000 0.0798361
22450.00000 0.0699579
22460.00000 0.0611935
22470.00000 0.0534495
22480.00000 0.0466501
22490.00000 0.0406929
22500.00000 0.0354769
22510.00000 0.0309411
22520.00000 0.026988
22530.00000 0.02354
22540.00000 0.0205515
22550.00000 0.0179541
22560.00000 0.0156925
22570.00000 0.0137094
22580.00000 0.0119976
22590.00000 0.0105029
22600.00000 0.00920176
22610.00000 0.00807446
22620.00000 0.00709316
22630.00000 0.00624099
22640.00000 0.00549952
22650.00000 0.00485384
22660.00000 0.00428761
22670.00000 0.003797
22680.00000 0.00336361
22690.00000 0.00298221
22700.00000 0.00264892
22710.00000 0.0023622
22720.00000 0.00211204
22730.00000 0.00189091
22740.00000 0.0016998
22750.00000 0.00153184
22760.00000 0.00138349
22770.00000 0.00125256
22780.00000 0.00113736
22790.00000 0.00103782
25069.00000 0.0
