# %ECSV 0.9
# ---
# datatype:
# - {name: wavelength, unit: Angstrom, datatype: float32}
# - {name: response, datatype: float32}
# meta: !!omap
# - {band_name: F115W}
# - {group_name: NIRISS}
wavelength response
8964.00000 0.0
9960.00000 0.0010672
9970.00000 0.00127165
9980.00000 0.0263153
9990.00000 0.0602442
10000.00000 0.0981521
10010.00000 0.114709
10020.00000 0.127928
10030.00000 0.14181
10040.00000 0.158688
10050.00000 0.176793
10060.00000 0.199343
10070.00000 0.224486
10080.00000 0.254469
10090.00000 0.289874
10100.00000 0.331502
10110.00000 0.37931
10120.00000 0.43034
10130.00000 0.486349
10140.00000 0.543976
10150.00000 0.598875
10160.00000 0.648931
10170.00000 0.689968
10180.00000 0.722872
10190.00000 0.742902
10200.00000 0.753856
10210.00000 0.757076
10220.00000 0.757246
10230.00000 0.756008
10240.00000 0.756458
10250.00000 0.757526
10260.00000 0.757032
10270.00000 0.755205
10280.00000 0.753809
10290.00000 0.752466
10300.00000 0.749951
10310.00000 0.747799
10320.00000 0.747586
10330.00000 0.750061
10340.00000 0.753573
10350.00000 0.76081
10360.00000 0.768199
10370.00000 0.776282
10380.00000 0.782383
10390.00000 0.788887
10400.00000 0.793293
10410.00000 0.795502
10420.00000 0.79511
10430.00000 0.795209
10440.00000 0.796076
10450.00000 0.797181
10460.00000 0.797375
10470.00000 0.795795
10480.00000 0.796222
10490.00000 0.796831
10500.00000 0.796935
10510.00000 0.795913
10520.00000 0.796447
10530.00000 0.799371
10540.00000 0.804749
10550.00000 0.810252
10560.00000 0.8168
10570.00000 0.820641
10580.00000 0.822925
10590.00000 0.822412
10600.00000 0.820484
10610.00000 0.818158
10620.00000 0.81566
10630.00000 0.811309
10640.00000 0.806579
10650.00000 0.800088
10660.00000 0.795273
10670.00000 0.788429
10680.00000 0.782904
10690.00000 0.775015
10700.00000 0.768006
10710.00000 0.761105
10720.00000 0.754951
10730.00000 0.750464
10740.00000 0.74609
10750.00000 0.742074
10760.00000 0.739659
10770.00000 0.735583
10780.00000 0.732103
10790.00000 0.725858
10800.00000 0.721926
10810.00000 0.718633
10820.00000 0.716337
10830.00000 0.715535
10840.00000 0.715541
10850.00000 0.719325
10860.00000 0.72297
10870.00000 0.728021
10880.00000 0.733093
10890.00000 0.737604
10900.00000 0.742274
10910.00000 0.745351
10920.00000 0.752303
10930.00000 0.758476
10940.00000 0.767038
10950.00000 0.772549
10960.00000 0.776779
10970.00000 0.780271
10980.00000 0.782377
10990.00000 0.785545
11000.00000 0.788498
11010.00000 0.791865
11020.00000 0.794865
11030.00000 0.795546
11040.00000 0.797035
11050.00000 0.798083
11060.00000 0.800674
11070.00000 0.801599
11080.00000 0.803028
11090.00000 0.803194
11100.00000 0.802751
11110.00000 0.801274
11120.00000 0.800026
11130.00000 0.800895
11140.00000 0.798429
11150.00000 0.795407
11160.00000 0.790514
11170.00000 0.784228
11180.00000 0.77937
11190.00000 0.774585
11200.00000 0.773271
11210.00000 0.770887
11220.00000 0.767732
11230.00000 0.76792
11240.00000 0.768283
11250.00000 0.771399
11260.00000 0.773168
11270.00000 0.775889
11280.00000 0.778978
11290.00000 0.7803
11300.00000 0.782672
11310.00000 0.785377
11320.00000 0.791273
11330.00000 0.795107
11340.00000 0.7986
11350.00000 0.800925
11360.00000 0.803134
11370.00000 0.803727
11380.00000 0.804055
11390.00000 0.805654
11400.00000 0.807249
11410.00000 0.80898
11420.00000 0.810478
11430.00000 0.812599
11440.00000 0.815931
11450.00000 0.817503
11460.00000 0.824899
11470.00000 0.827821
11480.00000 0.83122
11490.00000 0.833389
11500.00000 0.837815
11510.00000 0.842559
11520.00000 0.84361
11530.00000 0.848708
11540.00000 0.853436
11550.00000 0.859595
11560.00000 0.861309
11570.00000 0.865903
11580.00000 0.869513
11590.00000 0.872131
11600.00000 0.87423
11610.00000 0.876238
11620.00000 0.87888
11630.00000 0.881289
11640.00000 0.883657
11650.00000 0.886213
11660.00000 0.88851
11670.00000 0.890384
11680.00000 0.893465
11690.00000 0.898374
11700.00000 0.902245
11710.00000 0.904919
11720.00000 0.905038
11730.00000 0.905365
11740.00000 0.90627
11750.00000 0.907714
11760.00000 0.909434
11770.00000 0.909374
11780.00000 0.908674
11790.00000 0.907237
11800.00000 0.906045
11810.00000 0.906576
11820.00000 0.903448
11830.00000 0.905012
11840.00000 0.902361
11850.00000 0.901248
11860.00000 0.895136
11870.00000 0.892188
11880.00000 0.891358
11890.00000 0.891823
11900.00000 0.89021
11910.00000 0.888494
11920.00000 0.886396
11930.00000 0.886692
11940.00000 0.885515
11950.00000 0.884846
11960.00000 0.883099
11970.00000 0.879944
11980.00000 0.877645
11990.00000 0.875844
12000.00000 0.877582
12010.00000 0.876579
12020.00000 0.87601
12030.00000 0.874464
12040.00000 0.873119
12050.00000 0.8723
12060.00000 0.869769
12070.00000 0.86753
12080.00000 0.86457
12090.00000 0.863093
12100.00000 0.862547
12110.00000 0.861326
12120.00000 0.860976
12130.00000 0.859802
12140.00000 0.859767
12150.00000 0.858696
12160.00000 0.858237
12170.00000 0.860368
12180.00000 0.862297
12190.00000 0.865055
12200.00000 0.865158
12210.00000 0.867501
12220.00000 0.870701
12230.00000 0.87556
12240.00000 0.878765
12250.00000 0.885962
12260.00000 0.891109
12270.00000 0.898079
12280.00000 0.900966
12290.00000 0.905146
12300.00000 0.909195
12310.00000 0.910519
12320.00000 0.91135
12330.00000 0.909716
12340.00000 0.91001
12350.00000 0.908934
12360.00000 0.911042
12370.00000 0.911121
12380.00000 0.908541
12390.00000 0.906559
12400.00000 0.906858
12410.00000 0.910478
12420.00000 0.913586
12430.00000 0.916718
12440.00000 0.918621
12450.00000 0.920579
12460.00000 0.922025
12470.00000 0.925734
12480.00000 0.92796
12490.00000 0.931502
12500.00000 0.934612
12510.00000 0.938828
12520.00000 0.941679
12530.00000 0.945188
12540.00000 0.948273
12550.00000 0.950453
12560.00000 0.950588
12570.00000 0.950203
12580.00000 0.949232
12590.00000 0.948758
12600.00000 0.945681
12610.00000 0.946026
12620.00000 0.948697
12630.00000 0.950894
12640.00000 0.950108
12650.00000 0.946901
12660.00000 0.945739
12670.00000 0.949254
12680.00000 0.952806
12690.00000 0.954396
12700.00000 0.951238
12710.00000 0.948332
12720.00000 0.944174
12730.00000 0.937123
12740.00000 0.927051
12750.00000 0.910428
12760.00000 0.884068
12770.00000 0.846005
12780.00000 0.797063
12790.00000 0.742052
12800.00000 0.678107
12810.00000 0.610016
12820.00000 0.536365
12830.00000 0.466421
12840.00000 0.39997
12850.00000 0.341261
12860.00000 0.288556
12870.00000 0.245242
12880.00000 0.20894
12890.00000 0.179066
12900.00000 0.154499
12910.00000 0.134416
12920.00000 0.117501
12930.00000 0.103467
12940.00000 0.0916517
12950.00000 0.081347
12960.00000 0.0716417
12970.00000 0.0622987
12980.00000 0.0532602
12990.00000 0.0443938
13000.00000 0.036124
13010.00000 0.0290998
13020.00000 0.0233405
13030.00000 0.0187099
13040.00000 0.015081
13050.00000 0.0121277
13060.00000 0.00976181
13070.00000 0.00788366
13080.00000 0.00641619
13090.00000 0.00526985
13100.00000 0.00435126
13110.00000 0.00361598
13120.00000 0.00300117
13130.00000 0.00251749
13140.00000 0.00211311
13150.00000 0.00178485
13160.00000 0.00150384
13170.00000 0.00127837
13180.00000 0.00109034
14498.00000 0.0
