# %ECSV 0.9
# ---
# datatype:
# - {name: wavelength, unit: Angstrom, datatype: float32}
# - {name: response, datatype: float32}
# meta: !!omap
# - {band_name: Sloan_g}
# - {group_name: WiFSIP}
wavelength response
3276.00000 0.0
3640.00000 5.6e-05
3645.00000 6.1e-05
3650.00000 5.5e-05
3655.00000 4.7e-05
3660.00000 5.2e-05
3665.00000 4e-05
3670.00000 5.8e-05
3675.00000 5.3e-05
3680.00000 6.1e-05
3685.00000 5e-05
3690.00000 6.7e-05
3695.00000 6e-05
3700.00000 4.8e-05
3705.00000 6.3e-05
3710.00000 6.3e-05
3715.00000 6e-05
3720.00000 5.2e-05
3725.00000 5.9e-05
3730.00000 5.1e-05
3735.00000 5.2e-05
3740.00000 5.8e-05
3745.00000 6e-05
3750.00000 5.2e-05
3755.00000 4.5e-05
3760.00000 5.1e-05
3765.00000 6.5e-05
3770.00000 6.6e-05
3775.00000 6.1e-05
3780.00000 4.3e-05
3785.00000 5.8e-05
3790.00000 5.4e-05
3795.00000 6.2e-05
3800.00000 5.8e-05
3805.00000 6.4e-05
3810.00000 6.5e-05
3815.00000 5e-05
3820.00000 8.6e-05
3825.00000 7.5e-05
3830.00000 9.8e-05
3835.00000 0.000117
3840.00000 0.000176
3845.00000 0.00026
3850.00000 0.000407
3855.00000 0.000657
3860.00000 0.0011
3865.00000 0.001781
3870.00000 0.002866
3875.00000 0.004587
3880.00000 0.00712
3885.00000 0.01078
3890.00000 0.015994
3895.00000 0.023051
3900.00000 0.032511
3905.00000 0.044368
3910.00000 0.059028
3915.00000 0.076829
3920.00000 0.097389
3925.00000 0.12187
3930.00000 0.150151
3935.00000 0.181706
3940.00000 0.217396
3945.00000 0.255781
3950.00000 0.296686
3955.00000 0.340163
3960.00000 0.382956
3965.00000 0.425845
3970.00000 0.467353
3975.00000 0.505083
3980.00000 0.54007
3985.00000 0.571203
3990.00000 0.59963
3995.00000 0.625419
4000.00000 0.648658
4005.00000 0.670406
4010.00000 0.691326
4015.00000 0.71035
4020.00000 0.727888
4025.00000 0.744113
4030.00000 0.757883
4035.00000 0.769157
4040.00000 0.777372
4045.00000 0.782707
4050.00000 0.78622
4055.00000 0.787905
4060.00000 0.788541
4065.00000 0.789
4070.00000 0.790422
4075.00000 0.793025
4080.00000 0.797209
4085.00000 0.80248
4090.00000 0.809895
4095.00000 0.817787
4100.00000 0.826635
4105.00000 0.835094
4110.00000 0.842445
4115.00000 0.848878
4120.00000 0.8531
4125.00000 0.855817
4130.00000 0.857111
4135.00000 0.85714
4140.00000 0.856346
4145.00000 0.855468
4150.00000 0.855444
4155.00000 0.855738
4160.00000 0.857449
4165.00000 0.860455
4170.00000 0.863966
4175.00000 0.868328
4180.00000 0.872847
4185.00000 0.876657
4190.00000 0.879285
4195.00000 0.880673
4200.00000 0.880269
4205.00000 0.877786
4210.00000 0.873664
4215.00000 0.868133
4220.00000 0.861464
4225.00000 0.854852
4230.00000 0.849189
4235.00000 0.844049
4240.00000 0.840498
4245.00000 0.839033
4250.00000 0.839774
4255.00000 0.842379
4260.00000 0.846861
4265.00000 0.853136
4270.00000 0.860557
4275.00000 0.868499
4280.00000 0.876257
4285.00000 0.883627
4290.00000 0.890069
4295.00000 0.895004
4300.00000 0.898127
4305.00000 0.899776
4310.00000 0.90013
4315.00000 0.899064
4320.00000 0.89696
4325.00000 0.894858
4330.00000 0.892378
4335.00000 0.890409
4340.00000 0.88932
4345.00000 0.888768
4350.00000 0.889616
4355.00000 0.890906
4360.00000 0.893758
4365.00000 0.896697
4370.00000 0.89969
4375.00000 0.902721
4380.00000 0.905403
4385.00000 0.90714
4390.00000 0.907771
4395.00000 0.907232
4400.00000 0.905727
4405.00000 0.903168
4410.00000 0.899355
4415.00000 0.894991
4420.00000 0.890441
4425.00000 0.885878
4430.00000 0.881677
4435.00000 0.878125
4440.00000 0.875517
4445.00000 0.874242
4450.00000 0.873872
4455.00000 0.874967
4460.00000 0.876905
4465.00000 0.880014
4470.00000 0.884198
4475.00000 0.888765
4480.00000 0.893855
4485.00000 0.899128
4490.00000 0.903918
4495.00000 0.908336
4500.00000 0.912183
4505.00000 0.915534
4510.00000 0.917955
4515.00000 0.919432
4520.00000 0.920278
4525.00000 0.92058
4530.00000 0.919882
4535.00000 0.919161
4540.00000 0.917943
4545.00000 0.917032
4550.00000 0.915859
4555.00000 0.915056
4560.00000 0.914426
4565.00000 0.914271
4570.00000 0.9142
4575.00000 0.914728
4580.00000 0.915546
4585.00000 0.916468
4590.00000 0.917329
4595.00000 0.918679
4600.00000 0.919612
4605.00000 0.920537
4610.00000 0.921208
4615.00000 0.921983
4620.00000 0.922538
4625.00000 0.922618
4630.00000 0.923095
4635.00000 0.923127
4640.00000 0.923235
4645.00000 0.923206
4650.00000 0.923373
4655.00000 0.9234
4660.00000 0.923849
4665.00000 0.924385
4670.00000 0.925302
4675.00000 0.925959
4680.00000 0.92686
4685.00000 0.927672
4690.00000 0.928859
4695.00000 0.929538
4700.00000 0.930414
4705.00000 0.930883
4710.00000 0.931166
4715.00000 0.93131
4720.00000 0.93079
4725.00000 0.93039
4730.00000 0.92943
4735.00000 0.928125
4740.00000 0.9268
4745.00000 0.924916
4750.00000 0.923332
4755.00000 0.921739
4760.00000 0.920072
4765.00000 0.918539
4770.00000 0.917502
4775.00000 0.916298
4780.00000 0.915904
4785.00000 0.915456
4790.00000 0.91593
4795.00000 0.916178
4800.00000 0.917216
4805.00000 0.918571
4810.00000 0.920265
4815.00000 0.921818
4820.00000 0.924006
4825.00000 0.926069
4830.00000 0.928329
4835.00000 0.93044
4840.00000 0.932343
4845.00000 0.934088
4850.00000 0.935679
4855.00000 0.93699
4860.00000 0.938001
4865.00000 0.938877
4870.00000 0.93918
4875.00000 0.939121
4880.00000 0.938959
4885.00000 0.938541
4890.00000 0.937885
4895.00000 0.9375
4900.00000 0.936244
4905.00000 0.93547
4910.00000 0.934576
4915.00000 0.93377
4920.00000 0.933167
4925.00000 0.932632
4930.00000 0.932097
4935.00000 0.931983
4940.00000 0.932025
4945.00000 0.932141
4950.00000 0.932776
4955.00000 0.933391
4960.00000 0.934314
4965.00000 0.934966
4970.00000 0.936159
4975.00000 0.937664
4980.00000 0.938514
4985.00000 0.939934
4990.00000 0.941129
4995.00000 0.942444
5000.00000 0.943733
5005.00000 0.944706
5010.00000 0.945453
5015.00000 0.946251
5020.00000 0.946858
5025.00000 0.94733
5030.00000 0.947536
5035.00000 0.947809
5040.00000 0.947932
5045.00000 0.947399
5050.00000 0.947002
5055.00000 0.946838
5060.00000 0.946231
5065.00000 0.945891
5070.00000 0.945171
5075.00000 0.94473
5080.00000 0.944152
5085.00000 0.943701
5090.00000 0.943264
5095.00000 0.942817
5100.00000 0.942601
5105.00000 0.942566
5110.00000 0.942141
5115.00000 0.942484
5120.00000 0.942465
5125.00000 0.942436
5130.00000 0.942748
5135.00000 0.943257
5140.00000 0.943246
5145.00000 0.943594
5150.00000 0.943751
5155.00000 0.943999
5160.00000 0.944085
5165.00000 0.943763
5170.00000 0.943637
5175.00000 0.943148
5180.00000 0.942675
5185.00000 0.941918
5190.00000 0.940877
5195.00000 0.939858
5200.00000 0.938689
5205.00000 0.937035
5210.00000 0.935623
5215.00000 0.934212
5220.00000 0.932102
5225.00000 0.930266
5230.00000 0.928487
5235.00000 0.926576
5240.00000 0.925011
5245.00000 0.923308
5250.00000 0.92155
5255.00000 0.920525
5260.00000 0.919191
5265.00000 0.918482
5270.00000 0.917446
5275.00000 0.917085
5280.00000 0.916961
5285.00000 0.91698
5290.00000 0.916876
5295.00000 0.917157
5300.00000 0.91785
5305.00000 0.918669
5310.00000 0.919379
5315.00000 0.920137
5320.00000 0.920884
5325.00000 0.921789
5330.00000 0.92244
5335.00000 0.9235
5340.00000 0.923511
5345.00000 0.923766
5350.00000 0.92414
5355.00000 0.924276
5360.00000 0.923902
5365.00000 0.923218
5370.00000 0.922758
5375.00000 0.921857
5380.00000 0.920531
5385.00000 0.919218
5390.00000 0.917706
5395.00000 0.91563
5400.00000 0.913089
5405.00000 0.910169
5410.00000 0.906741
5415.00000 0.901915
5420.00000 0.896278
5425.00000 0.889017
5430.00000 0.879986
5435.00000 0.868248
5440.00000 0.853403
5445.00000 0.835708
5450.00000 0.813741
5455.00000 0.787996
5460.00000 0.757782
5465.00000 0.722995
5470.00000 0.684313
5475.00000 0.642421
5480.00000 0.597248
5485.00000 0.550865
5490.00000 0.503122
5495.00000 0.455507
5500.00000 0.409341
5505.00000 0.365148
5510.00000 0.323446
5515.00000 0.285459
5520.00000 0.249799
5525.00000 0.218414
5530.00000 0.189896
5535.00000 0.164588
5540.00000 0.142771
5545.00000 0.124005
5550.00000 0.107247
5555.00000 0.093104
5560.00000 0.080449
5565.00000 0.069864
5570.00000 0.060538
5575.00000 0.052596
5580.00000 0.045836
5585.00000 0.039891
5590.00000 0.034715
5595.00000 0.030377
5600.00000 0.026547
5605.00000 0.0233
5610.00000 0.020452
5615.00000 0.017951
5620.00000 0.015821
5625.00000 0.013941
5630.00000 0.012269
5635.00000 0.010881
5640.00000 0.009648
5645.00000 0.00856
5650.00000 0.007631
5655.00000 0.006785
5660.00000 0.006056
5665.00000 0.005409
5670.00000 0.004839
5675.00000 0.004349
5680.00000 0.003902
5685.00000 0.003529
5690.00000 0.003175
5695.00000 0.002872
5700.00000 0.002618
5705.00000 0.002362
5710.00000 0.002163
5715.00000 0.001966
5720.00000 0.001781
5725.00000 0.001622
5730.00000 0.001494
5735.00000 0.001377
5740.00000 0.001259
5745.00000 0.001157
5750.00000 0.001066
5755.00000 0.000995
5760.00000 0.000914
5765.00000 0.000846
5770.00000 0.000796
5775.00000 0.000716
5780.00000 0.000692
5785.00000 0.000652
5790.00000 0.000589
5795.00000 0.000566
5800.00000 0.000533
5805.00000 0.00049
5810.00000 0.000463
5815.00000 0.000433
5820.00000 0.000408
5825.00000 0.000375
5830.00000 0.000366
5835.00000 0.00034
5840.00000 0.000329
5845.00000 0.0003
5850.00000 0.000288
5855.00000 0.000269
5860.00000 0.000266
5865.00000 0.000243
5870.00000 0.000231
5875.00000 0.000216
5880.00000 0.000211
5885.00000 0.000209
5890.00000 0.000185
5895.00000 0.000184
5900.00000 0.000175
5905.00000 0.000158
5910.00000 0.000155
5915.00000 0.000149
5920.00000 0.000141
5925.00000 0.000131
5930.00000 0.000126
5935.00000 0.000127
5940.00000 0.000112
5945.00000 9.8e-05
5950.00000 9.6e-05
5955.00000 8.6e-05
5960.00000 0.000105
5965.00000 8.3e-05
5970.00000 8e-05
5975.00000 7.6e-05
5980.00000 6.5e-05
5985.00000 7.9e-05
5990.00000 6.6e-05
5995.00000 6e-05
6000.00000 5.5e-05
6005.00000 6.3e-05
6010.00000 3.7e-05
6611.00000 0.0
