# %ECSV 0.9
# ---
# datatype:
# - {name: wavelength, unit: Angstrom, datatype: float32}
# - {name: response, datatype: float32}
# meta: !!omap
# - {band_name: R}
# - {group_name: SCORPIO}
wavelength response
5049.00000 0.0
5610.00000 0.05708
5620.00000 0.1017
5630.00000 0.1463
5640.00000 0.19081
5650.00000 0.2353
5660.00000 0.27971
5670.00000 0.32402
5680.00000 0.36832
5690.00000 0.41253
5700.00000 0.45672
5710.00000 0.46356
5720.00000 0.4704
5730.00000 0.47717
5740.00000 0.484
5750.00000 0.49076
5760.00000 0.49752
5770.00000 0.50435
5780.00000 0.5111
5790.00000 0.51785
5800.00000 0.5246
5810.00000 0.52565
5820.00000 0.5267
5830.00000 0.52775
5840.00000 0.5288
5850.00000 0.52985
5860.00000 0.5309
5870.00000 0.53195
5880.00000 0.53299
5890.00000 0.53404
5900.00000 0.53509
5910.00000 0.53513
5920.00000 0.53524
5930.00000 0.53535
5940.00000 0.53546
5950.00000 0.5355
5960.00000 0.53561
5970.00000 0.53573
5980.00000 0.53577
5990.00000 0.53588
6000.00000 0.53592
6010.00000 0.53494
6020.00000 0.53388
6030.00000 0.53284
6040.00000 0.53179
6050.00000 0.53074
6060.00000 0.52969
6070.00000 0.52858
6080.00000 0.52753
6090.00000 0.52649
6100.00000 0.52545
6110.00000 0.52426
6120.00000 0.52308
6130.00000 0.52183
6140.00000 0.52065
6150.00000 0.51947
6160.00000 0.51829
6170.00000 0.51705
6180.00000 0.51587
6190.00000 0.5147
6200.00000 0.51346
6210.00000 0.51186
6220.00000 0.5102
6230.00000 0.50854
6240.00000 0.50695
6250.00000 0.5053
6260.00000 0.50372
6270.00000 0.50207
6280.00000 0.50042
6290.00000 0.49884
6300.00000 0.4972
6310.00000 0.49555
6320.00000 0.49391
6330.00000 0.49235
6340.00000 0.49071
6350.00000 0.48908
6360.00000 0.48744
6370.00000 0.48589
6380.00000 0.48426
6390.00000 0.48263
6400.00000 0.48101
6410.00000 0.47918
6420.00000 0.47736
6430.00000 0.47553
6440.00000 0.47364
6450.00000 0.47183
6460.00000 0.47001
6470.00000 0.4682
6480.00000 0.46639
6490.00000 0.46458
6500.00000 0.46271
6510.00000 0.45978
6520.00000 0.4568
6530.00000 0.4539
6540.00000 0.45094
6550.00000 0.44805
6560.00000 0.44511
6570.00000 0.44224
6580.00000 0.43932
6590.00000 0.43647
6600.00000 0.43357
6610.00000 0.43054
6620.00000 0.42752
6630.00000 0.42458
6640.00000 0.42158
6650.00000 0.41859
6660.00000 0.41562
6670.00000 0.41265
6680.00000 0.40969
6690.00000 0.40675
6700.00000 0.40381
6710.00000 0.40089
6720.00000 0.39791
6730.00000 0.39494
6740.00000 0.39199
6750.00000 0.3891
6760.00000 0.38617
6770.00000 0.38324
6780.00000 0.38039
6790.00000 0.37749
6800.00000 0.3746
6810.00000 0.37209
6820.00000 0.36959
6830.00000 0.36704
6840.00000 0.36456
6850.00000 0.36208
6860.00000 0.35962
6870.00000 0.3571
6880.00000 0.35465
6890.00000 0.35221
6900.00000 0.34978
6910.00000 0.3473
6920.00000 0.34477
6930.00000 0.3423
6940.00000 0.33984
6950.00000 0.3374
6960.00000 0.33496
6970.00000 0.33253
6980.00000 0.33011
6990.00000 0.32769
7000.00000 0.32529
7010.00000 0.32143
7020.00000 0.31753
7030.00000 0.31371
7040.00000 0.30985
7050.00000 0.30606
7060.00000 0.30224
7070.00000 0.29849
7080.00000 0.29476
7090.00000 0.29099
7100.00000 0.2873
7110.00000 0.28357
7120.00000 0.27991
7130.00000 0.27627
7140.00000 0.2726
7150.00000 0.26899
7160.00000 0.26541
7170.00000 0.26179
7180.00000 0.25824
7190.00000 0.25471
7200.00000 0.2512
7210.00000 0.2482
7220.00000 0.24527
7230.00000 0.24235
7240.00000 0.2394
7250.00000 0.23651
7260.00000 0.23364
7270.00000 0.23078
7280.00000 0.22788
7290.00000 0.22505
7300.00000 0.22223
7310.00000 0.21938
7320.00000 0.21654
7330.00000 0.21377
7340.00000 0.21096
7350.00000 0.20816
7360.00000 0.20544
7370.00000 0.20267
7560.00000 0.16541
7570.00000 0.1617
7580.00000 0.15798
7590.00000 0.15428
7600.00000 0.15061
7610.00000 0.14846
7620.00000 0.14638
7630.00000 0.1443
7640.00000 0.14219
7650.00000 0.14014
7660.00000 0.13811
7670.00000 0.13604
7680.00000 0.13403
7690.00000 0.13203
7700.00000 0.13004
7710.00000 0.12802
7720.00000 0.12606
7730.00000 0.12412
7740.00000 0.12218
7750.00000 0.12026
7760.00000 0.1183
7770.00000 0.1164
7780.00000 0.11452
7790.00000 0.11265
7800.00000 0.11078
7810.00000 0.10915
7820.00000 0.10753
7830.00000 0.10592
7840.00000 0.10431
7850.00000 0.10272
7860.00000 0.10114
7870.00000 0.09957
7880.00000 0.09801
7890.00000 0.09646
7900.00000 0.09492
7910.00000 0.09339
7920.00000 0.09191
7930.00000 0.09041
7940.00000 0.08895
7950.00000 0.08746
7960.00000 0.08603
7970.00000 0.08456
7980.00000 0.08314
7990.00000 0.0817
8000.00000 0.0803
8010.00000 0.07926
8020.00000 0.07825
8030.00000 0.07725
8040.00000 0.07626
8050.00000 0.07523
8060.00000 0.07424
8070.00000 0.07326
8080.00000 0.07224
8090.00000 0.07127
8100.00000 0.0703
8110.00000 0.06933
8120.00000 0.06833
8130.00000 0.06737
8140.00000 0.06641
8150.00000 0.06546
8160.00000 0.06451
8170.00000 0.06353
8180.00000 0.06259
8190.00000 0.06165
8200.00000 0.06072
8210.00000 0.05979
8220.00000 0.05883
8230.00000 0.05791
8240.00000 0.05699
8250.00000 0.05608
8260.00000 0.05517
8270.00000 0.05426
8280.00000 0.05332
8290.00000 0.05243
8300.00000 0.05153
8310.00000 0.05064
8320.00000 0.04976
8330.00000 0.04888
8340.00000 0.048
8350.00000 0.04712
8360.00000 0.04625
8370.00000 0.04535
8380.00000 0.04449
8390.00000 0.04363
8400.00000 0.04277
8410.00000 0.0422
8420.00000 0.04164
8430.00000 0.04107
8440.00000 0.04047
8450.00000 0.03991
8460.00000 0.03936
8470.00000 0.0388
8480.00000 0.03825
8490.00000 0.0377
8500.00000 0.03715
8510.00000 0.03647
8520.00000 0.03582
8530.00000 0.03518
8540.00000 0.03454
8550.00000 0.03391
8560.00000 0.03328
8570.00000 0.03266
8580.00000 0.03201
8590.00000 0.0314
8600.00000 0.03079
8610.00000 0.03019
8620.00000 0.02959
8630.00000 0.029
8640.00000 0.02841
8650.00000 0.02783
8660.00000 0.02726
8670.00000 0.02668
8680.00000 0.02609
8690.00000 0.02552
8700.00000 0.02497
8710.00000 0.02442
8720.00000 0.02387
8730.00000 0.02333
8740.00000 0.02279
8750.00000 0.02226
8760.00000 0.02173
8770.00000 0.02121
8780.00000 0.02069
8790.00000 0.02018
8800.00000 0.01968
8810.00000 0.01932
8820.00000 0.01896
8830.00000 0.01863
8840.00000 0.01828
8850.00000 0.01796
8860.00000 0.01762
8870.00000 0.01728
8880.00000 0.01697
8890.00000 0.01663
8900.00000 0.0163
8910.00000 0.016
8920.00000 0.01567
8930.00000 0.01535
8940.00000 0.01505
8950.00000 0.01473
8960.00000 0.01445
8970.00000 0.01413
8980.00000 0.01383
8990.00000 0.01355
9000.00000 0.01324
9010.00000 0.01294
9020.00000 0.01261
9030.00000 0.01229
9040.00000 0.012
9050.00000 0.01169
9060.00000 0.0114
9070.00000 0.01109
9080.00000 0.01079
9090.00000 0.01052
9100.00000 0.01022
9110.00000 0.00995
9120.00000 0.00967
9130.00000 0.00941
9140.00000 0.00913
9150.00000 0.00887
9160.00000 0.0086
9170.00000 0.00834
9180.00000 0.00809
9190.00000 0.00783
9200.00000 0.0076
9210.00000 0.00743
9220.00000 0.00727
9230.00000 0.00712
9240.00000 0.00695
9250.00000 0.00681
9260.00000 0.00666
9270.00000 0.0065
9280.00000 0.00636
9290.00000 0.00622
9300.00000 0.00606
9310.00000 0.00592
9320.00000 0.00578
9330.00000 0.00563
9340.00000 0.0055
9350.00000 0.00537
9360.00000 0.00522
9370.00000 0.00509
9380.00000 0.00497
9390.00000 0.00483
9400.00000 0.0047
9410.00000 0.00458
9420.00000 0.00444
9430.00000 0.00433
9440.00000 0.00421
9450.00000 0.00408
10395.00000 0.0
