# %ECSV 0.9
# ---
# datatype:
# - {name: wavelength, unit: Angstrom, datatype: float32}
# - {name: response, datatype: float32}
# meta: !!omap
# - {band_name: S7}
# - {group_name: IRC}
wavelength response
46368.00000 0.0
51520.00000 2.5565e-05
51545.00000 0.00013844
51571.00000 7.8121e-05
51597.00000 2.9883e-05
51622.00000 0.00016416
51648.00000 0.00018988
51674.00000 0.00016111
51699.00000 9.5206e-06
51725.00000 0.00012884
51751.00000 6.4125e-05
51777.00000 7.4051e-05
51803.00000 0.00012735
51829.00000 0.0001037
51855.00000 0.00019138
51881.00000 0.0002749
51906.00000 8.0419e-05
51932.00000 7.6177e-05
51959.00000 0.00023734
51985.00000 9.4426e-05
52011.00000 9.1124e-05
52037.00000 0.00027523
52063.00000 0.00024634
52089.00000 0.00010949
52115.00000 0.00011642
52141.00000 0.0002637
52168.00000 0.00029217
52194.00000 0.00019659
52220.00000 0.00019378
52246.00000 0.00012416
52273.00000 0.00017479
52299.00000 0.0003057
52326.00000 0.00028876
52352.00000 0.00015385
52378.00000 0.00017872
52405.00000 0.00034778
52431.00000 0.00037953
52458.00000 0.00014088
52484.00000 0.00016318
52511.00000 0.00031277
52538.00000 0.00026354
52564.00000 0.00030653
52591.00000 0.00041845
52618.00000 0.00040184
52644.00000 0.00035325
52671.00000 0.00041686
52698.00000 0.00036097
52725.00000 0.00029595
52751.00000 0.00040489
52778.00000 0.00045402
52805.00000 0.00048986
52832.00000 0.00057151
52859.00000 0.00063299
52886.00000 0.00053019
52913.00000 0.00049422
52940.00000 0.00068176
52967.00000 0.00066284
52994.00000 0.00061479
53021.00000 0.00071437
53048.00000 0.00062765
53075.00000 0.00078581
53102.00000 0.00093067
53130.00000 0.00079863
53157.00000 0.00085492
53184.00000 0.00090845
53211.00000 0.00092376
53239.00000 0.00088335
53266.00000 0.00092326
53294.00000 0.00098124
53321.00000 0.00093552
53348.00000 0.0010062
53376.00000 0.00097803
53403.00000 0.0010464
53431.00000 0.0012786
53458.00000 0.0012357
53486.00000 0.0012789
53514.00000 0.0013427
53541.00000 0.0012436
53569.00000 0.0013905
53596.00000 0.0014924
53624.00000 0.0013828
53652.00000 0.0015427
53680.00000 0.0017035
53707.00000 0.0017448
53735.00000 0.0018993
53763.00000 0.0017958
53791.00000 0.0017352
53819.00000 0.0019408
53847.00000 0.0019138
53875.00000 0.0019952
53903.00000 0.002188
53931.00000 0.0020042
53959.00000 0.0019421
53987.00000 0.0023052
54015.00000 0.00244
54043.00000 0.0022892
54072.00000 0.0023859
54100.00000 0.0024981
54128.00000 0.0025039
54156.00000 0.0027504
54185.00000 0.0028144
54213.00000 0.0025825
54241.00000 0.0028353
54270.00000 0.0032106
54298.00000 0.0029535
54326.00000 0.002934
54355.00000 0.0032906
54383.00000 0.0032627
54412.00000 0.0034312
54441.00000 0.003787
54469.00000 0.0036537
54498.00000 0.0036106
54526.00000 0.0039422
54555.00000 0.0040639
54584.00000 0.003955
54613.00000 0.0040968
54641.00000 0.0042754
54670.00000 0.0045113
54699.00000 0.0049853
54728.00000 0.0050055
54757.00000 0.004988
54786.00000 0.0054325
54815.00000 0.0056086
54844.00000 0.0056344
54873.00000 0.0058477
54902.00000 0.0061
54931.00000 0.0063034
54960.00000 0.0064594
54989.00000 0.0066876
55018.00000 0.0068734
55047.00000 0.007245
55077.00000 0.0078691
55106.00000 0.0082172
55135.00000 0.008452
55164.00000 0.008788
55194.00000 0.0091378
55223.00000 0.0097484
55253.00000 0.010343
55282.00000 0.010759
55312.00000 0.011303
55341.00000 0.011929
55371.00000 0.012686
55400.00000 0.013532
55430.00000 0.014307
55459.00000 0.015026
55489.00000 0.015996
55519.00000 0.017348
55549.00000 0.018384
55578.00000 0.01917
55608.00000 0.020482
55638.00000 0.021865
55668.00000 0.02315
55698.00000 0.025069
55728.00000 0.0271
55758.00000 0.02884
55788.00000 0.030782
55818.00000 0.032934
55848.00000 0.035382
55878.00000 0.038395
55908.00000 0.041502
55938.00000 0.044304
55968.00000 0.047654
55998.00000 0.051622
56029.00000 0.05559
56059.00000 0.05992
56089.00000 0.064691
56120.00000 0.069846
56150.00000 0.075092
56180.00000 0.080835
56211.00000 0.087396
56241.00000 0.093937
56272.00000 0.10091
56302.00000 0.10856
56333.00000 0.11652
56364.00000 0.12481
56394.00000 0.13353
56425.00000 0.14267
56456.00000 0.15194
56486.00000 0.16172
56517.00000 0.17174
56548.00000 0.18169
56579.00000 0.19194
56610.00000 0.20195
56641.00000 0.21167
56672.00000 0.22191
56703.00000 0.23185
56734.00000 0.2413
56765.00000 0.25129
56796.00000 0.26051
56827.00000 0.26834
56858.00000 0.27624
56889.00000 0.2842
56921.00000 0.29142
56952.00000 0.29797
56983.00000 0.30392
57014.00000 0.30947
57046.00000 0.3144
57077.00000 0.31857
57109.00000 0.32236
57140.00000 0.32544
57172.00000 0.32771
57203.00000 0.33017
57235.00000 0.33274
57266.00000 0.33534
57298.00000 0.3377
57330.00000 0.33898
57361.00000 0.34031
57393.00000 0.34127
57425.00000 0.34107
57457.00000 0.34178
57488.00000 0.34291
57520.00000 0.3431
57552.00000 0.34356
57584.00000 0.34374
57616.00000 0.34359
57648.00000 0.34345
57680.00000 0.34304
57712.00000 0.34352
57745.00000 0.34374
57777.00000 0.34311
57809.00000 0.34325
57841.00000 0.34338
57873.00000 0.34341
57906.00000 0.34392
57938.00000 0.34429
57970.00000 0.34477
58003.00000 0.34505
58035.00000 0.34506
58068.00000 0.34559
58100.00000 0.34628
58133.00000 0.34704
58166.00000 0.3483
58198.00000 0.34953
58231.00000 0.3507
58264.00000 0.3518
58296.00000 0.35265
58329.00000 0.35405
58362.00000 0.35595
58395.00000 0.35763
58428.00000 0.35935
58461.00000 0.36107
58494.00000 0.36272
58527.00000 0.36484
58560.00000 0.36717
58593.00000 0.36882
58626.00000 0.37054
58659.00000 0.37285
58692.00000 0.37476
58725.00000 0.3767
58759.00000 0.37858
58792.00000 0.37988
58825.00000 0.38188
58859.00000 0.3843
58892.00000 0.38603
58926.00000 0.38771
58959.00000 0.38942
58993.00000 0.3911
59026.00000 0.39279
59060.00000 0.39375
59094.00000 0.39446
59127.00000 0.39554
59161.00000 0.39651
59195.00000 0.39712
59229.00000 0.39765
59262.00000 0.3982
59296.00000 0.39827
59330.00000 0.39824
59364.00000 0.39803
59398.00000 0.39731
59432.00000 0.39718
59466.00000 0.39688
59500.00000 0.39601
59535.00000 0.39544
59569.00000 0.39458
59603.00000 0.39371
59637.00000 0.39302
59672.00000 0.39194
59706.00000 0.3907
59740.00000 0.38962
59775.00000 0.38818
59809.00000 0.38639
59844.00000 0.38494
59878.00000 0.38359
59913.00000 0.38191
59948.00000 0.38025
59982.00000 0.37864
60017.00000 0.37743
60052.00000 0.37673
60086.00000 0.37632
60121.00000 0.37563
60156.00000 0.37408
60191.00000 0.37285
60226.00000 0.37187
60261.00000 0.37064
60296.00000 0.37003
60331.00000 0.36939
60366.00000 0.36843
60401.00000 0.36774
60437.00000 0.36677
60472.00000 0.36565
60507.00000 0.36518
60542.00000 0.36521
60578.00000 0.36464
60613.00000 0.36325
60649.00000 0.36213
60684.00000 0.3613
60720.00000 0.36059
60755.00000 0.36061
60791.00000 0.36062
60827.00000 0.36027
60862.00000 0.35994
60898.00000 0.35946
60934.00000 0.35854
60970.00000 0.35771
61005.00000 0.35799
61041.00000 0.35814
61077.00000 0.35769
61113.00000 0.35778
61149.00000 0.35768
61185.00000 0.35752
61221.00000 0.35734
61258.00000 0.35689
61294.00000 0.35764
61330.00000 0.35873
61366.00000 0.35928
61403.00000 0.36014
61439.00000 0.36064
61476.00000 0.36099
61512.00000 0.36159
61548.00000 0.36212
61585.00000 0.3631
61622.00000 0.3641
61658.00000 0.36481
61695.00000 0.36574
61732.00000 0.36714
61768.00000 0.36869
61805.00000 0.3701
61842.00000 0.3715
61879.00000 0.37251
61916.00000 0.37367
61953.00000 0.37538
61990.00000 0.37675
62027.00000 0.37831
62064.00000 0.37997
62101.00000 0.38092
62139.00000 0.38181
62176.00000 0.38309
62213.00000 0.38436
62250.00000 0.38584
62288.00000 0.38806
62325.00000 0.39007
62363.00000 0.3916
62400.00000 0.39372
62438.00000 0.39583
62475.00000 0.39758
62513.00000 0.39954
62551.00000 0.40094
62589.00000 0.40175
62626.00000 0.40267
62664.00000 0.40402
62702.00000 0.40607
62740.00000 0.40745
62778.00000 0.40826
62816.00000 0.40979
62854.00000 0.41151
62892.00000 0.41286
62930.00000 0.41424
62969.00000 0.41523
63007.00000 0.41546
63045.00000 0.41674
63083.00000 0.41775
63122.00000 0.41806
63160.00000 0.41985
63199.00000 0.42091
63237.00000 0.4217
63276.00000 0.42339
63315.00000 0.4241
63353.00000 0.42461
63392.00000 0.42577
63431.00000 0.42689
63470.00000 0.42748
63508.00000 0.42834
63547.00000 0.42979
63586.00000 0.43106
63625.00000 0.43202
63664.00000 0.43279
63703.00000 0.43346
63743.00000 0.4344
63782.00000 0.43561
63821.00000 0.43633
63860.00000 0.43689
63900.00000 0.43771
63939.00000 0.4386
63979.00000 0.43972
64018.00000 0.44019
64058.00000 0.44094
64097.00000 0.44234
64137.00000 0.44274
64176.00000 0.4435
64216.00000 0.44459
64256.00000 0.44474
64296.00000 0.44567
64336.00000 0.44693
64376.00000 0.44742
64416.00000 0.44823
64456.00000 0.44925
64496.00000 0.44923
64536.00000 0.44903
64576.00000 0.44976
64616.00000 0.45024
64657.00000 0.45048
64697.00000 0.45069
64737.00000 0.44982
64778.00000 0.44865
64818.00000 0.44664
64859.00000 0.44364
64899.00000 0.44085
64940.00000 0.43863
64981.00000 0.43908
65021.00000 0.44248
65062.00000 0.44545
65103.00000 0.44663
65144.00000 0.44717
65185.00000 0.44669
65226.00000 0.44573
65267.00000 0.44558
65308.00000 0.44496
65349.00000 0.44362
65390.00000 0.4425
65432.00000 0.44152
65473.00000 0.44085
65514.00000 0.4398
65556.00000 0.43808
65597.00000 0.43717
65639.00000 0.4366
65680.00000 0.43524
65722.00000 0.43386
65764.00000 0.43247
65805.00000 0.43099
65847.00000 0.4303
65889.00000 0.42945
65931.00000 0.42822
65973.00000 0.4278
66015.00000 0.42742
66057.00000 0.42652
66099.00000 0.42597
66141.00000 0.426
66183.00000 0.42618
66226.00000 0.42616
66268.00000 0.42586
66310.00000 0.42577
66353.00000 0.42606
66395.00000 0.42653
66438.00000 0.42717
66480.00000 0.42778
66523.00000 0.42849
66566.00000 0.42972
66608.00000 0.4304
66651.00000 0.43082
66694.00000 0.43244
66737.00000 0.43431
66780.00000 0.43601
66823.00000 0.4378
66866.00000 0.44004
66909.00000 0.44245
66952.00000 0.44415
66996.00000 0.44609
67039.00000 0.44758
67082.00000 0.44933
67126.00000 0.45258
67169.00000 0.45582
67213.00000 0.45872
67256.00000 0.46084
67300.00000 0.4633
67344.00000 0.46641
67387.00000 0.46911
67431.00000 0.47178
67475.00000 0.47392
67519.00000 0.47662
67563.00000 0.47982
67607.00000 0.48195
67651.00000 0.48441
67695.00000 0.48744
67740.00000 0.48952
67784.00000 0.49116
67828.00000 0.49372
67873.00000 0.49647
67917.00000 0.49889
67961.00000 0.50177
68006.00000 0.50387
68051.00000 0.50518
68095.00000 0.50716
68140.00000 0.50946
68185.00000 0.5113
68230.00000 0.5135
68275.00000 0.51626
68320.00000 0.51821
68365.00000 0.51989
68410.00000 0.52212
68455.00000 0.5247
68500.00000 0.52727
68545.00000 0.52894
68591.00000 0.53039
68636.00000 0.53253
68682.00000 0.53417
68727.00000 0.53568
68773.00000 0.53791
68818.00000 0.53946
68864.00000 0.54057
68910.00000 0.54261
68956.00000 0.54479
69001.00000 0.54601
69047.00000 0.54622
69093.00000 0.54738
69139.00000 0.54923
69186.00000 0.54987
69232.00000 0.55096
69278.00000 0.55208
69324.00000 0.55195
69371.00000 0.55247
69417.00000 0.55329
69464.00000 0.55354
69510.00000 0.55434
69557.00000 0.55535
69603.00000 0.55572
69650.00000 0.55598
69697.00000 0.55687
69744.00000 0.557
69791.00000 0.55723
69838.00000 0.558
69885.00000 0.55768
69932.00000 0.55791
69979.00000 0.5586
70026.00000 0.55844
70074.00000 0.55854
70121.00000 0.55945
70169.00000 0.56059
70216.00000 0.56086
70264.00000 0.56116
70311.00000 0.56262
70359.00000 0.56326
70407.00000 0.56361
70455.00000 0.56491
70503.00000 0.56522
70550.00000 0.5661
70598.00000 0.56763
70647.00000 0.56839
70695.00000 0.5705
70743.00000 0.5729
70791.00000 0.57421
70840.00000 0.57556
70888.00000 0.57826
70937.00000 0.58177
70985.00000 0.58415
71034.00000 0.58662
71082.00000 0.58923
71131.00000 0.59089
71180.00000 0.59349
71229.00000 0.59735
71278.00000 0.60078
71327.00000 0.60313
71376.00000 0.60562
71425.00000 0.60889
71474.00000 0.61194
71524.00000 0.61462
71573.00000 0.61787
71622.00000 0.62123
71672.00000 0.62342
71721.00000 0.62637
71771.00000 0.6306
71821.00000 0.63401
71871.00000 0.638
71920.00000 0.6419
71970.00000 0.64437
72020.00000 0.64793
72070.00000 0.65103
72120.00000 0.65252
72171.00000 0.6556
72221.00000 0.65867
72271.00000 0.66066
72322.00000 0.66297
72372.00000 0.66453
72423.00000 0.66622
72473.00000 0.66874
72524.00000 0.66996
72575.00000 0.67075
72625.00000 0.67282
72676.00000 0.67461
72727.00000 0.67546
72778.00000 0.67642
72829.00000 0.6783
72881.00000 0.68078
72932.00000 0.68252
72983.00000 0.68363
73035.00000 0.68519
73086.00000 0.68655
73138.00000 0.68773
73189.00000 0.68969
73241.00000 0.69139
73293.00000 0.69263
73345.00000 0.69415
73396.00000 0.69642
73448.00000 0.69924
73500.00000 0.70157
73553.00000 0.70477
73605.00000 0.70765
73657.00000 0.70965
73709.00000 0.71392
73762.00000 0.7179
73814.00000 0.7213
73867.00000 0.72629
73920.00000 0.72967
73972.00000 0.73292
74025.00000 0.73801
74078.00000 0.74244
74131.00000 0.747
74184.00000 0.75189
74237.00000 0.75607
74290.00000 0.76144
74344.00000 0.76668
74397.00000 0.77027
74450.00000 0.77473
74504.00000 0.77974
74557.00000 0.78363
74611.00000 0.78728
74665.00000 0.79142
74718.00000 0.79608
74772.00000 0.80039
74826.00000 0.80409
74880.00000 0.80886
74934.00000 0.81263
74989.00000 0.81491
75043.00000 0.8191
75097.00000 0.82245
75152.00000 0.82442
75206.00000 0.827
75261.00000 0.82917
75315.00000 0.8317
75370.00000 0.83301
75425.00000 0.83383
75480.00000 0.83619
75535.00000 0.8371
75590.00000 0.83708
75645.00000 0.83756
75700.00000 0.83847
75755.00000 0.84024
75811.00000 0.84083
75866.00000 0.84077
75922.00000 0.84134
75977.00000 0.84198
76033.00000 0.84362
76089.00000 0.84463
76145.00000 0.84507
76201.00000 0.84648
76257.00000 0.84757
76313.00000 0.84863
76369.00000 0.84986
76425.00000 0.85176
76482.00000 0.85389
76538.00000 0.85472
76595.00000 0.85626
76651.00000 0.85828
76708.00000 0.85973
76765.00000 0.86134
76822.00000 0.8635
76879.00000 0.86618
76936.00000 0.8684
76993.00000 0.87048
77050.00000 0.87161
77107.00000 0.87348
77165.00000 0.87692
77222.00000 0.87907
77280.00000 0.8812
77337.00000 0.88316
77395.00000 0.88535
77453.00000 0.88902
77511.00000 0.89102
77569.00000 0.8927
77627.00000 0.89524
77685.00000 0.89792
77743.00000 0.90095
77801.00000 0.90211
77860.00000 0.90342
77918.00000 0.90649
77977.00000 0.90989
78035.00000 0.9136
78094.00000 0.9161
78153.00000 0.91855
78212.00000 0.92167
78271.00000 0.92318
78330.00000 0.92538
78389.00000 0.92863
78449.00000 0.93141
78508.00000 0.93411
78568.00000 0.93647
78627.00000 0.9397
78687.00000 0.94341
78747.00000 0.94646
78806.00000 0.94957
78866.00000 0.95267
78926.00000 0.95636
78986.00000 0.95924
79047.00000 0.96143
79107.00000 0.96484
79167.00000 0.96859
79228.00000 0.9731
79288.00000 0.97621
79349.00000 0.97814
79410.00000 0.98173
79471.00000 0.9846
79532.00000 0.98684
79593.00000 0.98857
79654.00000 0.99115
79715.00000 0.99466
79776.00000 0.99569
79838.00000 0.99814
79899.00000 1.0
79961.00000 0.99875
80023.00000 0.99985
80084.00000 0.99802
80146.00000 0.99395
80208.00000 0.99392
80270.00000 0.99207
80332.00000 0.9873
80395.00000 0.98417
80457.00000 0.98144
80520.00000 0.97807
80582.00000 0.97383
80645.00000 0.97016
80708.00000 0.96631
80770.00000 0.96174
80833.00000 0.95887
80896.00000 0.95571
80960.00000 0.95177
81023.00000 0.94851
81086.00000 0.94539
81150.00000 0.94283
81213.00000 0.94041
81277.00000 0.93816
81341.00000 0.93635
81404.00000 0.93545
81468.00000 0.93456
81532.00000 0.93326
81597.00000 0.93387
81661.00000 0.93545
81725.00000 0.93617
81790.00000 0.93693
81854.00000 0.93683
81919.00000 0.93705
81984.00000 0.93901
82048.00000 0.93947
82113.00000 0.93978
82178.00000 0.94101
82244.00000 0.93908
82309.00000 0.9366
82374.00000 0.93529
82440.00000 0.93233
82505.00000 0.92716
82571.00000 0.92033
82637.00000 0.91221
82703.00000 0.90162
82769.00000 0.88895
82835.00000 0.87444
82901.00000 0.85765
82967.00000 0.83933
83034.00000 0.81811
83100.00000 0.7953
83167.00000 0.77005
83234.00000 0.74126
83301.00000 0.71258
83368.00000 0.68253
83435.00000 0.65119
83502.00000 0.6194
83569.00000 0.58639
83636.00000 0.55413
83704.00000 0.52127
83772.00000 0.48871
83839.00000 0.45847
83907.00000 0.42805
83975.00000 0.39788
84043.00000 0.37017
84111.00000 0.34315
84180.00000 0.31611
84248.00000 0.29253
84316.00000 0.2708
84385.00000 0.24862
84454.00000 0.22851
84523.00000 0.20974
84592.00000 0.19209
84661.00000 0.17592
84730.00000 0.1611
84799.00000 0.14795
84868.00000 0.13545
84938.00000 0.12435
85008.00000 0.11365
85077.00000 0.10419
85147.00000 0.096232
85217.00000 0.087474
85287.00000 0.080804
85357.00000 0.074939
85428.00000 0.068051
85498.00000 0.062178
85569.00000 0.056616
85639.00000 0.052454
85710.00000 0.048412
85781.00000 0.043909
85852.00000 0.041439
85923.00000 0.038305
85994.00000 0.033882
86066.00000 0.032301
86137.00000 0.031018
86209.00000 0.027138
86281.00000 0.025678
86352.00000 0.025367
86424.00000 0.021932
86496.00000 0.019329
86569.00000 0.018933
86641.00000 0.018113
86713.00000 0.017118
86786.00000 0.016158
86859.00000 0.014925
86931.00000 0.014291
87004.00000 0.013533
87077.00000 0.012684
87151.00000 0.011646
87224.00000 0.0097655
87297.00000 0.010153
87371.00000 0.010797
87444.00000 0.0097384
87518.00000 0.0096852
87592.00000 0.0080494
87666.00000 0.0065016
87740.00000 0.0074361
87815.00000 0.0068605
87889.00000 0.0067221
87964.00000 0.0073235
88038.00000 0.0054988
88113.00000 0.0049141
88188.00000 0.0059404
88263.00000 0.0055356
88338.00000 0.0053065
88414.00000 0.0051972
88489.00000 0.0046957
88565.00000 0.0048639
88640.00000 0.0043953
88716.00000 0.0031833
88792.00000 0.0030237
88868.00000 0.0027349
88944.00000 0.0023262
89021.00000 0.0036151
89097.00000 0.004129
89174.00000 0.0028806
89251.00000 0.001723
89327.00000 0.0016094
89404.00000 0.0025709
89482.00000 0.0031917
89559.00000 0.0029971
89636.00000 0.0019333
89714.00000 0.0021494
89791.00000 0.0030712
89869.00000 0.00249
89947.00000 0.0030165
90025.00000 0.0030381
90104.00000 0.0013025
90182.00000 0.00049151
90260.00000 0.0010149
90339.00000 0.0015371
90418.00000 0.0017179
90497.00000 0.0017351
90576.00000 0.0025347
90655.00000 0.0017907
90734.00000 0.00098211
90814.00000 0.0015405
90893.00000 0.0020048
90973.00000 0.0018611
91053.00000 0.0017311
91133.00000 0.0018621
91213.00000 0.0011629
91293.00000 0.00095226
91374.00000 0.0014194
91454.00000 0.00076315
91535.00000 0.00059414
91616.00000 0.00027022
91697.00000 0.0
91778.00000 0.00038337
91859.00000 0.00087804
91941.00000 0.0015117
92022.00000 0.00048232
92104.00000 0.0
