# %ECSV 0.9
# ---
# datatype:
# - {name: wavelength, unit: Angstrom, datatype: float32}
# - {name: response, datatype: float32}
# meta: !!omap
# - {band_name: D}
# - {group_name: MSX}
wavelength response
128800.00000 0.0
128900.00000 0.000532
129000.00000 0.002191
129100.00000 0.002872
129200.00000 0.002011
129300.00000 0.000662
129400.00000 2.5e-05
129500.00000 0.000216
129600.00000 0.000953
129700.00000 0.001998
129800.00000 0.002836
129900.00000 0.002972
130000.00000 0.002545
130100.00000 0.002387
130200.00000 0.00279
130300.00000 0.003333
130400.00000 0.003784
130500.00000 0.004286
130600.00000 0.004793
130700.00000 0.005073
130800.00000 0.005321
130900.00000 0.005952
131000.00000 0.006981
131100.00000 0.007912
131200.00000 0.008632
131300.00000 0.009349
131400.00000 0.010259
131500.00000 0.011608
131600.00000 0.013663
131700.00000 0.016324
131800.00000 0.019253
131900.00000 0.022441
132000.00000 0.026484
132100.00000 0.031327
132200.00000 0.035915
132300.00000 0.039546
132400.00000 0.042962
132500.00000 0.04768
132600.00000 0.054475
132700.00000 0.062068
132800.00000 0.069414
132900.00000 0.076381
133000.00000 0.083847
133100.00000 0.093238
133200.00000 0.104331
133300.00000 0.115835
133400.00000 0.126651
133500.00000 0.137468
133600.00000 0.149714
133700.00000 0.163611
133800.00000 0.177109
133900.00000 0.189313
134000.00000 0.202291
134100.00000 0.219043
134200.00000 0.240142
134300.00000 0.263148
134400.00000 0.285386
134500.00000 0.308206
134600.00000 0.334879
134700.00000 0.366793
134800.00000 0.401383
134900.00000 0.435008
135000.00000 0.467787
135100.00000 0.503205
135200.00000 0.54257
135300.00000 0.582033
135400.00000 0.616869
135500.00000 0.646134
135600.00000 0.675141
135700.00000 0.707403
135800.00000 0.739074
135900.00000 0.761811
136000.00000 0.774509
136100.00000 0.78414
136200.00000 0.797612
136300.00000 0.81365
136400.00000 0.824717
136500.00000 0.825943
136600.00000 0.822369
136700.00000 0.823471
136800.00000 0.830214
136900.00000 0.835983
137000.00000 0.835575
137100.00000 0.83145
137200.00000 0.83064
137300.00000 0.835972
137400.00000 0.842487
137500.00000 0.84334
137600.00000 0.838448
137700.00000 0.83593
137800.00000 0.840715
137900.00000 0.848519
138000.00000 0.851021
138100.00000 0.845878
138200.00000 0.839555
138300.00000 0.839879
138400.00000 0.846564
138500.00000 0.851191
138600.00000 0.846679
138700.00000 0.835952
138800.00000 0.829414
138900.00000 0.831378
139000.00000 0.835534
139100.00000 0.833537
139200.00000 0.824632
139300.00000 0.816336
139400.00000 0.815037
139500.00000 0.81832
139600.00000 0.817801
139700.00000 0.809081
139800.00000 0.797298
139900.00000 0.791785
140000.00000 0.795648
140100.00000 0.802283
140200.00000 0.802683
140300.00000 0.795893
140400.00000 0.790909
140500.00000 0.795067
140600.00000 0.806166
140700.00000 0.81499
140800.00000 0.815311
140900.00000 0.810644
141000.00000 0.810415
141100.00000 0.819688
141200.00000 0.83347
141300.00000 0.842518
141400.00000 0.843014
141500.00000 0.840858
141600.00000 0.845173
141700.00000 0.858356
141800.00000 0.873133
141900.00000 0.880467
142000.00000 0.879333
142100.00000 0.877475
142200.00000 0.882795
142300.00000 0.894376
142400.00000 0.903479
142500.00000 0.903336
142600.00000 0.896563
142700.00000 0.892826
142800.00000 0.89841
142900.00000 0.909069
143000.00000 0.914676
143100.00000 0.909611
143200.00000 0.899118
143300.00000 0.893522
143400.00000 0.897704
143500.00000 0.90633
143600.00000 0.909839
143700.00000 0.904806
143800.00000 0.896674
143900.00000 0.893786
144000.00000 0.898466
144100.00000 0.904924
144200.00000 0.906427
144300.00000 0.901816
144400.00000 0.896659
144500.00000 0.897554
144600.00000 0.905123
144700.00000 0.913402
144800.00000 0.915933
144900.00000 0.912415
145000.00000 0.908764
145100.00000 0.910846
145200.00000 0.918287
145300.00000 0.924783
145400.00000 0.924692
145500.00000 0.918753
145600.00000 0.913452
145700.00000 0.91461
145800.00000 0.921527
145900.00000 0.928042
146000.00000 0.928879
146100.00000 0.924707
146200.00000 0.921409
146300.00000 0.923881
146400.00000 0.931169
146500.00000 0.93768
146600.00000 0.938662
146700.00000 0.934909
146800.00000 0.931777
146900.00000 0.934054
147000.00000 0.94142
147100.00000 0.948868
147200.00000 0.951639
147300.00000 0.949521
147400.00000 0.946595
147500.00000 0.947398
147600.00000 0.951775
147700.00000 0.955043
147800.00000 0.95286
147900.00000 0.945805
148000.00000 0.940134
148100.00000 0.940703
148200.00000 0.946059
148300.00000 0.949952
148400.00000 0.947324
148500.00000 0.938893
148600.00000 0.930284
148700.00000 0.927194
148800.00000 0.93047
148900.00000 0.935635
149000.00000 0.937213
149100.00000 0.933157
149200.00000 0.925829
149300.00000 0.921065
149400.00000 0.922655
149500.00000 0.928787
149600.00000 0.933239
149700.00000 0.932568
149800.00000 0.929792
149900.00000 0.930448
150000.00000 0.937548
150100.00000 0.948587
150200.00000 0.957504
150300.00000 0.959384
150400.00000 0.954193
150500.00000 0.947151
150600.00000 0.944931
150700.00000 0.950209
150800.00000 0.9595
150900.00000 0.964024
151000.00000 0.961187
151100.00000 0.955007
151200.00000 0.951874
151300.00000 0.955241
151400.00000 0.963108
151500.00000 0.969708
151600.00000 0.969819
151700.00000 0.963125
151800.00000 0.955141
151900.00000 0.954374
152000.00000 0.961968
152100.00000 0.97187
152200.00000 0.977426
152300.00000 0.976115
152400.00000 0.97082
152500.00000 0.967411
152600.00000 0.970624
152700.00000 0.980717
152800.00000 0.991269
152900.00000 0.994139
153000.00000 0.989389
153100.00000 0.982754
153200.00000 0.980384
153300.00000 0.984758
153400.00000 0.993273
153500.00000 0.999845
153600.00000 0.998665
153700.00000 0.988891
153800.00000 0.978465
153900.00000 0.973257
154000.00000 0.973919
154100.00000 0.97687
154200.00000 0.977188
154300.00000 0.971668
154400.00000 0.961046
154500.00000 0.951551
154600.00000 0.947489
154700.00000 0.947112
154800.00000 0.946256
154900.00000 0.941508
155000.00000 0.932049
155100.00000 0.920434
155200.00000 0.912142
155300.00000 0.90989
155400.00000 0.910279
155500.00000 0.909222
155600.00000 0.904386
155700.00000 0.896062
155800.00000 0.887147
155900.00000 0.882306
156000.00000 0.883108
156100.00000 0.885847
156200.00000 0.887209
156300.00000 0.885888
156400.00000 0.882809
156500.00000 0.880832
156600.00000 0.884037
156700.00000 0.891459
156800.00000 0.899507
156900.00000 0.905404
157000.00000 0.908133
157100.00000 0.908775
157200.00000 0.910769
157300.00000 0.917233
157400.00000 0.925953
157500.00000 0.933744
157600.00000 0.937747
157700.00000 0.936421
157800.00000 0.930376
157900.00000 0.922821
158000.00000 0.915099
158100.00000 0.905498
158200.00000 0.891282
158300.00000 0.869708
158400.00000 0.838428
158500.00000 0.799751
158600.00000 0.758458
158700.00000 0.716497
158800.00000 0.674211
158900.00000 0.630478
159000.00000 0.583535
159100.00000 0.533313
159200.00000 0.482413
159300.00000 0.432748
159400.00000 0.386144
159500.00000 0.344633
159600.00000 0.307903
159700.00000 0.274377
159800.00000 0.243387
159900.00000 0.214772
160000.00000 0.188799
160100.00000 0.166443
160200.00000 0.147306
160300.00000 0.130566
160400.00000 0.115567
160500.00000 0.101705
160600.00000 0.088683
160700.00000 0.076368
160800.00000 0.065196
160900.00000 0.05543
161000.00000 0.047219
161100.00000 0.040794
161200.00000 0.035547
161300.00000 0.031062
161400.00000 0.027221
161500.00000 0.023951
161600.00000 0.021302
161700.00000 0.018922
161800.00000 0.016516
161900.00000 0.013988
162000.00000 0.011334
162100.00000 0.009027
162200.00000 0.007571
162300.00000 0.006927
162400.00000 0.006904
162500.00000 0.007103
162600.00000 0.006717
162700.00000 0.005788
162800.00000 0.004565
162900.00000 0.003321
163000.00000 0.002509
163100.00000 0.002094
163200.00000 0.001752
163300.00000 0.001326
163400.00000 0.000689
163500.00000 0.0
