# %ECSV 0.9
# ---
# datatype:
# - {name: wavelength, unit: Angstrom, datatype: float32}
# - {name: response, datatype: float32}
# meta: !!omap
# - {band_name: H}
# - {group_name: CAIN3}
wavelength response
13158.00000 0.0
14620.00000 0.004076
14625.00000 0.004223
14630.00000 0.004437
14635.00000 0.004584
14640.00000 0.004775
14645.00000 0.004918
14650.00000 0.005218
14655.00000 0.005345
14660.00000 0.005527
14665.00000 0.005848
14670.00000 0.006094
14675.00000 0.006261
14680.00000 0.006552
14685.00000 0.006846
14690.00000 0.007204
14695.00000 0.007428
14700.00000 0.007705
14705.00000 0.008092
14710.00000 0.008491
14715.00000 0.008811
14720.00000 0.009276
14725.00000 0.009656
14730.00000 0.010055
14735.00000 0.010557
14740.00000 0.01114
14745.00000 0.011568
14750.00000 0.012019
14755.00000 0.012591
14760.00000 0.013153
14765.00000 0.013758
14770.00000 0.014411
14775.00000 0.015141
14780.00000 0.01587
14785.00000 0.016624
14790.00000 0.017317
14795.00000 0.018209
14800.00000 0.019132
14805.00000 0.020161
14810.00000 0.021181
14815.00000 0.022201
14820.00000 0.023193
14825.00000 0.024388
14830.00000 0.025693
14835.00000 0.027059
14840.00000 0.028466
14845.00000 0.029848
14850.00000 0.031378
14855.00000 0.03291
14860.00000 0.034719
14865.00000 0.036569
14870.00000 0.038507
14875.00000 0.040789
14880.00000 0.042841
14885.00000 0.04494
14890.00000 0.047306
14895.00000 0.050111
14900.00000 0.052885
14905.00000 0.055663
14910.00000 0.058608
14915.00000 0.0616
14920.00000 0.064891
14925.00000 0.068629
14930.00000 0.072525
14935.00000 0.076686
14940.00000 0.080532
14945.00000 0.084708
14950.00000 0.089265
14955.00000 0.094248
14960.00000 0.099543
14965.00000 0.105163
14970.00000 0.110824
14975.00000 0.116319
14980.00000 0.122395
14985.00000 0.129025
14990.00000 0.136154
14995.00000 0.143747
15000.00000 0.15124
15005.00000 0.158621
15010.00000 0.166396
15015.00000 0.174855
15020.00000 0.183893
15025.00000 0.193548
15030.00000 0.203196
15035.00000 0.21255
15040.00000 0.222246
15045.00000 0.23207
15050.00000 0.242762
15055.00000 0.254505
15060.00000 0.265422
15065.00000 0.276917
15070.00000 0.288078
15075.00000 0.299274
15080.00000 0.310579
15085.00000 0.323344
15090.00000 0.335273
15095.00000 0.347071
15100.00000 0.358653
15105.00000 0.370116
15110.00000 0.381882
15115.00000 0.393877
15120.00000 0.405845
15125.00000 0.417273
15130.00000 0.428142
15135.00000 0.438775
15140.00000 0.449177
15145.00000 0.459919
15150.00000 0.470397
15155.00000 0.480616
15160.00000 0.49014
15165.00000 0.49916
15170.00000 0.507794
15175.00000 0.516342
15180.00000 0.525157
15185.00000 0.533302
15190.00000 0.540788
15195.00000 0.548334
15200.00000 0.554753
15205.00000 0.561785
15210.00000 0.568011
15215.00000 0.574807
15220.00000 0.580363
15225.00000 0.585976
15230.00000 0.59123
15235.00000 0.596256
15240.00000 0.601354
15245.00000 0.605928
15250.00000 0.611073
15255.00000 0.615562
15260.00000 0.61917
15265.00000 0.623226
15270.00000 0.627133
15275.00000 0.630977
15280.00000 0.634923
15285.00000 0.638146
15290.00000 0.641517
15295.00000 0.64434
15300.00000 0.648054
15305.00000 0.650912
15310.00000 0.654305
15315.00000 0.657279
15320.00000 0.659959
15325.00000 0.662578
15330.00000 0.665525
15335.00000 0.668196
15340.00000 0.671147
15345.00000 0.673674
15350.00000 0.676084
15355.00000 0.678573
15360.00000 0.680914
15365.00000 0.68304
15370.00000 0.685607
15375.00000 0.688475
15380.00000 0.690166
15385.00000 0.692613
15390.00000 0.694546
15395.00000 0.696691
15400.00000 0.698765
15405.00000 0.700444
15410.00000 0.703145
15415.00000 0.704521
15420.00000 0.706473
15425.00000 0.707626
15430.00000 0.709536
15435.00000 0.711386
15440.00000 0.713109
15445.00000 0.714303
15450.00000 0.715904
15455.00000 0.717042
15460.00000 0.71826
15465.00000 0.719526
15470.00000 0.721307
15475.00000 0.722132
15480.00000 0.722846
15485.00000 0.722967
15490.00000 0.724533
15495.00000 0.7258
15500.00000 0.726188
15505.00000 0.727102
15510.00000 0.726999
15515.00000 0.728112
15520.00000 0.728233
15525.00000 0.728577
15530.00000 0.728627
15535.00000 0.729389
15540.00000 0.729007
15545.00000 0.728875
15550.00000 0.729379
15555.00000 0.729838
15560.00000 0.729399
15565.00000 0.729421
15570.00000 0.729032
15575.00000 0.728274
15580.00000 0.728365
15585.00000 0.727865
15590.00000 0.728093
15595.00000 0.727474
15600.00000 0.726825
15605.00000 0.72649
15610.00000 0.726374
15615.00000 0.725467
15620.00000 0.72495
15625.00000 0.7242
15630.00000 0.723987
15635.00000 0.722983
15640.00000 0.722657
15645.00000 0.72211
15650.00000 0.721172
15655.00000 0.720743
15660.00000 0.719735
15665.00000 0.7191
15670.00000 0.718656
15675.00000 0.718382
15680.00000 0.717238
15685.00000 0.717085
15690.00000 0.716104
15695.00000 0.715597
15700.00000 0.714814
15705.00000 0.714421
15710.00000 0.714641
15715.00000 0.713199
15720.00000 0.712929
15725.00000 0.712442
15730.00000 0.712007
15735.00000 0.711834
15740.00000 0.711396
15745.00000 0.710757
15750.00000 0.711767
15755.00000 0.710393
15760.00000 0.709831
15765.00000 0.708977
15770.00000 0.709758
15775.00000 0.70977
15780.00000 0.709408
15785.00000 0.709128
15790.00000 0.708922
15795.00000 0.709249
15800.00000 0.708764
15805.00000 0.709227
15810.00000 0.70909
15815.00000 0.709322
15820.00000 0.709632
15825.00000 0.709725
15830.00000 0.709838
15835.00000 0.710288
15840.00000 0.710185
15845.00000 0.711084
15850.00000 0.711297
15855.00000 0.712177
15860.00000 0.712435
15865.00000 0.712413
15870.00000 0.712975
15875.00000 0.713251
15880.00000 0.714652
15885.00000 0.714712
15890.00000 0.715559
15895.00000 0.716209
15900.00000 0.71702
15905.00000 0.717311
15910.00000 0.718383
15915.00000 0.718977
15920.00000 0.72001
15925.00000 0.720126
15930.00000 0.721441
15935.00000 0.722337
15940.00000 0.722967
15945.00000 0.724572
15950.00000 0.724872
15955.00000 0.725917
15960.00000 0.726734
15965.00000 0.727883
15970.00000 0.728191
15975.00000 0.729758
15980.00000 0.730517
15985.00000 0.731699
15990.00000 0.731991
15995.00000 0.73296
16000.00000 0.733952
16005.00000 0.735113
16010.00000 0.73615
16015.00000 0.736888
16020.00000 0.738042
16025.00000 0.738495
16030.00000 0.740359
16035.00000 0.740819
16040.00000 0.741942
16045.00000 0.742557
16050.00000 0.743861
16055.00000 0.744858
16060.00000 0.745752
16065.00000 0.74657
16070.00000 0.74707
16075.00000 0.747881
16080.00000 0.748757
16085.00000 0.749621
16090.00000 0.750015
16095.00000 0.751507
16100.00000 0.75201
16105.00000 0.753186
16110.00000 0.752977
16115.00000 0.753815
16120.00000 0.754428
16125.00000 0.754828
16130.00000 0.755755
16135.00000 0.756269
16140.00000 0.75705
16145.00000 0.75742
16150.00000 0.757989
16155.00000 0.758188
16160.00000 0.758405
16165.00000 0.758947
16170.00000 0.759473
16175.00000 0.759362
16180.00000 0.759921
16185.00000 0.759762
16190.00000 0.760857
16195.00000 0.760434
16200.00000 0.759997
16205.00000 0.761771
16210.00000 0.761593
16215.00000 0.761224
16220.00000 0.761353
16225.00000 0.761556
16230.00000 0.761459
16235.00000 0.761005
16240.00000 0.761343
16245.00000 0.761624
16250.00000 0.761551
16255.00000 0.761351
16260.00000 0.761034
16265.00000 0.761683
16270.00000 0.760794
16275.00000 0.760897
16280.00000 0.760843
16285.00000 0.760499
16290.00000 0.760008
16295.00000 0.759876
16300.00000 0.760082
16305.00000 0.759421
16310.00000 0.759167
16315.00000 0.759145
16320.00000 0.75911
16325.00000 0.758308
16330.00000 0.75823
16335.00000 0.757623
16340.00000 0.757635
16345.00000 0.756917
16350.00000 0.757201
16355.00000 0.756355
16360.00000 0.756196
16365.00000 0.755799
16370.00000 0.755584
16375.00000 0.755696
16380.00000 0.755077
16385.00000 0.754867
16390.00000 0.754633
16395.00000 0.7545
16400.00000 0.753657
16405.00000 0.753366
16410.00000 0.752845
16415.00000 0.754026
16420.00000 0.752331
16425.00000 0.752149
16430.00000 0.75205
16435.00000 0.751793
16440.00000 0.751383
16445.00000 0.751204
16450.00000 0.751233
16455.00000 0.750712
16460.00000 0.750753
16465.00000 0.750445
16470.00000 0.750387
16475.00000 0.749934
16480.00000 0.75013
16485.00000 0.749822
16490.00000 0.749699
16495.00000 0.749258
16500.00000 0.750101
16505.00000 0.749717
16510.00000 0.749325
16515.00000 0.749447
16520.00000 0.749457
16525.00000 0.749507
16530.00000 0.74964
16535.00000 0.749943
16540.00000 0.750013
16545.00000 0.750028
16550.00000 0.749987
16555.00000 0.750408
16560.00000 0.750011
16565.00000 0.75064
16570.00000 0.750462
16575.00000 0.750878
16580.00000 0.751169
16585.00000 0.751941
16590.00000 0.75216
16595.00000 0.752233
16600.00000 0.752797
16605.00000 0.752583
16610.00000 0.753693
16615.00000 0.753611
16620.00000 0.754683
16625.00000 0.754449
16630.00000 0.754936
16635.00000 0.755454
16640.00000 0.756547
16645.00000 0.757102
16650.00000 0.75756
16655.00000 0.757868
16660.00000 0.757917
16665.00000 0.758661
16670.00000 0.759856
16675.00000 0.76034
16680.00000 0.760463
16685.00000 0.761356
16690.00000 0.761894
16695.00000 0.762608
16700.00000 0.763281
16705.00000 0.76419
16710.00000 0.764643
16715.00000 0.765464
16720.00000 0.765944
16725.00000 0.766194
16730.00000 0.767322
16735.00000 0.768161
16740.00000 0.768584
16745.00000 0.769058
16750.00000 0.770047
16755.00000 0.771311
16760.00000 0.771815
16765.00000 0.772339
16770.00000 0.773524
16775.00000 0.773822
16780.00000 0.775054
16785.00000 0.775401
16790.00000 0.776477
16795.00000 0.777347
16800.00000 0.777843
16805.00000 0.778405
16810.00000 0.77937
16815.00000 0.779849
16820.00000 0.780526
16825.00000 0.781455
16830.00000 0.78171
16835.00000 0.783003
16840.00000 0.783441
16845.00000 0.784233
16850.00000 0.784442
16855.00000 0.785373
16860.00000 0.786025
16865.00000 0.786915
16870.00000 0.787373
16875.00000 0.787768
16880.00000 0.788774
16885.00000 0.78912
16890.00000 0.789833
16895.00000 0.79012
16900.00000 0.791006
16905.00000 0.791004
16910.00000 0.791589
16915.00000 0.791726
16920.00000 0.792818
16925.00000 0.792723
16930.00000 0.793232
16935.00000 0.793866
16940.00000 0.794092
16945.00000 0.79455
16950.00000 0.794671
16955.00000 0.79501
16960.00000 0.795238
16965.00000 0.795903
16970.00000 0.795966
16975.00000 0.796445
16980.00000 0.79598
16985.00000 0.796751
16990.00000 0.796676
16995.00000 0.796894
17000.00000 0.796283
17005.00000 0.796922
17010.00000 0.796998
17015.00000 0.797124
17020.00000 0.797044
17025.00000 0.797065
17030.00000 0.796892
17035.00000 0.796259
17040.00000 0.797088
17045.00000 0.796648
17050.00000 0.796537
17055.00000 0.796493
17060.00000 0.796735
17065.00000 0.796051
17070.00000 0.796231
17075.00000 0.796016
17080.00000 0.795719
17085.00000 0.795181
17090.00000 0.795368
17095.00000 0.795097
17100.00000 0.795269
17105.00000 0.794411
17110.00000 0.793842
17115.00000 0.793748
17120.00000 0.793526
17125.00000 0.793108
17130.00000 0.792726
17135.00000 0.792914
17140.00000 0.79171
17145.00000 0.791875
17150.00000 0.791491
17155.00000 0.790793
17160.00000 0.789973
17165.00000 0.789647
17170.00000 0.789347
17175.00000 0.788787
17180.00000 0.788999
17185.00000 0.787942
17190.00000 0.787414
17195.00000 0.787173
17200.00000 0.7869
17205.00000 0.786153
17210.00000 0.785846
17215.00000 0.785486
17220.00000 0.784677
17225.00000 0.784238
17230.00000 0.783617
17235.00000 0.78307
17240.00000 0.783078
17245.00000 0.782284
17250.00000 0.781882
17255.00000 0.781994
17260.00000 0.780366
17265.00000 0.780214
17270.00000 0.780115
17275.00000 0.780104
17280.00000 0.778547
17285.00000 0.779107
17290.00000 0.778079
17295.00000 0.777997
17300.00000 0.776974
17305.00000 0.776965
17310.00000 0.776385
17315.00000 0.776147
17320.00000 0.775593
17325.00000 0.775183
17330.00000 0.774589
17335.00000 0.774583
17340.00000 0.774499
17345.00000 0.773819
17350.00000 0.773809
17355.00000 0.773345
17360.00000 0.773528
17365.00000 0.772777
17370.00000 0.772746
17375.00000 0.772155
17380.00000 0.771741
17385.00000 0.771719
17390.00000 0.771769
17395.00000 0.771233
17400.00000 0.771269
17405.00000 0.771084
17410.00000 0.770983
17415.00000 0.770505
17420.00000 0.770431
17425.00000 0.770733
17430.00000 0.770147
17435.00000 0.770546
17440.00000 0.770178
17445.00000 0.769949
17450.00000 0.769813
17455.00000 0.770853
17460.00000 0.769785
17465.00000 0.769687
17470.00000 0.769577
17475.00000 0.769495
17480.00000 0.769925
17485.00000 0.770117
17490.00000 0.770075
17495.00000 0.770225
17500.00000 0.77049
17505.00000 0.770363
17510.00000 0.770479
17515.00000 0.770425
17520.00000 0.770929
17525.00000 0.770549
17530.00000 0.771343
17535.00000 0.771398
17540.00000 0.771479
17545.00000 0.771575
17550.00000 0.772208
17555.00000 0.771986
17560.00000 0.772301
17565.00000 0.772655
17570.00000 0.772798
17575.00000 0.773469
17580.00000 0.773479
17585.00000 0.773627
17590.00000 0.773847
17595.00000 0.774508
17600.00000 0.774514
17605.00000 0.774769
17610.00000 0.775472
17615.00000 0.775479
17620.00000 0.775861
17625.00000 0.776221
17630.00000 0.776358
17635.00000 0.777039
17640.00000 0.77761
17645.00000 0.777424
17650.00000 0.778249
17655.00000 0.778574
17660.00000 0.778763
17665.00000 0.779528
17670.00000 0.78005
17675.00000 0.779922
17680.00000 0.780777
17685.00000 0.781165
17690.00000 0.78139
17695.00000 0.781844
17700.00000 0.782364
17705.00000 0.783004
17710.00000 0.782874
17715.00000 0.783399
17720.00000 0.784428
17725.00000 0.784709
17730.00000 0.78448
17735.00000 0.785888
17740.00000 0.78598
17745.00000 0.786159
17750.00000 0.786861
17755.00000 0.786925
17760.00000 0.787102
17765.00000 0.78789
17770.00000 0.78801
17775.00000 0.788492
17780.00000 0.78882
17785.00000 0.789297
17790.00000 0.789828
17795.00000 0.78998
17800.00000 0.790408
17805.00000 0.790682
17810.00000 0.790986
17815.00000 0.791038
17820.00000 0.791539
17825.00000 0.792081
17830.00000 0.792028
17835.00000 0.7927
17840.00000 0.792462
17845.00000 0.792647
17850.00000 0.79305
17855.00000 0.793467
17860.00000 0.793039
17865.00000 0.793394
17870.00000 0.793064
17875.00000 0.793368
17880.00000 0.793094
17885.00000 0.792826
17890.00000 0.793087
17895.00000 0.793631
17900.00000 0.792505
17905.00000 0.792239
17910.00000 0.791945
17915.00000 0.791347
17920.00000 0.790998
17925.00000 0.790139
17930.00000 0.789105
17935.00000 0.788324
17940.00000 0.78797
17945.00000 0.787169
17950.00000 0.785741
17955.00000 0.784821
17960.00000 0.7834
17965.00000 0.782098
17970.00000 0.780348
17975.00000 0.779141
17980.00000 0.777321
17985.00000 0.775204
17990.00000 0.772784
17995.00000 0.770297
18000.00000 0.768392
18005.00000 0.765734
18010.00000 0.762591
18015.00000 0.759653
18020.00000 0.756393
18025.00000 0.752895
18030.00000 0.749073
18035.00000 0.745249
18040.00000 0.741249
18045.00000 0.737141
18050.00000 0.732729
18055.00000 0.727253
18060.00000 0.72178
18065.00000 0.716864
18070.00000 0.711568
18075.00000 0.705935
18080.00000 0.699704
18085.00000 0.692934
18090.00000 0.686693
18095.00000 0.67952
18100.00000 0.672627
18105.00000 0.665081
18110.00000 0.657592
18115.00000 0.64972
18120.00000 0.640336
18125.00000 0.631703
18130.00000 0.622942
18135.00000 0.614184
18140.00000 0.605012
18145.00000 0.59512
18150.00000 0.584904
18155.00000 0.575117
18160.00000 0.56518
18165.00000 0.555336
18170.00000 0.546765
18175.00000 0.536126
18180.00000 0.525259
18185.00000 0.514179
18190.00000 0.50247
18195.00000 0.491129
18200.00000 0.48039
18205.00000 0.469132
18210.00000 0.45605
18215.00000 0.444173
18220.00000 0.432939
18225.00000 0.421496
18230.00000 0.410954
18235.00000 0.401044
18240.00000 0.390757
18245.00000 0.380033
18250.00000 0.370293
18255.00000 0.360484
18260.00000 0.350719
18265.00000 0.340924
18270.00000 0.330906
18275.00000 0.320165
18280.00000 0.310005
18285.00000 0.299543
18290.00000 0.289721
18295.00000 0.279847
18300.00000 0.270737
18305.00000 0.261418
18310.00000 0.252624
18315.00000 0.244708
18320.00000 0.236586
18325.00000 0.229395
18330.00000 0.222417
18335.00000 0.215206
18340.00000 0.207713
18345.00000 0.200515
18350.00000 0.193523
18355.00000 0.187051
18360.00000 0.180697
18365.00000 0.17422
18370.00000 0.167552
18375.00000 0.161138
18380.00000 0.154766
18385.00000 0.148735
18390.00000 0.143345
18395.00000 0.137815
18400.00000 0.132095
18405.00000 0.126856
18410.00000 0.121819
18415.00000 0.117301
18420.00000 0.11358
18425.00000 0.109607
18430.00000 0.106163
18435.00000 0.102325
18440.00000 0.098836
18445.00000 0.095446
18450.00000 0.092635
18455.00000 0.089608
18460.00000 0.086389
18465.00000 0.083049
18470.00000 0.079879
18475.00000 0.076882
18480.00000 0.073942
18485.00000 0.071061
18490.00000 0.068317
18495.00000 0.065568
18500.00000 0.062915
18505.00000 0.060596
18510.00000 0.058482
18515.00000 0.056753
18520.00000 0.05491
18525.00000 0.05322
18530.00000 0.051424
18535.00000 0.049469
18540.00000 0.0478
18545.00000 0.046144
18550.00000 0.044493
18555.00000 0.042971
18560.00000 0.041489
18565.00000 0.03994
18570.00000 0.03857
18575.00000 0.03716
18580.00000 0.035847
18585.00000 0.034626
18590.00000 0.033449
18595.00000 0.032197
18600.00000 0.031094
18605.00000 0.029895
18610.00000 0.028953
18615.00000 0.02797
18620.00000 0.027139
18625.00000 0.026167
18630.00000 0.025391
18635.00000 0.024553
18640.00000 0.02396
18645.00000 0.023226
18650.00000 0.022519
18655.00000 0.021894
18660.00000 0.021287
18665.00000 0.020608
18670.00000 0.020031
18675.00000 0.0194
18680.00000 0.01877
18685.00000 0.018136
18690.00000 0.017463
18695.00000 0.016847
18700.00000 0.016344
18705.00000 0.015853
18710.00000 0.015224
18715.00000 0.014722
18720.00000 0.014096
18725.00000 0.013477
18730.00000 0.013221
18735.00000 0.012792
18740.00000 0.012335
18745.00000 0.011933
18750.00000 0.011541
18755.00000 0.011212
18760.00000 0.010845
18765.00000 0.010547
18770.00000 0.010218
18775.00000 0.009912
18780.00000 0.009726
18785.00000 0.009425
18790.00000 0.009234
18795.00000 0.008926
18800.00000 0.008658
18805.00000 0.008396
18810.00000 0.008234
18815.00000 0.008027
18820.00000 0.007847
18825.00000 0.007557
18830.00000 0.007381
18835.00000 0.007018
18840.00000 0.00694
18845.00000 0.006772
18850.00000 0.006542
18855.00000 0.006292
18860.00000 0.006136
18865.00000 0.006054
18870.00000 0.005806
18875.00000 0.005742
18880.00000 0.005556
18885.00000 0.005396
18890.00000 0.005201
18895.00000 0.005109
18900.00000 0.004946
18905.00000 0.004848
18910.00000 0.004669
18915.00000 0.004468
18920.00000 0.004429
18925.00000 0.004271
18930.00000 0.004145
18935.00000 0.004093
18940.00000 0.004001
20834.00000 0.0
