# %ECSV 0.9
# ---
# datatype:
# - {name: wavelength, unit: Angstrom, datatype: float32}
# - {name: response, datatype: float32}
# meta: !!omap
# - {band_name: H}
# - {group_name: INGRID}
wavelength response
13140.00000 0.0
14600.00000 0.004019
14605.00000 0.004252
14610.00000 0.004501
14615.00000 0.004781
14620.00000 0.005024
14625.00000 0.00534
14630.00000 0.00563
14635.00000 0.005995
14640.00000 0.006392
14645.00000 0.006759
14650.00000 0.007181
14655.00000 0.007661
14660.00000 0.008102
14665.00000 0.008601
14670.00000 0.009169
14675.00000 0.009818
14680.00000 0.010438
14685.00000 0.011048
14690.00000 0.011848
14695.00000 0.012548
14700.00000 0.013453
14705.00000 0.014419
14710.00000 0.015423
14715.00000 0.016455
14720.00000 0.017476
14725.00000 0.01864
14730.00000 0.019989
14735.00000 0.021391
14740.00000 0.022885
14745.00000 0.024456
14750.00000 0.026032
14755.00000 0.027676
14760.00000 0.029569
14765.00000 0.031723
14770.00000 0.033893
14775.00000 0.036228
14780.00000 0.038534
14785.00000 0.040996
14790.00000 0.043622
14795.00000 0.046709
14800.00000 0.049993
14805.00000 0.053187
14810.00000 0.056648
14815.00000 0.060165
14820.00000 0.063846
14825.00000 0.06801
14830.00000 0.072421
14835.00000 0.076689
14840.00000 0.081263
14845.00000 0.085914
14850.00000 0.090505
14855.00000 0.0958
14860.00000 0.101635
14865.00000 0.107349
14870.00000 0.11327
14875.00000 0.119174
14880.00000 0.125221
14885.00000 0.131496
14890.00000 0.13885
14895.00000 0.146363
14900.00000 0.153901
14905.00000 0.16141
14910.00000 0.168728
14915.00000 0.176813
14920.00000 0.185445
14925.00000 0.194841
14930.00000 0.204495
14935.00000 0.213841
14940.00000 0.223356
14945.00000 0.23284
14950.00000 0.243962
14955.00000 0.255377
14960.00000 0.267074
14965.00000 0.27909
14970.00000 0.290907
14975.00000 0.302737
14980.00000 0.315518
14985.00000 0.329559
14990.00000 0.344129
14995.00000 0.358088
15000.00000 0.372499
15005.00000 0.386506
15010.00000 0.401102
15015.00000 0.417218
15020.00000 0.433894
15025.00000 0.449897
15030.00000 0.465686
15035.00000 0.481576
15040.00000 0.497133
15045.00000 0.513811
15050.00000 0.531792
15055.00000 0.548563
15060.00000 0.565033
15065.00000 0.580089
15070.00000 0.59573
15075.00000 0.611384
15080.00000 0.627623
15085.00000 0.643546
15090.00000 0.658165
15095.00000 0.671911
15100.00000 0.685054
15105.00000 0.698629
15110.00000 0.711443
15115.00000 0.723451
15120.00000 0.735116
15125.00000 0.745602
15130.00000 0.754907
15135.00000 0.764177
15140.00000 0.773425
15145.00000 0.781391
15150.00000 0.788695
15155.00000 0.795426
15160.00000 0.801094
15165.00000 0.806688
15170.00000 0.811829
15175.00000 0.81612
15180.00000 0.818409
15185.00000 0.821461
15190.00000 0.82482
15195.00000 0.827435
15200.00000 0.829947
15205.00000 0.832383
15210.00000 0.834369
15215.00000 0.836138
15220.00000 0.837583
15225.00000 0.838956
15230.00000 0.84039
15235.00000 0.841849
15240.00000 0.842917
15245.00000 0.843662
15250.00000 0.845073
15255.00000 0.845974
15260.00000 0.846916
15265.00000 0.847632
15270.00000 0.848583
15275.00000 0.849769
15280.00000 0.850935
15285.00000 0.851676
15290.00000 0.852333
15295.00000 0.853011
15300.00000 0.85449
15305.00000 0.855801
15310.00000 0.856582
15315.00000 0.857445
15320.00000 0.858123
15325.00000 0.858976
15330.00000 0.860006
15335.00000 0.860924
15340.00000 0.861669
15345.00000 0.862297
15350.00000 0.862986
15355.00000 0.863181
15360.00000 0.863879
15365.00000 0.864191
15370.00000 0.86464
15375.00000 0.864753
15380.00000 0.864916
15385.00000 0.865237
15390.00000 0.864864
15395.00000 0.864303
15400.00000 0.864327
15405.00000 0.864008
15410.00000 0.863786
15415.00000 0.862893
15420.00000 0.862216
15425.00000 0.861945
15430.00000 0.860019
15435.00000 0.859678
15440.00000 0.858581
15445.00000 0.857185
15450.00000 0.856408
15455.00000 0.855261
15460.00000 0.853547
15465.00000 0.852213
15470.00000 0.850917
15475.00000 0.849679
15480.00000 0.848039
15485.00000 0.846744
15490.00000 0.845115
15495.00000 0.843709
15500.00000 0.842617
15505.00000 0.840708
15510.00000 0.83943
15515.00000 0.838168
15520.00000 0.836866
15525.00000 0.835886
15530.00000 0.835001
15535.00000 0.833347
15540.00000 0.831981
15545.00000 0.831876
15550.00000 0.830333
15555.00000 0.829284
15560.00000 0.828678
15565.00000 0.828016
15570.00000 0.827912
15575.00000 0.827267
15580.00000 0.826764
15585.00000 0.826488
15590.00000 0.826428
15595.00000 0.826424
15600.00000 0.826535
15605.00000 0.826695
15610.00000 0.826981
15615.00000 0.827305
15620.00000 0.827808
15625.00000 0.828224
15630.00000 0.829008
15635.00000 0.830004
15640.00000 0.830923
15645.00000 0.831832
15650.00000 0.832646
15655.00000 0.833819
15660.00000 0.835158
15665.00000 0.836305
15670.00000 0.837608
15675.00000 0.839071
15680.00000 0.840285
15685.00000 0.841989
15690.00000 0.843568
15695.00000 0.845315
15700.00000 0.846794
15705.00000 0.847822
15710.00000 0.849824
15715.00000 0.85132
15720.00000 0.853134
15725.00000 0.854655
15730.00000 0.856476
15735.00000 0.857593
15740.00000 0.859333
15745.00000 0.86117
15750.00000 0.862561
15755.00000 0.864332
15760.00000 0.865366
15765.00000 0.866636
15770.00000 0.868033
15775.00000 0.869358
15780.00000 0.870676
15785.00000 0.871933
15790.00000 0.872799
15795.00000 0.873301
15800.00000 0.874792
15805.00000 0.875252
15810.00000 0.875686
15815.00000 0.877116
15820.00000 0.877175
15825.00000 0.87772
15830.00000 0.878009
15835.00000 0.878743
15840.00000 0.878766
15845.00000 0.879023
15850.00000 0.878715
15855.00000 0.878905
15860.00000 0.878803
15865.00000 0.878804
15870.00000 0.878488
15875.00000 0.878325
15880.00000 0.878133
15885.00000 0.877351
15890.00000 0.877131
15895.00000 0.877056
15900.00000 0.87611
15905.00000 0.875636
15910.00000 0.875363
15915.00000 0.874563
15920.00000 0.874082
15925.00000 0.873782
15930.00000 0.872861
15935.00000 0.872104
15940.00000 0.871636
15945.00000 0.870825
15950.00000 0.870321
15955.00000 0.869833
15960.00000 0.869065
15965.00000 0.868751
15970.00000 0.868074
15975.00000 0.867385
15980.00000 0.866846
15985.00000 0.867385
15990.00000 0.865887
15995.00000 0.86573
16000.00000 0.865546
16005.00000 0.865164
16010.00000 0.864827
16015.00000 0.865053
16020.00000 0.864758
16025.00000 0.863931
16030.00000 0.864524
16035.00000 0.864571
16040.00000 0.864381
16045.00000 0.864559
16050.00000 0.864762
16055.00000 0.864955
16060.00000 0.865309
16065.00000 0.865503
16070.00000 0.866016
16075.00000 0.866307
16080.00000 0.867253
16085.00000 0.867475
16090.00000 0.868036
16095.00000 0.86881
16100.00000 0.869328
16105.00000 0.869727
16110.00000 0.870555
16115.00000 0.871616
16120.00000 0.872072
16125.00000 0.872501
16130.00000 0.873883
16135.00000 0.874727
16140.00000 0.875498
16145.00000 0.875948
16150.00000 0.876859
16155.00000 0.877529
16160.00000 0.878731
16165.00000 0.879163
16170.00000 0.880453
16175.00000 0.880842
16180.00000 0.882136
16185.00000 0.881915
16190.00000 0.882924
16195.00000 0.884064
16200.00000 0.884093
16205.00000 0.885002
16210.00000 0.885813
16215.00000 0.885587
16220.00000 0.886011
16225.00000 0.88671
16230.00000 0.886436
16235.00000 0.887227
16240.00000 0.887423
16245.00000 0.887411
16250.00000 0.887161
16255.00000 0.887109
16260.00000 0.886838
16265.00000 0.887198
16270.00000 0.886295
16275.00000 0.885835
16280.00000 0.885881
16285.00000 0.885127
16290.00000 0.884455
16295.00000 0.88378
16300.00000 0.883068
16305.00000 0.882317
16310.00000 0.881164
16315.00000 0.880035
16320.00000 0.879046
16325.00000 0.878198
16330.00000 0.877126
16335.00000 0.875814
16340.00000 0.874177
16345.00000 0.872453
16350.00000 0.872137
16355.00000 0.870054
16360.00000 0.868394
16365.00000 0.867382
16370.00000 0.865236
16375.00000 0.863808
16380.00000 0.862489
16385.00000 0.860644
16390.00000 0.858758
16395.00000 0.857713
16400.00000 0.855369
16405.00000 0.854048
16410.00000 0.852312
16415.00000 0.850961
16420.00000 0.84865
16425.00000 0.847443
16430.00000 0.845879
16435.00000 0.844177
16440.00000 0.842919
16445.00000 0.841154
16450.00000 0.839991
16455.00000 0.838817
16460.00000 0.836542
16465.00000 0.835579
16470.00000 0.834354
16475.00000 0.833071
16480.00000 0.831741
16485.00000 0.831216
16490.00000 0.829858
16495.00000 0.828893
16500.00000 0.827814
16505.00000 0.827023
16510.00000 0.826086
16515.00000 0.825755
16520.00000 0.825316
16525.00000 0.824643
16530.00000 0.823628
16535.00000 0.823555
16540.00000 0.823144
16545.00000 0.823095
16550.00000 0.822745
16555.00000 0.822887
16560.00000 0.822821
16565.00000 0.822878
16570.00000 0.823559
16575.00000 0.822882
16580.00000 0.823608
16585.00000 0.824203
16590.00000 0.824523
16595.00000 0.825092
16600.00000 0.825851
16605.00000 0.826371
16610.00000 0.827553
16615.00000 0.828112
16620.00000 0.829226
16625.00000 0.829972
16630.00000 0.830961
16635.00000 0.832221
16640.00000 0.83358
16645.00000 0.834552
16650.00000 0.835794
16655.00000 0.836882
16660.00000 0.838571
16665.00000 0.839902
16670.00000 0.841303
16675.00000 0.842676
16680.00000 0.844064
16685.00000 0.845502
16690.00000 0.847205
16695.00000 0.848474
16700.00000 0.850344
16705.00000 0.852111
16710.00000 0.852716
16715.00000 0.854691
16720.00000 0.856261
16725.00000 0.857953
16730.00000 0.859388
16735.00000 0.860534
16740.00000 0.861983
16745.00000 0.863396
16750.00000 0.865095
16755.00000 0.866029
16760.00000 0.867066
16765.00000 0.869035
16770.00000 0.869548
16775.00000 0.870682
16780.00000 0.872255
16785.00000 0.873042
16790.00000 0.873936
16795.00000 0.874865
16800.00000 0.876101
16805.00000 0.876631
16810.00000 0.877062
16815.00000 0.878318
16820.00000 0.878736
16825.00000 0.87926
16830.00000 0.879675
16835.00000 0.879536
16840.00000 0.880206
16845.00000 0.880999
16850.00000 0.881131
16855.00000 0.880859
16860.00000 0.880941
16865.00000 0.881028
16870.00000 0.881049
16875.00000 0.88121
16880.00000 0.881011
16885.00000 0.880973
16890.00000 0.880405
16895.00000 0.880103
16900.00000 0.88024
16905.00000 0.879419
16910.00000 0.879223
16915.00000 0.878605
16920.00000 0.877887
16925.00000 0.877781
16930.00000 0.877091
16935.00000 0.876686
16940.00000 0.876396
16945.00000 0.875584
16950.00000 0.874954
16955.00000 0.874558
16960.00000 0.873825
16965.00000 0.873594
16970.00000 0.87253
16975.00000 0.872472
16980.00000 0.872038
16985.00000 0.870753
16990.00000 0.870481
16995.00000 0.870288
17000.00000 0.870503
17005.00000 0.869591
17010.00000 0.868581
17015.00000 0.868875
17020.00000 0.86869
17025.00000 0.867833
17030.00000 0.867758
17035.00000 0.867624
17040.00000 0.867375
17045.00000 0.867411
17050.00000 0.866985
17055.00000 0.867005
17060.00000 0.867179
17065.00000 0.867091
17070.00000 0.86703
17075.00000 0.867412
17080.00000 0.867346
17085.00000 0.867689
17090.00000 0.867512
17095.00000 0.867936
17100.00000 0.868235
17105.00000 0.868514
17110.00000 0.868687
17115.00000 0.868999
17120.00000 0.869228
17125.00000 0.869261
17130.00000 0.869687
17135.00000 0.870148
17140.00000 0.870566
17145.00000 0.870676
17150.00000 0.870687
17155.00000 0.871543
17160.00000 0.87085
17165.00000 0.871503
17170.00000 0.871407
17175.00000 0.871639
17180.00000 0.871746
17185.00000 0.871901
17190.00000 0.871958
17195.00000 0.871851
17200.00000 0.871798
17205.00000 0.871555
17210.00000 0.871242
17215.00000 0.870733
17220.00000 0.870796
17225.00000 0.869758
17230.00000 0.869264
17235.00000 0.868382
17240.00000 0.867741
17245.00000 0.86719
17250.00000 0.866134
17255.00000 0.865176
17260.00000 0.863456
17265.00000 0.862714
17270.00000 0.861356
17275.00000 0.860116
17280.00000 0.858538
17285.00000 0.856781
17290.00000 0.855294
17295.00000 0.853716
17300.00000 0.85169
17305.00000 0.849769
17310.00000 0.847831
17315.00000 0.845952
17320.00000 0.843765
17325.00000 0.841639
17330.00000 0.839169
17335.00000 0.837243
17340.00000 0.834946
17345.00000 0.832692
17350.00000 0.830651
17355.00000 0.82783
17360.00000 0.825344
17365.00000 0.823228
17370.00000 0.821991
17375.00000 0.820513
17380.00000 0.819545
17385.00000 0.817288
17390.00000 0.815029
17395.00000 0.812612
17400.00000 0.810544
17405.00000 0.808296
17410.00000 0.806161
17415.00000 0.804232
17420.00000 0.801876
17425.00000 0.800035
17430.00000 0.798164
17435.00000 0.797032
17440.00000 0.795038
17445.00000 0.793565
17450.00000 0.791916
17455.00000 0.790737
17460.00000 0.789641
17465.00000 0.788582
17470.00000 0.787614
17475.00000 0.787002
17480.00000 0.785849
17485.00000 0.785699
17490.00000 0.785314
17495.00000 0.785383
17500.00000 0.784915
17505.00000 0.784726
17510.00000 0.785363
17515.00000 0.785566
17520.00000 0.785969
17525.00000 0.786245
17530.00000 0.786875
17535.00000 0.787938
17540.00000 0.788418
17545.00000 0.789751
17550.00000 0.791034
17555.00000 0.792099
17560.00000 0.793674
17565.00000 0.795123
17570.00000 0.796754
17575.00000 0.798074
17580.00000 0.799868
17585.00000 0.801961
17590.00000 0.803748
17595.00000 0.805347
17600.00000 0.807365
17605.00000 0.809484
17610.00000 0.81141
17615.00000 0.813149
17620.00000 0.81501
17625.00000 0.816963
17630.00000 0.818532
17635.00000 0.817872
17640.00000 0.818651
17645.00000 0.820401
17650.00000 0.821582
17655.00000 0.822667
17660.00000 0.824212
17665.00000 0.825055
17670.00000 0.82596
17675.00000 0.826276
17680.00000 0.826146
17685.00000 0.826423
17690.00000 0.826557
17695.00000 0.825346
17700.00000 0.825054
17705.00000 0.823474
17710.00000 0.822172
17715.00000 0.820282
17720.00000 0.820107
17725.00000 0.816749
17730.00000 0.813353
17735.00000 0.809424
17740.00000 0.804252
17745.00000 0.799634
17750.00000 0.794453
17755.00000 0.788495
17760.00000 0.781786
17765.00000 0.773873
17770.00000 0.765508
17775.00000 0.757302
17780.00000 0.748466
17785.00000 0.738999
17790.00000 0.72875
17795.00000 0.716512
17800.00000 0.704385
17805.00000 0.692021
17810.00000 0.679343
17815.00000 0.665885
17820.00000 0.651901
17825.00000 0.637102
17830.00000 0.619804
17835.00000 0.603544
17840.00000 0.587717
17845.00000 0.571981
17850.00000 0.554757
17855.00000 0.537068
17860.00000 0.518343
17865.00000 0.499637
17870.00000 0.481725
17875.00000 0.464765
17880.00000 0.447229
17885.00000 0.428202
17890.00000 0.409643
17895.00000 0.390982
17900.00000 0.372552
17905.00000 0.355963
17910.00000 0.339503
17915.00000 0.323414
17920.00000 0.30487
17925.00000 0.28873
17930.00000 0.272846
17935.00000 0.257904
17940.00000 0.244301
17945.00000 0.23077
17950.00000 0.216907
17955.00000 0.20283
17960.00000 0.190654
17965.00000 0.179713
17970.00000 0.168857
17975.00000 0.158566
17980.00000 0.148389
17985.00000 0.138008
17990.00000 0.128698
17995.00000 0.12084
18000.00000 0.11351
18005.00000 0.105577
18010.00000 0.099003
18015.00000 0.092046
18020.00000 0.085078
18025.00000 0.07946
18030.00000 0.074507
18035.00000 0.069521
18040.00000 0.064445
18045.00000 0.060046
18050.00000 0.05579
18055.00000 0.051965
18060.00000 0.048467
18065.00000 0.045173
18070.00000 0.042248
18075.00000 0.039258
18080.00000 0.036492
18085.00000 0.034088
18090.00000 0.031721
18095.00000 0.029799
18100.00000 0.027835
18105.00000 0.025978
18110.00000 0.024066
18115.00000 0.022442
18120.00000 0.021035
18125.00000 0.019642
18130.00000 0.018385
18135.00000 0.017222
18140.00000 0.016077
18145.00000 0.015008
18150.00000 0.014101
18155.00000 0.013231
18160.00000 0.012422
18165.00000 0.011617
18170.00000 0.010894
18175.00000 0.010217
18180.00000 0.009488
18185.00000 0.008934
18190.00000 0.008409
18195.00000 0.007915
18200.00000 0.007409
18205.00000 0.006941
18210.00000 0.006406
18215.00000 0.006084
18220.00000 0.005711
18225.00000 0.005352
18230.00000 0.005068
18235.00000 0.004752
18240.00000 0.004451
18245.00000 0.004195
20069.50000 0.0
