# %ECSV 0.9
# ---
# datatype:
# - {name: wavelength, unit: Angstrom, datatype: float32}
# - {name: response, datatype: float32}
# meta: !!omap
# - {band_name: F1460}
# - {group_name: SPEC}
wavelength response
1266.24683 0.0
1406.94092 0.010058
1407.04773 0.010124
1407.15442 0.01019
1407.26123 0.010256
1407.36792 0.010321
1407.47473 0.010387
1407.58142 0.010453
1407.68823 0.01052
1407.79504 0.010587
1407.90173 0.010655
1408.00854 0.010725
1408.11523 0.010795
1408.22205 0.010868
1408.32874 0.010941
1408.43555 0.011015
1408.54224 0.011089
1408.64905 0.011163
1408.75574 0.011236
1408.86255 0.011308
1408.96924 0.011378
1409.07605 0.011447
1409.18274 0.011514
1409.28955 0.011578
1409.39624 0.011642
1409.50305 0.011704
1409.60974 0.011765
1409.71655 0.011827
1409.82324 0.011888
1409.93005 0.01195
1410.03674 0.012013
1410.14355 0.012078
1410.25024 0.012143
1410.35706 0.01221
1410.46387 0.012277
1410.57056 0.012345
1410.67737 0.012412
1410.78406 0.012478
1410.89087 0.012543
1410.99756 0.012607
1411.10437 0.012669
1411.21106 0.012729
1411.31787 0.012787
1411.42456 0.012843
1411.53137 0.012899
1411.63806 0.012953
1411.74487 0.013007
1411.85156 0.01306
1411.95837 0.013114
1412.06506 0.013168
1412.17188 0.013222
1412.27856 0.013278
1412.38538 0.013334
1412.49207 0.013391
1412.59888 0.013448
1412.70557 0.013507
1412.81238 0.013566
1412.91907 0.013626
1413.02588 0.013687
1413.13269 0.013749
1413.23938 0.013812
1413.34619 0.013875
1413.45288 0.013939
1413.55969 0.014004
1413.66638 0.014069
1413.77319 0.014134
1413.87988 0.014199
1413.98669 0.014265
1414.09338 0.01433
1414.20020 0.014395
1414.30688 0.014461
1414.41370 0.014526
1414.52039 0.014592
1414.62720 0.014658
1414.73389 0.014724
1414.84070 0.014791
1414.94739 0.014859
1415.05420 0.014927
1415.16089 0.014997
1415.26770 0.015067
1415.37439 0.015139
1415.48120 0.015213
1415.58789 0.01529
1415.69470 0.015368
1415.80151 0.01545
1415.90820 0.015535
1416.01501 0.015624
1416.12170 0.015716
1416.22852 0.015813
1416.33521 0.015913
1416.44202 0.016016
1416.54871 0.016121
1416.65552 0.016229
1416.76221 0.016339
1416.86902 0.01645
1416.97571 0.016562
1417.08252 0.016675
1417.18921 0.016787
1417.29602 0.0169
1417.40271 0.017013
1417.50952 0.017127
1417.61621 0.017242
1417.72302 0.017357
1417.82971 0.017474
1417.93652 0.017592
1418.04321 0.017711
1418.15002 0.017831
1418.25684 0.017954
1418.36353 0.018079
1418.47034 0.018206
1418.57703 0.018337
1418.68384 0.018472
1418.79053 0.01861
1418.89734 0.018754
1419.00403 0.018902
1419.11084 0.019056
1419.21753 0.019215
1419.32434 0.019379
1419.43103 0.019548
1419.53784 0.019719
1419.64453 0.019894
1419.75134 0.02007
1419.85803 0.020247
1419.96484 0.020425
1420.07153 0.020602
1420.17834 0.020778
1420.28503 0.020953
1420.39185 0.021128
1420.49854 0.021302
1420.60535 0.021477
1420.71204 0.021651
1420.81885 0.021825
1420.92566 0.022
1421.03235 0.022176
1421.13916 0.022353
1421.24585 0.022531
1421.35266 0.022712
1421.45935 0.022897
1421.56616 0.023086
1421.67285 0.023281
1421.77966 0.023482
1421.88635 0.02369
1421.99316 0.023907
1422.09985 0.024133
1422.20667 0.024368
1422.31335 0.024612
1422.42017 0.024862
1422.52686 0.025119
1422.63367 0.02538
1422.74036 0.025644
1422.84717 0.02591
1422.95386 0.026176
1423.06067 0.026441
1423.16736 0.026705
1423.27417 0.026969
1423.38086 0.027234
1423.48767 0.027504
1423.59448 0.02778
1423.70117 0.028064
1423.80798 0.02836
1423.91467 0.028669
1424.02148 0.028993
1424.12817 0.029334
1424.23499 0.029694
1424.34167 0.030069
1424.44849 0.030459
1424.55518 0.030862
1424.66199 0.031275
1424.76868 0.031698
1424.87549 0.032127
1424.98218 0.032562
1425.08899 0.033001
1425.19568 0.033443
1425.30249 0.033887
1425.40918 0.034335
1425.51599 0.034789
1425.62268 0.035247
1425.72949 0.035712
1425.83618 0.036185
1425.94299 0.036665
1426.04980 0.037154
1426.15649 0.037653
1426.26331 0.038164
1426.37000 0.038688
1426.47681 0.039228
1426.58350 0.039786
1426.69031 0.040364
1426.79700 0.040965
1426.90381 0.041589
1427.01050 0.042241
1427.11731 0.042921
1427.22400 0.04363
1427.33081 0.044363
1427.43750 0.045118
1427.54431 0.045891
1427.65100 0.046679
1427.75781 0.047477
1427.86450 0.048283
1427.97131 0.049092
1428.07800 0.049902
1428.18481 0.050709
1428.29150 0.051514
1428.39832 0.052317
1428.50500 0.05312
1428.61182 0.053923
1428.71863 0.054728
1428.82532 0.055536
1428.93213 0.056346
1429.03882 0.057161
1429.14563 0.057982
1429.25232 0.058811
1429.35913 0.059654
1429.46582 0.060515
1429.57263 0.061399
1429.67932 0.062311
1429.78613 0.063256
1429.89282 0.064239
1429.99963 0.065265
1430.10632 0.066337
1430.21313 0.067459
1430.31982 0.068627
1430.42664 0.069839
1430.53333 0.071091
1430.64014 0.07238
1430.74683 0.073702
1430.85364 0.075055
1430.96033 0.076434
1431.06714 0.077838
1431.17383 0.079263
1431.28064 0.080711
1431.38745 0.082183
1431.49414 0.083682
1431.60095 0.085209
1431.70764 0.086767
1431.81445 0.088357
1431.92114 0.089982
1432.02795 0.091644
1432.13464 0.093345
1432.24146 0.09509
1432.34814 0.096889
1432.45496 0.098749
1432.56165 0.10068
1432.66846 0.102689
1432.77515 0.104786
1432.88196 0.106979
1432.98865 0.109276
1433.09546 0.111686
1433.20215 0.114212
1433.30896 0.116843
1433.41565 0.119568
1433.52246 0.122375
1433.62915 0.125251
1433.73596 0.128184
1433.84265 0.131163
1433.94946 0.134175
1434.05627 0.137208
1434.16296 0.140252
1434.26978 0.143307
1434.37646 0.146377
1434.48328 0.149466
1434.58997 0.152578
1434.69678 0.155717
1434.80347 0.158888
1434.91028 0.162096
1435.01697 0.165343
1435.12378 0.168636
1435.23047 0.171981
1435.33728 0.175391
1435.44397 0.17888
1435.55078 0.182459
1435.65747 0.186141
1435.76428 0.18994
1435.87097 0.193868
1435.97778 0.197937
1436.08447 0.202161
1436.19128 0.206543
1436.29797 0.21106
1436.40479 0.215683
1436.51160 0.220384
1436.61829 0.225134
1436.72510 0.229905
1436.83179 0.234669
1436.93860 0.239396
1437.04529 0.244059
1437.15210 0.248632
1437.25879 0.253126
1437.36560 0.257571
1437.47229 0.261994
1437.57910 0.266427
1437.68579 0.270899
1437.79260 0.27544
1437.89929 0.280078
1438.00610 0.284844
1438.11279 0.289767
1438.21960 0.294852
1438.32629 0.300072
1438.43311 0.305395
1438.53979 0.310791
1438.64661 0.316228
1438.75330 0.321676
1438.86011 0.327104
1438.96680 0.332481
1439.07361 0.337776
1439.18042 0.342965
1439.28711 0.348052
1439.39392 0.353049
1439.50061 0.357967
1439.60742 0.362818
1439.71411 0.367613
1439.82092 0.372364
1439.92761 0.377081
1440.03442 0.381778
1440.14111 0.386464
1440.24792 0.391153
1440.35461 0.395856
1440.46143 0.400586
1440.56812 0.405357
1440.67493 0.41018
1440.78162 0.415067
1440.88843 0.420033
1440.99512 0.425088
1441.10193 0.430245
1441.20862 0.435507
1441.31543 0.440851
1441.42212 0.446256
1441.52893 0.451698
1441.63562 0.457155
1441.74243 0.462603
1441.84924 0.468021
1441.95593 0.473384
1442.06274 0.478671
1442.16943 0.483862
1442.27625 0.488961
1442.38293 0.493981
1442.48975 0.498932
1442.59644 0.503827
1442.70325 0.508678
1442.80994 0.513495
1442.91675 0.518292
1443.02344 0.52308
1443.13025 0.527871
1443.23694 0.532674
1443.34375 0.537499
1443.45044 0.542354
1443.55725 0.547248
1443.66394 0.55219
1443.77075 0.557188
1443.87744 0.562251
1443.98425 0.567387
1444.09094 0.572605
1444.19775 0.577906
1444.30457 0.583264
1444.41125 0.588654
1444.51807 0.594048
1444.62476 0.59942
1444.73157 0.604742
1444.83826 0.609987
1444.94507 0.615128
1445.05176 0.620139
1445.15857 0.624995
1445.26526 0.6297
1445.37207 0.634269
1445.47876 0.638719
1445.58557 0.643064
1445.69226 0.647321
1445.79907 0.651504
1445.90576 0.655631
1446.01257 0.659716
1446.11926 0.663775
1446.22607 0.667825
1446.33276 0.671883
1446.43958 0.675968
1446.54626 0.680097
1446.65308 0.684288
1446.75977 0.688559
1446.86658 0.692928
1446.97339 0.697413
1447.08008 0.702031
1447.18689 0.706792
1447.29358 0.711673
1447.40039 0.716646
1447.50708 0.721684
1447.61389 0.726758
1447.72058 0.731839
1447.82739 0.7369
1447.93408 0.741912
1448.04089 0.746846
1448.14758 0.751678
1448.25439 0.756415
1448.36108 0.761082
1448.46790 0.765707
1448.57458 0.770317
1448.68140 0.774937
1448.78809 0.779595
1448.89490 0.784318
1449.00159 0.789133
1449.10840 0.794065
1449.21509 0.79912
1449.32190 0.804268
1449.42859 0.809477
1449.53540 0.814714
1449.64221 0.819945
1449.74890 0.825139
1449.85571 0.830263
1449.96240 0.835284
1450.06921 0.840169
1450.17590 0.844892
1450.28271 0.849456
1450.38940 0.853875
1450.49622 0.858159
1450.60291 0.862321
1450.70972 0.866373
1450.81641 0.870327
1450.92322 0.874195
1451.02991 0.877989
1451.13672 0.881722
1451.24341 0.885395
1451.35022 0.889006
1451.45691 0.892552
1451.56372 0.896028
1451.67041 0.899431
1451.77722 0.902759
1451.88391 0.906006
1451.99072 0.909171
1452.09753 0.912248
1452.20422 0.915235
1452.31104 0.918127
1452.41772 0.920917
1452.52454 0.923602
1452.63123 0.926175
1452.73804 0.928633
1452.84473 0.930969
1452.95154 0.933179
1453.05823 0.935257
1453.16504 0.937201
1453.27173 0.939021
1453.37854 0.940732
1453.48523 0.94235
1453.59204 0.943891
1453.69873 0.945369
1453.80554 0.946802
1453.91223 0.948204
1454.01904 0.949591
1454.12573 0.950978
1454.23254 0.952374
1454.33923 0.953779
1454.44604 0.955196
1454.55273 0.956624
1454.65955 0.958065
1454.76636 0.95952
1454.87305 0.96099
1454.97986 0.962475
1455.08655 0.963977
1455.19336 0.965495
1455.30005 0.96702
1455.40686 0.968546
1455.51355 0.970063
1455.62036 0.971563
1455.72705 0.973038
1455.83386 0.97448
1455.94055 0.97588
1456.04736 0.977231
1456.15405 0.978524
1456.26086 0.979758
1456.36755 0.980938
1456.47437 0.982066
1456.58105 0.983145
1456.68787 0.984178
1456.79456 0.985168
1456.90137 0.986119
1457.00806 0.987032
1457.11487 0.987912
1457.22156 0.98876
1457.32837 0.989578
1457.43518 0.990364
1457.54187 0.991121
1457.64868 0.991848
1457.75537 0.992546
1457.86218 0.993216
1457.96887 0.993858
1458.07568 0.994472
1458.18237 0.99506
1458.28918 0.995619
1458.39587 0.996148
1458.50269 0.996646
1458.60938 0.997111
1458.71619 0.997542
1458.82288 0.997937
1458.92969 0.998294
1459.03638 0.998612
1459.14319 0.998891
1459.24988 0.99913
1459.35669 0.999333
1459.46338 0.999502
1459.57019 0.999641
1459.67688 0.999753
1459.78369 0.99984
1459.89050 0.999906
1459.99719 0.999952
1460.10400 0.999983
1460.21069 0.999999
1460.31750 1.0
1460.42419 0.999984
1460.53101 0.99995
1460.63770 0.999896
1460.74451 0.999821
1460.85120 0.999724
1460.95801 0.999603
1461.06470 0.999457
1461.17151 0.999286
1461.27820 0.999089
1461.38501 0.998867
1461.49170 0.998621
1461.59851 0.998353
1461.70520 0.998064
1461.81201 0.997753
1461.91870 0.997423
1462.02551 0.997074
1462.13220 0.996706
1462.23901 0.99632
1462.34570 0.99591
1462.45251 0.995475
1462.55933 0.995009
1462.66602 0.994511
1462.77283 0.993976
1462.87952 0.9934
1462.98633 0.992781
1463.09302 0.992115
1463.19983 0.9914
1463.30652 0.990638
1463.41333 0.989833
1463.52002 0.988987
1463.62683 0.988103
1463.73352 0.987183
1463.84033 0.986232
1463.94702 0.985251
1464.05383 0.984244
1464.16052 0.983212
1464.26733 0.982157
1464.37402 0.981077
1464.48083 0.979971
1464.58752 0.978838
1464.69434 0.977676
1464.80103 0.976486
1464.90784 0.975265
1465.01453 0.974014
1465.12134 0.97273
1465.22815 0.971411
1465.33484 0.970053
1465.44165 0.968649
1465.54834 0.967197
1465.65515 0.965689
1465.76184 0.964122
1465.86865 0.962491
1465.97534 0.960791
1466.08215 0.959016
1466.18884 0.957166
1466.29565 0.955248
1466.40234 0.953274
1466.50916 0.951252
1466.61584 0.949194
1466.72266 0.947111
1466.82935 0.945012
1466.93616 0.942908
1467.04285 0.940809
1467.14966 0.938725
1467.25635 0.936656
1467.36316 0.934596
1467.46985 0.932538
1467.57666 0.930477
1467.68335 0.928407
1467.79016 0.926323
1467.89697 0.924218
1468.00366 0.922087
1468.11047 0.919922
1468.21716 0.917711
1468.32397 0.915425
1468.43066 0.913035
1468.53748 0.910513
1468.64417 0.907829
1468.75098 0.904954
1468.85767 0.901861
1468.96448 0.898519
1469.07117 0.894901
1469.17798 0.890986
1469.28467 0.886796
1469.39148 0.882361
1469.49817 0.877714
1469.60498 0.872886
1469.71167 0.867908
1469.81848 0.862812
1469.92517 0.857629
1470.03198 0.852391
1470.13867 0.847128
1470.24548 0.841855
1470.35229 0.836573
1470.45898 0.831285
1470.56580 0.825992
1470.67249 0.820696
1470.77930 0.815398
1470.88599 0.810101
1470.99280 0.804807
1471.09949 0.799517
1471.20630 0.79423
1471.31299 0.788942
1471.41980 0.783646
1471.52649 0.778337
1471.63330 0.773009
1471.73999 0.767655
1471.84680 0.762272
1471.95349 0.756851
1472.06030 0.751388
1472.16699 0.74588
1472.27380 0.740341
1472.38049 0.734789
1472.48730 0.729244
1472.59399 0.723726
1472.70081 0.718255
1472.80750 0.71285
1472.91431 0.707531
1473.02112 0.702317
1473.12781 0.697227
1473.23462 0.692263
1473.34131 0.68741
1473.44812 0.682653
1473.55481 0.677977
1473.66162 0.673365
1473.76831 0.668804
1473.87512 0.664277
1473.98181 0.659768
1474.08862 0.655263
1474.19531 0.650747
1474.30212 0.646207
1474.40881 0.641628
1474.51562 0.636998
1474.62231 0.632304
1474.72913 0.627533
1474.83582 0.622671
1474.94263 0.617705
1475.04932 0.612623
1475.15613 0.607413
1475.26282 0.602096
1475.36963 0.596701
1475.47632 0.591262
1475.58313 0.585811
1475.68994 0.580378
1475.79663 0.574997
1475.90344 0.569698
1476.01013 0.564514
1476.11694 0.559477
1476.22363 0.55459
1476.33044 0.549826
1476.43713 0.545154
1476.54395 0.540542
1476.65063 0.53596
1476.75745 0.531378
1476.86414 0.526764
1476.97095 0.522087
1477.07764 0.517317
1477.18445 0.512434
1477.29114 0.507456
1477.39795 0.50241
1477.50464 0.497322
1477.61145 0.49222
1477.71814 0.487131
1477.82495 0.482082
1477.93164 0.477099
1478.03845 0.472209
1478.14526 0.467438
1478.25195 0.462786
1478.35876 0.458241
1478.46545 0.45379
1478.57227 0.449418
1478.67896 0.445114
1478.78577 0.440863
1478.89246 0.436652
1478.99927 0.432468
1479.10596 0.428297
1479.21277 0.424127
1479.31946 0.419948
1479.42627 0.415746
1479.53296 0.411513
1479.63977 0.407236
1479.74646 0.402905
1479.85327 0.398509
1479.95996 0.394036
1480.06677 0.389476
1480.17346 0.384822
1480.28027 0.380087
1480.38696 0.375292
1480.49377 0.370455
1480.60046 0.365598
1480.70728 0.36074
1480.81409 0.355901
1480.92078 0.351101
1481.02759 0.346359
1481.13428 0.341694
1481.24109 0.337109
1481.34778 0.332594
1481.45459 0.328137
1481.56128 0.323726
1481.66809 0.31935
1481.77478 0.314998
1481.88159 0.310658
1481.98828 0.30632
1482.09509 0.301971
1482.20178 0.297602
1482.30859 0.293205
1482.41528 0.28877
1482.52209 0.284292
1482.62878 0.279761
1482.73560 0.275169
1482.84229 0.27051
1482.94910 0.265775
1483.05579 0.260957
1483.16260 0.256049
1483.26929 0.251071
1483.37610 0.246048
1483.48291 0.241008
1483.58960 0.235975
1483.69641 0.230977
1483.80310 0.22604
1483.90991 0.22119
1484.01660 0.216455
1484.12341 0.211859
1484.23010 0.207412
1484.33691 0.203104
1484.44360 0.198926
1484.55042 0.194868
1484.65710 0.190919
1484.76392 0.187069
1484.87061 0.183308
1484.97742 0.179625
1485.08411 0.176011
1485.19092 0.172456
1485.29761 0.16895
1485.40442 0.165487
1485.51111 0.162059
1485.61792 0.158658
1485.72461 0.155276
1485.83142 0.151907
1485.93823 0.148543
1486.04492 0.145176
1486.15173 0.141802
1486.25842 0.138429
1486.36523 0.135073
1486.47192 0.131749
1486.57874 0.128473
1486.68542 0.125262
1486.79224 0.122128
1486.89893 0.119089
1487.00574 0.116157
1487.11243 0.113349
1487.21924 0.110668
1487.32593 0.108103
1487.43274 0.105646
1487.53943 0.103284
1487.64624 0.101006
1487.75293 0.098804
1487.85974 0.096666
1487.96643 0.094581
1488.07324 0.092541
1488.17993 0.090535
1488.28674 0.08856
1488.39343 0.086614
1488.50024 0.084694
1488.60706 0.082799
1488.71375 0.080925
1488.82056 0.079071
1488.92725 0.077233
1489.03406 0.07541
1489.14075 0.0736
1489.24756 0.071806
1489.35425 0.070035
1489.46106 0.068295
1489.56775 0.066594
1489.67456 0.06494
1489.78125 0.06334
1489.88806 0.061801
1489.99475 0.060332
1490.10156 0.05894
1490.20825 0.057627
1490.31506 0.056386
1490.42175 0.055209
1490.52856 0.054088
1490.63525 0.053013
1490.74207 0.051976
1490.84875 0.05097
1490.95557 0.049985
1491.06226 0.049014
1491.16907 0.048049
1491.27588 0.047093
1491.38257 0.046148
1491.48938 0.045221
1491.59607 0.044316
1491.70288 0.043437
1491.80957 0.042588
1491.91638 0.041774
1492.02307 0.041001
1492.12988 0.040271
1492.23657 0.039585
1492.34338 0.03894
1492.45007 0.03833
1492.55688 0.037754
1492.66357 0.037206
1492.77039 0.036682
1492.87708 0.036179
1492.98389 0.035693
1493.09058 0.035219
1493.19739 0.034755
1493.30408 0.034299
1493.41089 0.03385
1493.51758 0.033406
1493.62439 0.032966
1493.73108 0.032528
1493.83789 0.032092
1493.94470 0.031656
1494.05139 0.031219
1494.15820 0.030779
1494.26489 0.030337
1494.37170 0.029896
1494.47839 0.029456
1494.58521 0.029021
1494.69189 0.02859
1494.79871 0.028167
1494.90540 0.027753
1495.01221 0.027349
1495.11890 0.026958
1495.22571 0.026579
1495.33240 0.026212
1495.43921 0.025856
1495.54590 0.02551
1495.65271 0.025173
1495.75940 0.024842
1495.86621 0.024519
1495.97290 0.024201
1496.07971 0.023887
1496.18640 0.023576
1496.29321 0.023269
1496.40002 0.022963
1496.50671 0.022659
1496.61353 0.022357
1496.72021 0.022055
1496.82703 0.021753
1496.93372 0.021451
1497.04053 0.021147
1497.14722 0.020843
1497.25403 0.020537
1497.36072 0.020232
1497.46753 0.019929
1497.57422 0.019629
1497.68103 0.019334
1497.78772 0.019044
1497.89453 0.018761
1498.00122 0.018487
1498.10803 0.018222
1498.21472 0.017967
1498.32153 0.017721
1498.42822 0.017484
1498.53503 0.017255
1498.64172 0.017033
1498.74854 0.016817
1498.85522 0.016606
1498.96204 0.0164
1499.06885 0.016198
1499.17554 0.015999
1499.28235 0.015802
1499.38904 0.015609
1499.49585 0.015417
1499.60254 0.015227
1499.70935 0.015039
1499.81604 0.014852
1499.92285 0.014666
1500.02954 0.01448
1500.13635 0.014296
1500.24304 0.014112
1500.34985 0.01393
1500.45654 0.01375
1500.56335 0.013573
1500.67004 0.013401
1500.77686 0.013234
1500.88354 0.013073
1500.99036 0.012918
1501.09705 0.01277
1501.20386 0.012631
1501.31055 0.012498
1501.41736 0.012372
1501.52405 0.012251
1501.63086 0.012135
1501.73767 0.012022
1501.84436 0.011912
1501.95117 0.011805
1502.05786 0.011698
1502.16467 0.011592
1502.27136 0.011487
1502.37817 0.011383
1502.48486 0.01128
1502.59167 0.01118
1502.69836 0.011082
1502.80518 0.010988
1502.91187 0.010898
1503.01868 0.010812
1503.12537 0.010731
1503.23218 0.010655
1503.33887 0.010583
1503.44568 0.010516
1503.55237 0.010452
1503.65918 0.010391
1503.76587 0.010334
1503.87268 0.010279
1503.97937 0.010226
1504.08618 0.010175
1504.19299 0.010125
1504.29968 0.010077
1504.40649 0.01003
1504.51318 0.009984
1504.62000 0.009939
1504.72668 0.009896
1504.83350 0.009853
1504.94019 0.009812
1505.04700 0.009771
1505.15369 0.009731
1505.26050 0.009692
1505.36719 0.009654
1505.47400 0.009617
1505.58069 0.009581
1505.68750 0.009547
1505.79419 0.009513
1505.90100 0.009481
1506.00769 0.009449
1506.11450 0.00942
1506.22119 0.009391
1506.32800 0.009364
1506.43469 0.009337
1506.54150 0.009312
1506.64819 0.009287
1506.75500 0.009263
1506.86182 0.009239
1506.96851 0.009216
1507.07532 0.009193
1507.18201 0.00917
1507.28882 0.009147
1507.39551 0.009124
1507.50232 0.0091
1507.60901 0.009076
1507.71582 0.009051
1507.82251 0.009025
1507.92932 0.008999
1508.03601 0.008971
1508.14282 0.008943
1508.24951 0.008913
1508.35632 0.008882
1508.46301 0.00885
1508.56982 0.008817
1508.67651 0.008784
1508.78333 0.00875
1508.89001 0.008715
1508.99683 0.00868
1509.10352 0.008645
1509.21033 0.00861
1509.31702 0.008574
1509.42383 0.008538
1509.53064 0.008502
1509.63733 0.008465
1509.74414 0.008428
1509.85083 0.008391
1509.95764 0.008354
1510.06433 0.008316
1510.17114 0.008277
1510.27783 0.008238
1510.38464 0.008198
1510.49133 0.008158
1510.59814 0.008117
1510.70483 0.008074
1510.81165 0.008031
1510.91833 0.007986
1511.02515 0.00794
1511.13184 0.007892
1511.23865 0.007843
1511.34534 0.007793
1511.45215 0.007742
1511.55884 0.00769
1511.66565 0.007638
1511.77234 0.007585
1511.87915 0.007532
1511.98596 0.007479
1512.09265 0.007427
1512.19946 0.007375
1512.30615 0.007324
1512.41296 0.007273
1512.51965 0.007223
1512.62646 0.007173
1512.73315 0.007123
1512.83997 0.007074
1512.94666 0.007025
1513.05347 0.006977
1513.16016 0.006929
1513.26697 0.006881
1513.37366 0.006832
1513.48047 0.006783
1513.58716 0.006733
1513.69397 0.006681
1513.80066 0.006627
1513.90747 0.006571
1514.01416 0.006513
1514.12097 0.006451
1514.22766 0.006387
1514.33447 0.006322
1514.44116 0.006256
1514.54797 0.006191
1514.65479 0.006129
1514.76147 0.006069
1514.86829 0.006015
1514.97498 0.005966
1515.08179 0.005923
1515.18848 0.005889
1515.29529 0.005862
1515.40198 0.005841
1515.50879 0.005826
1515.61548 0.005815
1515.72229 0.005807
1515.82898 0.005803
1515.93579 0.0058
1516.04248 0.005799
1516.14929 0.005798
1516.25598 0.005796
1667.88159 0.0
