# %ECSV 0.9
# ---
# datatype:
# - {name: wavelength, unit: Angstrom, datatype: float32}
# - {name: response, datatype: float32}
# meta: !!omap
# - {band_name: F1380}
# - {group_name: SPEC}
wavelength response
1194.24683 0.0
1326.94092 0.010058
1327.04773 0.010124
1327.15442 0.01019
1327.26123 0.010256
1327.36792 0.010321
1327.47473 0.010387
1327.58142 0.010453
1327.68823 0.01052
1327.79504 0.010587
1327.90173 0.010655
1328.00854 0.010725
1328.11523 0.010795
1328.22205 0.010868
1328.32874 0.010941
1328.43555 0.011015
1328.54224 0.011089
1328.64905 0.011163
1328.75574 0.011236
1328.86255 0.011308
1328.96924 0.011378
1329.07605 0.011447
1329.18274 0.011514
1329.28955 0.011578
1329.39624 0.011642
1329.50305 0.011704
1329.60974 0.011765
1329.71655 0.011827
1329.82324 0.011888
1329.93005 0.01195
1330.03674 0.012013
1330.14355 0.012078
1330.25024 0.012143
1330.35706 0.01221
1330.46387 0.012277
1330.57056 0.012345
1330.67737 0.012412
1330.78406 0.012478
1330.89087 0.012543
1330.99756 0.012607
1331.10437 0.012669
1331.21106 0.012729
1331.31787 0.012787
1331.42456 0.012843
1331.53137 0.012899
1331.63806 0.012953
1331.74487 0.013007
1331.85156 0.01306
1331.95837 0.013114
1332.06506 0.013168
1332.17188 0.013222
1332.27856 0.013278
1332.38538 0.013334
1332.49207 0.013391
1332.59888 0.013448
1332.70557 0.013507
1332.81238 0.013566
1332.91907 0.013626
1333.02588 0.013687
1333.13269 0.013749
1333.23938 0.013812
1333.34619 0.013875
1333.45288 0.013939
1333.55969 0.014004
1333.66638 0.014069
1333.77319 0.014134
1333.87988 0.014199
1333.98669 0.014265
1334.09338 0.01433
1334.20020 0.014395
1334.30688 0.014461
1334.41370 0.014526
1334.52039 0.014592
1334.62720 0.014658
1334.73389 0.014724
1334.84070 0.014791
1334.94739 0.014859
1335.05420 0.014927
1335.16089 0.014997
1335.26770 0.015067
1335.37439 0.015139
1335.48120 0.015213
1335.58789 0.01529
1335.69470 0.015368
1335.80151 0.01545
1335.90820 0.015535
1336.01501 0.015624
1336.12170 0.015716
1336.22852 0.015813
1336.33521 0.015913
1336.44202 0.016016
1336.54871 0.016121
1336.65552 0.016229
1336.76221 0.016339
1336.86902 0.01645
1336.97571 0.016562
1337.08252 0.016675
1337.18921 0.016787
1337.29602 0.0169
1337.40271 0.017013
1337.50952 0.017127
1337.61621 0.017242
1337.72302 0.017357
1337.82971 0.017474
1337.93652 0.017592
1338.04321 0.017711
1338.15002 0.017831
1338.25684 0.017954
1338.36353 0.018079
1338.47034 0.018206
1338.57703 0.018337
1338.68384 0.018472
1338.79053 0.01861
1338.89734 0.018754
1339.00403 0.018902
1339.11084 0.019056
1339.21753 0.019215
1339.32434 0.019379
1339.43103 0.019548
1339.53784 0.019719
1339.64453 0.019894
1339.75134 0.02007
1339.85803 0.020247
1339.96484 0.020425
1340.07153 0.020602
1340.17834 0.020778
1340.28503 0.020953
1340.39185 0.021128
1340.49854 0.021302
1340.60535 0.021477
1340.71204 0.021651
1340.81885 0.021825
1340.92566 0.022
1341.03235 0.022176
1341.13916 0.022353
1341.24585 0.022531
1341.35266 0.022712
1341.45935 0.022897
1341.56616 0.023086
1341.67285 0.023281
1341.77966 0.023482
1341.88635 0.02369
1341.99316 0.023907
1342.09985 0.024133
1342.20667 0.024368
1342.31335 0.024612
1342.42017 0.024862
1342.52686 0.025119
1342.63367 0.02538
1342.74036 0.025644
1342.84717 0.02591
1342.95386 0.026176
1343.06067 0.026441
1343.16736 0.026705
1343.27417 0.026969
1343.38086 0.027234
1343.48767 0.027504
1343.59448 0.02778
1343.70117 0.028064
1343.80798 0.02836
1343.91467 0.028669
1344.02148 0.028993
1344.12817 0.029334
1344.23499 0.029694
1344.34167 0.030069
1344.44849 0.030459
1344.55518 0.030862
1344.66199 0.031275
1344.76868 0.031698
1344.87549 0.032127
1344.98218 0.032562
1345.08899 0.033001
1345.19568 0.033443
1345.30249 0.033887
1345.40918 0.034335
1345.51599 0.034789
1345.62268 0.035247
1345.72949 0.035712
1345.83618 0.036185
1345.94299 0.036665
1346.04980 0.037154
1346.15649 0.037653
1346.26331 0.038164
1346.37000 0.038688
1346.47681 0.039228
1346.58350 0.039786
1346.69031 0.040364
1346.79700 0.040965
1346.90381 0.041589
1347.01050 0.042241
1347.11731 0.042921
1347.22400 0.04363
1347.33081 0.044363
1347.43750 0.045118
1347.54431 0.045891
1347.65100 0.046679
1347.75781 0.047477
1347.86450 0.048283
1347.97131 0.049092
1348.07800 0.049902
1348.18481 0.050709
1348.29150 0.051514
1348.39832 0.052317
1348.50500 0.05312
1348.61182 0.053923
1348.71863 0.054728
1348.82532 0.055536
1348.93213 0.056346
1349.03882 0.057161
1349.14563 0.057982
1349.25232 0.058811
1349.35913 0.059654
1349.46582 0.060515
1349.57263 0.061399
1349.67932 0.062311
1349.78613 0.063256
1349.89282 0.064239
1349.99963 0.065265
1350.10632 0.066337
1350.21313 0.067459
1350.31982 0.068627
1350.42664 0.069839
1350.53333 0.071091
1350.64014 0.07238
1350.74683 0.073702
1350.85364 0.075055
1350.96033 0.076434
1351.06714 0.077838
1351.17383 0.079263
1351.28064 0.080711
1351.38745 0.082183
1351.49414 0.083682
1351.60095 0.085209
1351.70764 0.086767
1351.81445 0.088357
1351.92114 0.089982
1352.02795 0.091644
1352.13464 0.093345
1352.24146 0.09509
1352.34814 0.096889
1352.45496 0.098749
1352.56165 0.10068
1352.66846 0.102689
1352.77515 0.104786
1352.88196 0.106979
1352.98865 0.109276
1353.09546 0.111686
1353.20215 0.114212
1353.30896 0.116843
1353.41565 0.119568
1353.52246 0.122375
1353.62915 0.125251
1353.73596 0.128184
1353.84265 0.131163
1353.94946 0.134175
1354.05627 0.137208
1354.16296 0.140252
1354.26978 0.143307
1354.37646 0.146377
1354.48328 0.149466
1354.58997 0.152578
1354.69678 0.155717
1354.80347 0.158888
1354.91028 0.162096
1355.01697 0.165343
1355.12378 0.168636
1355.23047 0.171981
1355.33728 0.175391
1355.44397 0.17888
1355.55078 0.182459
1355.65747 0.186141
1355.76428 0.18994
1355.87097 0.193868
1355.97778 0.197937
1356.08447 0.202161
1356.19128 0.206543
1356.29797 0.21106
1356.40479 0.215683
1356.51160 0.220384
1356.61829 0.225134
1356.72510 0.229905
1356.83179 0.234669
1356.93860 0.239396
1357.04529 0.244059
1357.15210 0.248632
1357.25879 0.253126
1357.36560 0.257571
1357.47229 0.261994
1357.57910 0.266427
1357.68579 0.270899
1357.79260 0.27544
1357.89929 0.280078
1358.00610 0.284844
1358.11279 0.289767
1358.21960 0.294852
1358.32629 0.300072
1358.43311 0.305395
1358.53979 0.310791
1358.64661 0.316228
1358.75330 0.321676
1358.86011 0.327104
1358.96680 0.332481
1359.07361 0.337776
1359.18042 0.342965
1359.28711 0.348052
1359.39392 0.353049
1359.50061 0.357967
1359.60742 0.362818
1359.71411 0.367613
1359.82092 0.372364
1359.92761 0.377081
1360.03442 0.381778
1360.14111 0.386464
1360.24792 0.391153
1360.35461 0.395856
1360.46143 0.400586
1360.56812 0.405357
1360.67493 0.41018
1360.78162 0.415067
1360.88843 0.420033
1360.99512 0.425088
1361.10193 0.430245
1361.20862 0.435507
1361.31543 0.440851
1361.42212 0.446256
1361.52893 0.451698
1361.63562 0.457155
1361.74243 0.462603
1361.84924 0.468021
1361.95593 0.473384
1362.06274 0.478671
1362.16943 0.483862
1362.27625 0.488961
1362.38293 0.493981
1362.48975 0.498932
1362.59644 0.503827
1362.70325 0.508678
1362.80994 0.513495
1362.91675 0.518292
1363.02344 0.52308
1363.13025 0.527871
1363.23694 0.532674
1363.34375 0.537499
1363.45044 0.542354
1363.55725 0.547248
1363.66394 0.55219
1363.77075 0.557188
1363.87744 0.562251
1363.98425 0.567387
1364.09094 0.572605
1364.19775 0.577906
1364.30457 0.583264
1364.41125 0.588654
1364.51807 0.594048
1364.62476 0.59942
1364.73157 0.604742
1364.83826 0.609987
1364.94507 0.615128
1365.05176 0.620139
1365.15857 0.624995
1365.26526 0.6297
1365.37207 0.634269
1365.47876 0.638719
1365.58557 0.643064
1365.69226 0.647321
1365.79907 0.651504
1365.90576 0.655631
1366.01257 0.659716
1366.11926 0.663775
1366.22607 0.667825
1366.33276 0.671883
1366.43958 0.675968
1366.54626 0.680097
1366.65308 0.684288
1366.75977 0.688559
1366.86658 0.692928
1366.97339 0.697413
1367.08008 0.702031
1367.18689 0.706792
1367.29358 0.711673
1367.40039 0.716646
1367.50708 0.721684
1367.61389 0.726758
1367.72058 0.731839
1367.82739 0.7369
1367.93408 0.741912
1368.04089 0.746846
1368.14758 0.751678
1368.25439 0.756415
1368.36108 0.761082
1368.46790 0.765707
1368.57458 0.770317
1368.68140 0.774937
1368.78809 0.779595
1368.89490 0.784318
1369.00159 0.789133
1369.10840 0.794065
1369.21509 0.79912
1369.32190 0.804268
1369.42859 0.809477
1369.53540 0.814714
1369.64221 0.819945
1369.74890 0.825139
1369.85571 0.830263
1369.96240 0.835284
1370.06921 0.840169
1370.17590 0.844892
1370.28271 0.849456
1370.38940 0.853875
1370.49622 0.858159
1370.60291 0.862321
1370.70972 0.866373
1370.81641 0.870327
1370.92322 0.874195
1371.02991 0.877989
1371.13672 0.881722
1371.24341 0.885395
1371.35022 0.889006
1371.45691 0.892552
1371.56372 0.896028
1371.67041 0.899431
1371.77722 0.902759
1371.88391 0.906006
1371.99072 0.909171
1372.09753 0.912248
1372.20422 0.915235
1372.31104 0.918127
1372.41772 0.920917
1372.52454 0.923602
1372.63123 0.926175
1372.73804 0.928633
1372.84473 0.930969
1372.95154 0.933179
1373.05823 0.935257
1373.16504 0.937201
1373.27173 0.939021
1373.37854 0.940732
1373.48523 0.94235
1373.59204 0.943891
1373.69873 0.945369
1373.80554 0.946802
1373.91223 0.948204
1374.01904 0.949591
1374.12573 0.950978
1374.23254 0.952374
1374.33923 0.953779
1374.44604 0.955196
1374.55273 0.956624
1374.65955 0.958065
1374.76636 0.95952
1374.87305 0.96099
1374.97986 0.962475
1375.08655 0.963977
1375.19336 0.965495
1375.30005 0.96702
1375.40686 0.968546
1375.51355 0.970063
1375.62036 0.971563
1375.72705 0.973038
1375.83386 0.97448
1375.94055 0.97588
1376.04736 0.977231
1376.15405 0.978524
1376.26086 0.979758
1376.36755 0.980938
1376.47437 0.982066
1376.58105 0.983145
1376.68787 0.984178
1376.79456 0.985168
1376.90137 0.986119
1377.00806 0.987032
1377.11487 0.987912
1377.22156 0.98876
1377.32837 0.989578
1377.43518 0.990364
1377.54187 0.991121
1377.64868 0.991848
1377.75537 0.992546
1377.86218 0.993216
1377.96887 0.993858
1378.07568 0.994472
1378.18237 0.99506
1378.28918 0.995619
1378.39587 0.996148
1378.50269 0.996646
1378.60938 0.997111
1378.71619 0.997542
1378.82288 0.997937
1378.92969 0.998294
1379.03638 0.998612
1379.14319 0.998891
1379.24988 0.99913
1379.35669 0.999333
1379.46338 0.999502
1379.57019 0.999641
1379.67688 0.999753
1379.78369 0.99984
1379.89050 0.999906
1379.99719 0.999952
1380.10400 0.999983
1380.21069 0.999999
1380.31750 1.0
1380.42419 0.999984
1380.53101 0.99995
1380.63770 0.999896
1380.74451 0.999821
1380.85120 0.999724
1380.95801 0.999603
1381.06470 0.999457
1381.17151 0.999286
1381.27820 0.999089
1381.38501 0.998867
1381.49170 0.998621
1381.59851 0.998353
1381.70520 0.998064
1381.81201 0.997753
1381.91870 0.997423
1382.02551 0.997074
1382.13220 0.996706
1382.23901 0.99632
1382.34570 0.99591
1382.45251 0.995475
1382.55933 0.995009
1382.66602 0.994511
1382.77283 0.993976
1382.87952 0.9934
1382.98633 0.992781
1383.09302 0.992115
1383.19983 0.9914
1383.30652 0.990638
1383.41333 0.989833
1383.52002 0.988987
1383.62683 0.988103
1383.73352 0.987183
1383.84033 0.986232
1383.94702 0.985251
1384.05383 0.984244
1384.16052 0.983212
1384.26733 0.982157
1384.37402 0.981077
1384.48083 0.979971
1384.58752 0.978838
1384.69434 0.977676
1384.80103 0.976486
1384.90784 0.975265
1385.01453 0.974014
1385.12134 0.97273
1385.22815 0.971411
1385.33484 0.970053
1385.44165 0.968649
1385.54834 0.967197
1385.65515 0.965689
1385.76184 0.964122
1385.86865 0.962491
1385.97534 0.960791
1386.08215 0.959016
1386.18884 0.957166
1386.29565 0.955248
1386.40234 0.953274
1386.50916 0.951252
1386.61584 0.949194
1386.72266 0.947111
1386.82935 0.945012
1386.93616 0.942908
1387.04285 0.940809
1387.14966 0.938725
1387.25635 0.936656
1387.36316 0.934596
1387.46985 0.932538
1387.57666 0.930477
1387.68335 0.928407
1387.79016 0.926323
1387.89697 0.924218
1388.00366 0.922087
1388.11047 0.919922
1388.21716 0.917711
1388.32397 0.915425
1388.43066 0.913035
1388.53748 0.910513
1388.64417 0.907829
1388.75098 0.904954
1388.85767 0.901861
1388.96448 0.898519
1389.07117 0.894901
1389.17798 0.890986
1389.28467 0.886796
1389.39148 0.882361
1389.49817 0.877714
1389.60498 0.872886
1389.71167 0.867908
1389.81848 0.862812
1389.92517 0.857629
1390.03198 0.852391
1390.13867 0.847128
1390.24548 0.841855
1390.35229 0.836573
1390.45898 0.831285
1390.56580 0.825992
1390.67249 0.820696
1390.77930 0.815398
1390.88599 0.810101
1390.99280 0.804807
1391.09949 0.799517
1391.20630 0.79423
1391.31299 0.788942
1391.41980 0.783646
1391.52649 0.778337
1391.63330 0.773009
1391.73999 0.767655
1391.84680 0.762272
1391.95349 0.756851
1392.06030 0.751388
1392.16699 0.74588
1392.27380 0.740341
1392.38049 0.734789
1392.48730 0.729244
1392.59399 0.723726
1392.70081 0.718255
1392.80750 0.71285
1392.91431 0.707531
1393.02112 0.702317
1393.12781 0.697227
1393.23462 0.692263
1393.34131 0.68741
1393.44812 0.682653
1393.55481 0.677977
1393.66162 0.673365
1393.76831 0.668804
1393.87512 0.664277
1393.98181 0.659768
1394.08862 0.655263
1394.19531 0.650747
1394.30212 0.646207
1394.40881 0.641628
1394.51562 0.636998
1394.62231 0.632304
1394.72913 0.627533
1394.83582 0.622671
1394.94263 0.617705
1395.04932 0.612623
1395.15613 0.607413
1395.26282 0.602096
1395.36963 0.596701
1395.47632 0.591262
1395.58313 0.585811
1395.68994 0.580378
1395.79663 0.574997
1395.90344 0.569698
1396.01013 0.564514
1396.11694 0.559477
1396.22363 0.55459
1396.33044 0.549826
1396.43713 0.545154
1396.54395 0.540542
1396.65063 0.53596
1396.75745 0.531378
1396.86414 0.526764
1396.97095 0.522087
1397.07764 0.517317
1397.18445 0.512434
1397.29114 0.507456
1397.39795 0.50241
1397.50464 0.497322
1397.61145 0.49222
1397.71814 0.487131
1397.82495 0.482082
1397.93164 0.477099
1398.03845 0.472209
1398.14526 0.467438
1398.25195 0.462786
1398.35876 0.458241
1398.46545 0.45379
1398.57227 0.449418
1398.67896 0.445114
1398.78577 0.440863
1398.89246 0.436652
1398.99927 0.432468
1399.10596 0.428297
1399.21277 0.424127
1399.31946 0.419948
1399.42627 0.415746
1399.53296 0.411513
1399.63977 0.407236
1399.74646 0.402905
1399.85327 0.398509
1399.95996 0.394036
1400.06677 0.389476
1400.17346 0.384822
1400.28027 0.380087
1400.38696 0.375292
1400.49377 0.370455
1400.60046 0.365598
1400.70728 0.36074
1400.81409 0.355901
1400.92078 0.351101
1401.02759 0.346359
1401.13428 0.341694
1401.24109 0.337109
1401.34778 0.332594
1401.45459 0.328137
1401.56128 0.323726
1401.66809 0.31935
1401.77478 0.314998
1401.88159 0.310658
1401.98828 0.30632
1402.09509 0.301971
1402.20178 0.297602
1402.30859 0.293205
1402.41528 0.28877
1402.52209 0.284292
1402.62878 0.279761
1402.73560 0.275169
1402.84229 0.27051
1402.94910 0.265775
1403.05579 0.260957
1403.16260 0.256049
1403.26929 0.251071
1403.37610 0.246048
1403.48291 0.241008
1403.58960 0.235975
1403.69641 0.230977
1403.80310 0.22604
1403.90991 0.22119
1404.01660 0.216455
1404.12341 0.211859
1404.23010 0.207412
1404.33691 0.203104
1404.44360 0.198926
1404.55042 0.194868
1404.65710 0.190919
1404.76392 0.187069
1404.87061 0.183308
1404.97742 0.179625
1405.08411 0.176011
1405.19092 0.172456
1405.29761 0.16895
1405.40442 0.165487
1405.51111 0.162059
1405.61792 0.158658
1405.72461 0.155276
1405.83142 0.151907
1405.93823 0.148543
1406.04492 0.145176
1406.15173 0.141802
1406.25842 0.138429
1406.36523 0.135073
1406.47192 0.131749
1406.57874 0.128473
1406.68542 0.125262
1406.79224 0.122128
1406.89893 0.119089
1407.00574 0.116157
1407.11243 0.113349
1407.21924 0.110668
1407.32593 0.108103
1407.43274 0.105646
1407.53943 0.103284
1407.64624 0.101006
1407.75293 0.098804
1407.85974 0.096666
1407.96643 0.094581
1408.07324 0.092541
1408.17993 0.090535
1408.28674 0.08856
1408.39343 0.086614
1408.50024 0.084694
1408.60706 0.082799
1408.71375 0.080925
1408.82056 0.079071
1408.92725 0.077233
1409.03406 0.07541
1409.14075 0.0736
1409.24756 0.071806
1409.35425 0.070035
1409.46106 0.068295
1409.56775 0.066594
1409.67456 0.06494
1409.78125 0.06334
1409.88806 0.061801
1409.99475 0.060332
1410.10156 0.05894
1410.20825 0.057627
1410.31506 0.056386
1410.42175 0.055209
1410.52856 0.054088
1410.63525 0.053013
1410.74207 0.051976
1410.84875 0.05097
1410.95557 0.049985
1411.06226 0.049014
1411.16907 0.048049
1411.27588 0.047093
1411.38257 0.046148
1411.48938 0.045221
1411.59607 0.044316
1411.70288 0.043437
1411.80957 0.042588
1411.91638 0.041774
1412.02307 0.041001
1412.12988 0.040271
1412.23657 0.039585
1412.34338 0.03894
1412.45007 0.03833
1412.55688 0.037754
1412.66357 0.037206
1412.77039 0.036682
1412.87708 0.036179
1412.98389 0.035693
1413.09058 0.035219
1413.19739 0.034755
1413.30408 0.034299
1413.41089 0.03385
1413.51758 0.033406
1413.62439 0.032966
1413.73108 0.032528
1413.83789 0.032092
1413.94470 0.031656
1414.05139 0.031219
1414.15820 0.030779
1414.26489 0.030337
1414.37170 0.029896
1414.47839 0.029456
1414.58521 0.029021
1414.69189 0.02859
1414.79871 0.028167
1414.90540 0.027753
1415.01221 0.027349
1415.11890 0.026958
1415.22571 0.026579
1415.33240 0.026212
1415.43921 0.025856
1415.54590 0.02551
1415.65271 0.025173
1415.75940 0.024842
1415.86621 0.024519
1415.97290 0.024201
1416.07971 0.023887
1416.18640 0.023576
1416.29321 0.023269
1416.40002 0.022963
1416.50671 0.022659
1416.61353 0.022357
1416.72021 0.022055
1416.82703 0.021753
1416.93372 0.021451
1417.04053 0.021147
1417.14722 0.020843
1417.25403 0.020537
1417.36072 0.020232
1417.46753 0.019929
1417.57422 0.019629
1417.68103 0.019334
1417.78772 0.019044
1417.89453 0.018761
1418.00122 0.018487
1418.10803 0.018222
1418.21472 0.017967
1418.32153 0.017721
1418.42822 0.017484
1418.53503 0.017255
1418.64172 0.017033
1418.74854 0.016817
1418.85522 0.016606
1418.96204 0.0164
1419.06885 0.016198
1419.17554 0.015999
1419.28235 0.015802
1419.38904 0.015609
1419.49585 0.015417
1419.60254 0.015227
1419.70935 0.015039
1419.81604 0.014852
1419.92285 0.014666
1420.02954 0.01448
1420.13635 0.014296
1420.24304 0.014112
1420.34985 0.01393
1420.45654 0.01375
1420.56335 0.013573
1420.67004 0.013401
1420.77686 0.013234
1420.88354 0.013073
1420.99036 0.012918
1421.09705 0.01277
1421.20386 0.012631
1421.31055 0.012498
1421.41736 0.012372
1421.52405 0.012251
1421.63086 0.012135
1421.73767 0.012022
1421.84436 0.011912
1421.95117 0.011805
1422.05786 0.011698
1422.16467 0.011592
1422.27136 0.011487
1422.37817 0.011383
1422.48486 0.01128
1422.59167 0.01118
1422.69836 0.011082
1422.80518 0.010988
1422.91187 0.010898
1423.01868 0.010812
1423.12537 0.010731
1423.23218 0.010655
1423.33887 0.010583
1423.44568 0.010516
1423.55237 0.010452
1423.65918 0.010391
1423.76587 0.010334
1423.87268 0.010279
1423.97937 0.010226
1424.08618 0.010175
1424.19299 0.010125
1424.29968 0.010077
1424.40649 0.01003
1424.51318 0.009984
1424.62000 0.009939
1424.72668 0.009896
1424.83350 0.009853
1424.94019 0.009812
1425.04700 0.009771
1425.15369 0.009731
1425.26050 0.009692
1425.36719 0.009654
1425.47400 0.009617
1425.58069 0.009581
1425.68750 0.009547
1425.79419 0.009513
1425.90100 0.009481
1426.00769 0.009449
1426.11450 0.00942
1426.22119 0.009391
1426.32800 0.009364
1426.43469 0.009337
1426.54150 0.009312
1426.64819 0.009287
1426.75500 0.009263
1426.86182 0.009239
1426.96851 0.009216
1427.07532 0.009193
1427.18201 0.00917
1427.28882 0.009147
1427.39551 0.009124
1427.50232 0.0091
1427.60901 0.009076
1427.71582 0.009051
1427.82251 0.009025
1427.92932 0.008999
1428.03601 0.008971
1428.14282 0.008943
1428.24951 0.008913
1428.35632 0.008882
1428.46301 0.00885
1428.56982 0.008817
1428.67651 0.008784
1428.78333 0.00875
1428.89001 0.008715
1428.99683 0.00868
1429.10352 0.008645
1429.21033 0.00861
1429.31702 0.008574
1429.42383 0.008538
1429.53064 0.008502
1429.63733 0.008465
1429.74414 0.008428
1429.85083 0.008391
1429.95764 0.008354
1430.06433 0.008316
1430.17114 0.008277
1430.27783 0.008238
1430.38464 0.008198
1430.49133 0.008158
1430.59814 0.008117
1430.70483 0.008074
1430.81165 0.008031
1430.91833 0.007986
1431.02515 0.00794
1431.13184 0.007892
1431.23865 0.007843
1431.34534 0.007793
1431.45215 0.007742
1431.55884 0.00769
1431.66565 0.007638
1431.77234 0.007585
1431.87915 0.007532
1431.98596 0.007479
1432.09265 0.007427
1432.19946 0.007375
1432.30615 0.007324
1432.41296 0.007273
1432.51965 0.007223
1432.62646 0.007173
1432.73315 0.007123
1432.83997 0.007074
1432.94666 0.007025
1433.05347 0.006977
1433.16016 0.006929
1433.26697 0.006881
1433.37366 0.006832
1433.48047 0.006783
1433.58716 0.006733
1433.69397 0.006681
1433.80066 0.006627
1433.90747 0.006571
1434.01416 0.006513
1434.12097 0.006451
1434.22766 0.006387
1434.33447 0.006322
1434.44116 0.006256
1434.54797 0.006191
1434.65479 0.006129
1434.76147 0.006069
1434.86829 0.006015
1434.97498 0.005966
1435.08179 0.005923
1435.18848 0.005889
1435.29529 0.005862
1435.40198 0.005841
1435.50879 0.005826
1435.61548 0.005815
1435.72229 0.005807
1435.82898 0.005803
1435.93579 0.0058
1436.04248 0.005799
1436.14929 0.005798
1436.25598 0.005796
1579.88159 0.0
