# %ECSV 0.9
# ---
# datatype:
# - {name: wavelength, unit: Angstrom, datatype: float32}
# - {name: response, datatype: float32}
# meta: !!omap
# - {band_name: F1400}
# - {group_name: SPEC}
wavelength response
1212.24683 0.0
1346.94092 0.010058
1347.04773 0.010124
1347.15442 0.01019
1347.26123 0.010256
1347.36792 0.010321
1347.47473 0.010387
1347.58142 0.010453
1347.68823 0.01052
1347.79504 0.010587
1347.90173 0.010655
1348.00854 0.010725
1348.11523 0.010795
1348.22205 0.010868
1348.32874 0.010941
1348.43555 0.011015
1348.54224 0.011089
1348.64905 0.011163
1348.75574 0.011236
1348.86255 0.011308
1348.96924 0.011378
1349.07605 0.011447
1349.18274 0.011514
1349.28955 0.011578
1349.39624 0.011642
1349.50305 0.011704
1349.60974 0.011765
1349.71655 0.011827
1349.82324 0.011888
1349.93005 0.01195
1350.03674 0.012013
1350.14355 0.012078
1350.25024 0.012143
1350.35706 0.01221
1350.46387 0.012277
1350.57056 0.012345
1350.67737 0.012412
1350.78406 0.012478
1350.89087 0.012543
1350.99756 0.012607
1351.10437 0.012669
1351.21106 0.012729
1351.31787 0.012787
1351.42456 0.012843
1351.53137 0.012899
1351.63806 0.012953
1351.74487 0.013007
1351.85156 0.01306
1351.95837 0.013114
1352.06506 0.013168
1352.17188 0.013222
1352.27856 0.013278
1352.38538 0.013334
1352.49207 0.013391
1352.59888 0.013448
1352.70557 0.013507
1352.81238 0.013566
1352.91907 0.013626
1353.02588 0.013687
1353.13269 0.013749
1353.23938 0.013812
1353.34619 0.013875
1353.45288 0.013939
1353.55969 0.014004
1353.66638 0.014069
1353.77319 0.014134
1353.87988 0.014199
1353.98669 0.014265
1354.09338 0.01433
1354.20020 0.014395
1354.30688 0.014461
1354.41370 0.014526
1354.52039 0.014592
1354.62720 0.014658
1354.73389 0.014724
1354.84070 0.014791
1354.94739 0.014859
1355.05420 0.014927
1355.16089 0.014997
1355.26770 0.015067
1355.37439 0.015139
1355.48120 0.015213
1355.58789 0.01529
1355.69470 0.015368
1355.80151 0.01545
1355.90820 0.015535
1356.01501 0.015624
1356.12170 0.015716
1356.22852 0.015813
1356.33521 0.015913
1356.44202 0.016016
1356.54871 0.016121
1356.65552 0.016229
1356.76221 0.016339
1356.86902 0.01645
1356.97571 0.016562
1357.08252 0.016675
1357.18921 0.016787
1357.29602 0.0169
1357.40271 0.017013
1357.50952 0.017127
1357.61621 0.017242
1357.72302 0.017357
1357.82971 0.017474
1357.93652 0.017592
1358.04321 0.017711
1358.15002 0.017831
1358.25684 0.017954
1358.36353 0.018079
1358.47034 0.018206
1358.57703 0.018337
1358.68384 0.018472
1358.79053 0.01861
1358.89734 0.018754
1359.00403 0.018902
1359.11084 0.019056
1359.21753 0.019215
1359.32434 0.019379
1359.43103 0.019548
1359.53784 0.019719
1359.64453 0.019894
1359.75134 0.02007
1359.85803 0.020247
1359.96484 0.020425
1360.07153 0.020602
1360.17834 0.020778
1360.28503 0.020953
1360.39185 0.021128
1360.49854 0.021302
1360.60535 0.021477
1360.71204 0.021651
1360.81885 0.021825
1360.92566 0.022
1361.03235 0.022176
1361.13916 0.022353
1361.24585 0.022531
1361.35266 0.022712
1361.45935 0.022897
1361.56616 0.023086
1361.67285 0.023281
1361.77966 0.023482
1361.88635 0.02369
1361.99316 0.023907
1362.09985 0.024133
1362.20667 0.024368
1362.31335 0.024612
1362.42017 0.024862
1362.52686 0.025119
1362.63367 0.02538
1362.74036 0.025644
1362.84717 0.02591
1362.95386 0.026176
1363.06067 0.026441
1363.16736 0.026705
1363.27417 0.026969
1363.38086 0.027234
1363.48767 0.027504
1363.59448 0.02778
1363.70117 0.028064
1363.80798 0.02836
1363.91467 0.028669
1364.02148 0.028993
1364.12817 0.029334
1364.23499 0.029694
1364.34167 0.030069
1364.44849 0.030459
1364.55518 0.030862
1364.66199 0.031275
1364.76868 0.031698
1364.87549 0.032127
1364.98218 0.032562
1365.08899 0.033001
1365.19568 0.033443
1365.30249 0.033887
1365.40918 0.034335
1365.51599 0.034789
1365.62268 0.035247
1365.72949 0.035712
1365.83618 0.036185
1365.94299 0.036665
1366.04980 0.037154
1366.15649 0.037653
1366.26331 0.038164
1366.37000 0.038688
1366.47681 0.039228
1366.58350 0.039786
1366.69031 0.040364
1366.79700 0.040965
1366.90381 0.041589
1367.01050 0.042241
1367.11731 0.042921
1367.22400 0.04363
1367.33081 0.044363
1367.43750 0.045118
1367.54431 0.045891
1367.65100 0.046679
1367.75781 0.047477
1367.86450 0.048283
1367.97131 0.049092
1368.07800 0.049902
1368.18481 0.050709
1368.29150 0.051514
1368.39832 0.052317
1368.50500 0.05312
1368.61182 0.053923
1368.71863 0.054728
1368.82532 0.055536
1368.93213 0.056346
1369.03882 0.057161
1369.14563 0.057982
1369.25232 0.058811
1369.35913 0.059654
1369.46582 0.060515
1369.57263 0.061399
1369.67932 0.062311
1369.78613 0.063256
1369.89282 0.064239
1369.99963 0.065265
1370.10632 0.066337
1370.21313 0.067459
1370.31982 0.068627
1370.42664 0.069839
1370.53333 0.071091
1370.64014 0.07238
1370.74683 0.073702
1370.85364 0.075055
1370.96033 0.076434
1371.06714 0.077838
1371.17383 0.079263
1371.28064 0.080711
1371.38745 0.082183
1371.49414 0.083682
1371.60095 0.085209
1371.70764 0.086767
1371.81445 0.088357
1371.92114 0.089982
1372.02795 0.091644
1372.13464 0.093345
1372.24146 0.09509
1372.34814 0.096889
1372.45496 0.098749
1372.56165 0.10068
1372.66846 0.102689
1372.77515 0.104786
1372.88196 0.106979
1372.98865 0.109276
1373.09546 0.111686
1373.20215 0.114212
1373.30896 0.116843
1373.41565 0.119568
1373.52246 0.122375
1373.62915 0.125251
1373.73596 0.128184
1373.84265 0.131163
1373.94946 0.134175
1374.05627 0.137208
1374.16296 0.140252
1374.26978 0.143307
1374.37646 0.146377
1374.48328 0.149466
1374.58997 0.152578
1374.69678 0.155717
1374.80347 0.158888
1374.91028 0.162096
1375.01697 0.165343
1375.12378 0.168636
1375.23047 0.171981
1375.33728 0.175391
1375.44397 0.17888
1375.55078 0.182459
1375.65747 0.186141
1375.76428 0.18994
1375.87097 0.193868
1375.97778 0.197937
1376.08447 0.202161
1376.19128 0.206543
1376.29797 0.21106
1376.40479 0.215683
1376.51160 0.220384
1376.61829 0.225134
1376.72510 0.229905
1376.83179 0.234669
1376.93860 0.239396
1377.04529 0.244059
1377.15210 0.248632
1377.25879 0.253126
1377.36560 0.257571
1377.47229 0.261994
1377.57910 0.266427
1377.68579 0.270899
1377.79260 0.27544
1377.89929 0.280078
1378.00610 0.284844
1378.11279 0.289767
1378.21960 0.294852
1378.32629 0.300072
1378.43311 0.305395
1378.53979 0.310791
1378.64661 0.316228
1378.75330 0.321676
1378.86011 0.327104
1378.96680 0.332481
1379.07361 0.337776
1379.18042 0.342965
1379.28711 0.348052
1379.39392 0.353049
1379.50061 0.357967
1379.60742 0.362818
1379.71411 0.367613
1379.82092 0.372364
1379.92761 0.377081
1380.03442 0.381778
1380.14111 0.386464
1380.24792 0.391153
1380.35461 0.395856
1380.46143 0.400586
1380.56812 0.405357
1380.67493 0.41018
1380.78162 0.415067
1380.88843 0.420033
1380.99512 0.425088
1381.10193 0.430245
1381.20862 0.435507
1381.31543 0.440851
1381.42212 0.446256
1381.52893 0.451698
1381.63562 0.457155
1381.74243 0.462603
1381.84924 0.468021
1381.95593 0.473384
1382.06274 0.478671
1382.16943 0.483862
1382.27625 0.488961
1382.38293 0.493981
1382.48975 0.498932
1382.59644 0.503827
1382.70325 0.508678
1382.80994 0.513495
1382.91675 0.518292
1383.02344 0.52308
1383.13025 0.527871
1383.23694 0.532674
1383.34375 0.537499
1383.45044 0.542354
1383.55725 0.547248
1383.66394 0.55219
1383.77075 0.557188
1383.87744 0.562251
1383.98425 0.567387
1384.09094 0.572605
1384.19775 0.577906
1384.30457 0.583264
1384.41125 0.588654
1384.51807 0.594048
1384.62476 0.59942
1384.73157 0.604742
1384.83826 0.609987
1384.94507 0.615128
1385.05176 0.620139
1385.15857 0.624995
1385.26526 0.6297
1385.37207 0.634269
1385.47876 0.638719
1385.58557 0.643064
1385.69226 0.647321
1385.79907 0.651504
1385.90576 0.655631
1386.01257 0.659716
1386.11926 0.663775
1386.22607 0.667825
1386.33276 0.671883
1386.43958 0.675968
1386.54626 0.680097
1386.65308 0.684288
1386.75977 0.688559
1386.86658 0.692928
1386.97339 0.697413
1387.08008 0.702031
1387.18689 0.706792
1387.29358 0.711673
1387.40039 0.716646
1387.50708 0.721684
1387.61389 0.726758
1387.72058 0.731839
1387.82739 0.7369
1387.93408 0.741912
1388.04089 0.746846
1388.14758 0.751678
1388.25439 0.756415
1388.36108 0.761082
1388.46790 0.765707
1388.57458 0.770317
1388.68140 0.774937
1388.78809 0.779595
1388.89490 0.784318
1389.00159 0.789133
1389.10840 0.794065
1389.21509 0.79912
1389.32190 0.804268
1389.42859 0.809477
1389.53540 0.814714
1389.64221 0.819945
1389.74890 0.825139
1389.85571 0.830263
1389.96240 0.835284
1390.06921 0.840169
1390.17590 0.844892
1390.28271 0.849456
1390.38940 0.853875
1390.49622 0.858159
1390.60291 0.862321
1390.70972 0.866373
1390.81641 0.870327
1390.92322 0.874195
1391.02991 0.877989
1391.13672 0.881722
1391.24341 0.885395
1391.35022 0.889006
1391.45691 0.892552
1391.56372 0.896028
1391.67041 0.899431
1391.77722 0.902759
1391.88391 0.906006
1391.99072 0.909171
1392.09753 0.912248
1392.20422 0.915235
1392.31104 0.918127
1392.41772 0.920917
1392.52454 0.923602
1392.63123 0.926175
1392.73804 0.928633
1392.84473 0.930969
1392.95154 0.933179
1393.05823 0.935257
1393.16504 0.937201
1393.27173 0.939021
1393.37854 0.940732
1393.48523 0.94235
1393.59204 0.943891
1393.69873 0.945369
1393.80554 0.946802
1393.91223 0.948204
1394.01904 0.949591
1394.12573 0.950978
1394.23254 0.952374
1394.33923 0.953779
1394.44604 0.955196
1394.55273 0.956624
1394.65955 0.958065
1394.76636 0.95952
1394.87305 0.96099
1394.97986 0.962475
1395.08655 0.963977
1395.19336 0.965495
1395.30005 0.96702
1395.40686 0.968546
1395.51355 0.970063
1395.62036 0.971563
1395.72705 0.973038
1395.83386 0.97448
1395.94055 0.97588
1396.04736 0.977231
1396.15405 0.978524
1396.26086 0.979758
1396.36755 0.980938
1396.47437 0.982066
1396.58105 0.983145
1396.68787 0.984178
1396.79456 0.985168
1396.90137 0.986119
1397.00806 0.987032
1397.11487 0.987912
1397.22156 0.98876
1397.32837 0.989578
1397.43518 0.990364
1397.54187 0.991121
1397.64868 0.991848
1397.75537 0.992546
1397.86218 0.993216
1397.96887 0.993858
1398.07568 0.994472
1398.18237 0.99506
1398.28918 0.995619
1398.39587 0.996148
1398.50269 0.996646
1398.60938 0.997111
1398.71619 0.997542
1398.82288 0.997937
1398.92969 0.998294
1399.03638 0.998612
1399.14319 0.998891
1399.24988 0.99913
1399.35669 0.999333
1399.46338 0.999502
1399.57019 0.999641
1399.67688 0.999753
1399.78369 0.99984
1399.89050 0.999906
1399.99719 0.999952
1400.10400 0.999983
1400.21069 0.999999
1400.31750 1.0
1400.42419 0.999984
1400.53101 0.99995
1400.63770 0.999896
1400.74451 0.999821
1400.85120 0.999724
1400.95801 0.999603
1401.06470 0.999457
1401.17151 0.999286
1401.27820 0.999089
1401.38501 0.998867
1401.49170 0.998621
1401.59851 0.998353
1401.70520 0.998064
1401.81201 0.997753
1401.91870 0.997423
1402.02551 0.997074
1402.13220 0.996706
1402.23901 0.99632
1402.34570 0.99591
1402.45251 0.995475
1402.55933 0.995009
1402.66602 0.994511
1402.77283 0.993976
1402.87952 0.9934
1402.98633 0.992781
1403.09302 0.992115
1403.19983 0.9914
1403.30652 0.990638
1403.41333 0.989833
1403.52002 0.988987
1403.62683 0.988103
1403.73352 0.987183
1403.84033 0.986232
1403.94702 0.985251
1404.05383 0.984244
1404.16052 0.983212
1404.26733 0.982157
1404.37402 0.981077
1404.48083 0.979971
1404.58752 0.978838
1404.69434 0.977676
1404.80103 0.976486
1404.90784 0.975265
1405.01453 0.974014
1405.12134 0.97273
1405.22815 0.971411
1405.33484 0.970053
1405.44165 0.968649
1405.54834 0.967197
1405.65515 0.965689
1405.76184 0.964122
1405.86865 0.962491
1405.97534 0.960791
1406.08215 0.959016
1406.18884 0.957166
1406.29565 0.955248
1406.40234 0.953274
1406.50916 0.951252
1406.61584 0.949194
1406.72266 0.947111
1406.82935 0.945012
1406.93616 0.942908
1407.04285 0.940809
1407.14966 0.938725
1407.25635 0.936656
1407.36316 0.934596
1407.46985 0.932538
1407.57666 0.930477
1407.68335 0.928407
1407.79016 0.926323
1407.89697 0.924218
1408.00366 0.922087
1408.11047 0.919922
1408.21716 0.917711
1408.32397 0.915425
1408.43066 0.913035
1408.53748 0.910513
1408.64417 0.907829
1408.75098 0.904954
1408.85767 0.901861
1408.96448 0.898519
1409.07117 0.894901
1409.17798 0.890986
1409.28467 0.886796
1409.39148 0.882361
1409.49817 0.877714
1409.60498 0.872886
1409.71167 0.867908
1409.81848 0.862812
1409.92517 0.857629
1410.03198 0.852391
1410.13867 0.847128
1410.24548 0.841855
1410.35229 0.836573
1410.45898 0.831285
1410.56580 0.825992
1410.67249 0.820696
1410.77930 0.815398
1410.88599 0.810101
1410.99280 0.804807
1411.09949 0.799517
1411.20630 0.79423
1411.31299 0.788942
1411.41980 0.783646
1411.52649 0.778337
1411.63330 0.773009
1411.73999 0.767655
1411.84680 0.762272
1411.95349 0.756851
1412.06030 0.751388
1412.16699 0.74588
1412.27380 0.740341
1412.38049 0.734789
1412.48730 0.729244
1412.59399 0.723726
1412.70081 0.718255
1412.80750 0.71285
1412.91431 0.707531
1413.02112 0.702317
1413.12781 0.697227
1413.23462 0.692263
1413.34131 0.68741
1413.44812 0.682653
1413.55481 0.677977
1413.66162 0.673365
1413.76831 0.668804
1413.87512 0.664277
1413.98181 0.659768
1414.08862 0.655263
1414.19531 0.650747
1414.30212 0.646207
1414.40881 0.641628
1414.51562 0.636998
1414.62231 0.632304
1414.72913 0.627533
1414.83582 0.622671
1414.94263 0.617705
1415.04932 0.612623
1415.15613 0.607413
1415.26282 0.602096
1415.36963 0.596701
1415.47632 0.591262
1415.58313 0.585811
1415.68994 0.580378
1415.79663 0.574997
1415.90344 0.569698
1416.01013 0.564514
1416.11694 0.559477
1416.22363 0.55459
1416.33044 0.549826
1416.43713 0.545154
1416.54395 0.540542
1416.65063 0.53596
1416.75745 0.531378
1416.86414 0.526764
1416.97095 0.522087
1417.07764 0.517317
1417.18445 0.512434
1417.29114 0.507456
1417.39795 0.50241
1417.50464 0.497322
1417.61145 0.49222
1417.71814 0.487131
1417.82495 0.482082
1417.93164 0.477099
1418.03845 0.472209
1418.14526 0.467438
1418.25195 0.462786
1418.35876 0.458241
1418.46545 0.45379
1418.57227 0.449418
1418.67896 0.445114
1418.78577 0.440863
1418.89246 0.436652
1418.99927 0.432468
1419.10596 0.428297
1419.21277 0.424127
1419.31946 0.419948
1419.42627 0.415746
1419.53296 0.411513
1419.63977 0.407236
1419.74646 0.402905
1419.85327 0.398509
1419.95996 0.394036
1420.06677 0.389476
1420.17346 0.384822
1420.28027 0.380087
1420.38696 0.375292
1420.49377 0.370455
1420.60046 0.365598
1420.70728 0.36074
1420.81409 0.355901
1420.92078 0.351101
1421.02759 0.346359
1421.13428 0.341694
1421.24109 0.337109
1421.34778 0.332594
1421.45459 0.328137
1421.56128 0.323726
1421.66809 0.31935
1421.77478 0.314998
1421.88159 0.310658
1421.98828 0.30632
1422.09509 0.301971
1422.20178 0.297602
1422.30859 0.293205
1422.41528 0.28877
1422.52209 0.284292
1422.62878 0.279761
1422.73560 0.275169
1422.84229 0.27051
1422.94910 0.265775
1423.05579 0.260957
1423.16260 0.256049
1423.26929 0.251071
1423.37610 0.246048
1423.48291 0.241008
1423.58960 0.235975
1423.69641 0.230977
1423.80310 0.22604
1423.90991 0.22119
1424.01660 0.216455
1424.12341 0.211859
1424.23010 0.207412
1424.33691 0.203104
1424.44360 0.198926
1424.55042 0.194868
1424.65710 0.190919
1424.76392 0.187069
1424.87061 0.183308
1424.97742 0.179625
1425.08411 0.176011
1425.19092 0.172456
1425.29761 0.16895
1425.40442 0.165487
1425.51111 0.162059
1425.61792 0.158658
1425.72461 0.155276
1425.83142 0.151907
1425.93823 0.148543
1426.04492 0.145176
1426.15173 0.141802
1426.25842 0.138429
1426.36523 0.135073
1426.47192 0.131749
1426.57874 0.128473
1426.68542 0.125262
1426.79224 0.122128
1426.89893 0.119089
1427.00574 0.116157
1427.11243 0.113349
1427.21924 0.110668
1427.32593 0.108103
1427.43274 0.105646
1427.53943 0.103284
1427.64624 0.101006
1427.75293 0.098804
1427.85974 0.096666
1427.96643 0.094581
1428.07324 0.092541
1428.17993 0.090535
1428.28674 0.08856
1428.39343 0.086614
1428.50024 0.084694
1428.60706 0.082799
1428.71375 0.080925
1428.82056 0.079071
1428.92725 0.077233
1429.03406 0.07541
1429.14075 0.0736
1429.24756 0.071806
1429.35425 0.070035
1429.46106 0.068295
1429.56775 0.066594
1429.67456 0.06494
1429.78125 0.06334
1429.88806 0.061801
1429.99475 0.060332
1430.10156 0.05894
1430.20825 0.057627
1430.31506 0.056386
1430.42175 0.055209
1430.52856 0.054088
1430.63525 0.053013
1430.74207 0.051976
1430.84875 0.05097
1430.95557 0.049985
1431.06226 0.049014
1431.16907 0.048049
1431.27588 0.047093
1431.38257 0.046148
1431.48938 0.045221
1431.59607 0.044316
1431.70288 0.043437
1431.80957 0.042588
1431.91638 0.041774
1432.02307 0.041001
1432.12988 0.040271
1432.23657 0.039585
1432.34338 0.03894
1432.45007 0.03833
1432.55688 0.037754
1432.66357 0.037206
1432.77039 0.036682
1432.87708 0.036179
1432.98389 0.035693
1433.09058 0.035219
1433.19739 0.034755
1433.30408 0.034299
1433.41089 0.03385
1433.51758 0.033406
1433.62439 0.032966
1433.73108 0.032528
1433.83789 0.032092
1433.94470 0.031656
1434.05139 0.031219
1434.15820 0.030779
1434.26489 0.030337
1434.37170 0.029896
1434.47839 0.029456
1434.58521 0.029021
1434.69189 0.02859
1434.79871 0.028167
1434.90540 0.027753
1435.01221 0.027349
1435.11890 0.026958
1435.22571 0.026579
1435.33240 0.026212
1435.43921 0.025856
1435.54590 0.02551
1435.65271 0.025173
1435.75940 0.024842
1435.86621 0.024519
1435.97290 0.024201
1436.07971 0.023887
1436.18640 0.023576
1436.29321 0.023269
1436.40002 0.022963
1436.50671 0.022659
1436.61353 0.022357
1436.72021 0.022055
1436.82703 0.021753
1436.93372 0.021451
1437.04053 0.021147
1437.14722 0.020843
1437.25403 0.020537
1437.36072 0.020232
1437.46753 0.019929
1437.57422 0.019629
1437.68103 0.019334
1437.78772 0.019044
1437.89453 0.018761
1438.00122 0.018487
1438.10803 0.018222
1438.21472 0.017967
1438.32153 0.017721
1438.42822 0.017484
1438.53503 0.017255
1438.64172 0.017033
1438.74854 0.016817
1438.85522 0.016606
1438.96204 0.0164
1439.06885 0.016198
1439.17554 0.015999
1439.28235 0.015802
1439.38904 0.015609
1439.49585 0.015417
1439.60254 0.015227
1439.70935 0.015039
1439.81604 0.014852
1439.92285 0.014666
1440.02954 0.01448
1440.13635 0.014296
1440.24304 0.014112
1440.34985 0.01393
1440.45654 0.01375
1440.56335 0.013573
1440.67004 0.013401
1440.77686 0.013234
1440.88354 0.013073
1440.99036 0.012918
1441.09705 0.01277
1441.20386 0.012631
1441.31055 0.012498
1441.41736 0.012372
1441.52405 0.012251
1441.63086 0.012135
1441.73767 0.012022
1441.84436 0.011912
1441.95117 0.011805
1442.05786 0.011698
1442.16467 0.011592
1442.27136 0.011487
1442.37817 0.011383
1442.48486 0.01128
1442.59167 0.01118
1442.69836 0.011082
1442.80518 0.010988
1442.91187 0.010898
1443.01868 0.010812
1443.12537 0.010731
1443.23218 0.010655
1443.33887 0.010583
1443.44568 0.010516
1443.55237 0.010452
1443.65918 0.010391
1443.76587 0.010334
1443.87268 0.010279
1443.97937 0.010226
1444.08618 0.010175
1444.19299 0.010125
1444.29968 0.010077
1444.40649 0.01003
1444.51318 0.009984
1444.62000 0.009939
1444.72668 0.009896
1444.83350 0.009853
1444.94019 0.009812
1445.04700 0.009771
1445.15369 0.009731
1445.26050 0.009692
1445.36719 0.009654
1445.47400 0.009617
1445.58069 0.009581
1445.68750 0.009547
1445.79419 0.009513
1445.90100 0.009481
1446.00769 0.009449
1446.11450 0.00942
1446.22119 0.009391
1446.32800 0.009364
1446.43469 0.009337
1446.54150 0.009312
1446.64819 0.009287
1446.75500 0.009263
1446.86182 0.009239
1446.96851 0.009216
1447.07532 0.009193
1447.18201 0.00917
1447.28882 0.009147
1447.39551 0.009124
1447.50232 0.0091
1447.60901 0.009076
1447.71582 0.009051
1447.82251 0.009025
1447.92932 0.008999
1448.03601 0.008971
1448.14282 0.008943
1448.24951 0.008913
1448.35632 0.008882
1448.46301 0.00885
1448.56982 0.008817
1448.67651 0.008784
1448.78333 0.00875
1448.89001 0.008715
1448.99683 0.00868
1449.10352 0.008645
1449.21033 0.00861
1449.31702 0.008574
1449.42383 0.008538
1449.53064 0.008502
1449.63733 0.008465
1449.74414 0.008428
1449.85083 0.008391
1449.95764 0.008354
1450.06433 0.008316
1450.17114 0.008277
1450.27783 0.008238
1450.38464 0.008198
1450.49133 0.008158
1450.59814 0.008117
1450.70483 0.008074
1450.81165 0.008031
1450.91833 0.007986
1451.02515 0.00794
1451.13184 0.007892
1451.23865 0.007843
1451.34534 0.007793
1451.45215 0.007742
1451.55884 0.00769
1451.66565 0.007638
1451.77234 0.007585
1451.87915 0.007532
1451.98596 0.007479
1452.09265 0.007427
1452.19946 0.007375
1452.30615 0.007324
1452.41296 0.007273
1452.51965 0.007223
1452.62646 0.007173
1452.73315 0.007123
1452.83997 0.007074
1452.94666 0.007025
1453.05347 0.006977
1453.16016 0.006929
1453.26697 0.006881
1453.37366 0.006832
1453.48047 0.006783
1453.58716 0.006733
1453.69397 0.006681
1453.80066 0.006627
1453.90747 0.006571
1454.01416 0.006513
1454.12097 0.006451
1454.22766 0.006387
1454.33447 0.006322
1454.44116 0.006256
1454.54797 0.006191
1454.65479 0.006129
1454.76147 0.006069
1454.86829 0.006015
1454.97498 0.005966
1455.08179 0.005923
1455.18848 0.005889
1455.29529 0.005862
1455.40198 0.005841
1455.50879 0.005826
1455.61548 0.005815
1455.72229 0.005807
1455.82898 0.005803
1455.93579 0.0058
1456.04248 0.005799
1456.14929 0.005798
1456.25598 0.005796
1601.88159 0.0
