# %ECSV 0.9
# ---
# datatype:
# - {name: wavelength, unit: Angstrom, datatype: float32}
# - {name: response, datatype: float32}
# meta: !!omap
# - {band_name: F1440}
# - {group_name: SPEC}
wavelength response
1248.24683 0.0
1386.94092 0.010058
1387.04773 0.010124
1387.15442 0.01019
1387.26123 0.010256
1387.36792 0.010321
1387.47473 0.010387
1387.58142 0.010453
1387.68823 0.01052
1387.79504 0.010587
1387.90173 0.010655
1388.00854 0.010725
1388.11523 0.010795
1388.22205 0.010868
1388.32874 0.010941
1388.43555 0.011015
1388.54224 0.011089
1388.64905 0.011163
1388.75574 0.011236
1388.86255 0.011308
1388.96924 0.011378
1389.07605 0.011447
1389.18274 0.011514
1389.28955 0.011578
1389.39624 0.011642
1389.50305 0.011704
1389.60974 0.011765
1389.71655 0.011827
1389.82324 0.011888
1389.93005 0.01195
1390.03674 0.012013
1390.14355 0.012078
1390.25024 0.012143
1390.35706 0.01221
1390.46387 0.012277
1390.57056 0.012345
1390.67737 0.012412
1390.78406 0.012478
1390.89087 0.012543
1390.99756 0.012607
1391.10437 0.012669
1391.21106 0.012729
1391.31787 0.012787
1391.42456 0.012843
1391.53137 0.012899
1391.63806 0.012953
1391.74487 0.013007
1391.85156 0.01306
1391.95837 0.013114
1392.06506 0.013168
1392.17188 0.013222
1392.27856 0.013278
1392.38538 0.013334
1392.49207 0.013391
1392.59888 0.013448
1392.70557 0.013507
1392.81238 0.013566
1392.91907 0.013626
1393.02588 0.013687
1393.13269 0.013749
1393.23938 0.013812
1393.34619 0.013875
1393.45288 0.013939
1393.55969 0.014004
1393.66638 0.014069
1393.77319 0.014134
1393.87988 0.014199
1393.98669 0.014265
1394.09338 0.01433
1394.20020 0.014395
1394.30688 0.014461
1394.41370 0.014526
1394.52039 0.014592
1394.62720 0.014658
1394.73389 0.014724
1394.84070 0.014791
1394.94739 0.014859
1395.05420 0.014927
1395.16089 0.014997
1395.26770 0.015067
1395.37439 0.015139
1395.48120 0.015213
1395.58789 0.01529
1395.69470 0.015368
1395.80151 0.01545
1395.90820 0.015535
1396.01501 0.015624
1396.12170 0.015716
1396.22852 0.015813
1396.33521 0.015913
1396.44202 0.016016
1396.54871 0.016121
1396.65552 0.016229
1396.76221 0.016339
1396.86902 0.01645
1396.97571 0.016562
1397.08252 0.016675
1397.18921 0.016787
1397.29602 0.0169
1397.40271 0.017013
1397.50952 0.017127
1397.61621 0.017242
1397.72302 0.017357
1397.82971 0.017474
1397.93652 0.017592
1398.04321 0.017711
1398.15002 0.017831
1398.25684 0.017954
1398.36353 0.018079
1398.47034 0.018206
1398.57703 0.018337
1398.68384 0.018472
1398.79053 0.01861
1398.89734 0.018754
1399.00403 0.018902
1399.11084 0.019056
1399.21753 0.019215
1399.32434 0.019379
1399.43103 0.019548
1399.53784 0.019719
1399.64453 0.019894
1399.75134 0.02007
1399.85803 0.020247
1399.96484 0.020425
1400.07153 0.020602
1400.17834 0.020778
1400.28503 0.020953
1400.39185 0.021128
1400.49854 0.021302
1400.60535 0.021477
1400.71204 0.021651
1400.81885 0.021825
1400.92566 0.022
1401.03235 0.022176
1401.13916 0.022353
1401.24585 0.022531
1401.35266 0.022712
1401.45935 0.022897
1401.56616 0.023086
1401.67285 0.023281
1401.77966 0.023482
1401.88635 0.02369
1401.99316 0.023907
1402.09985 0.024133
1402.20667 0.024368
1402.31335 0.024612
1402.42017 0.024862
1402.52686 0.025119
1402.63367 0.02538
1402.74036 0.025644
1402.84717 0.02591
1402.95386 0.026176
1403.06067 0.026441
1403.16736 0.026705
1403.27417 0.026969
1403.38086 0.027234
1403.48767 0.027504
1403.59448 0.02778
1403.70117 0.028064
1403.80798 0.02836
1403.91467 0.028669
1404.02148 0.028993
1404.12817 0.029334
1404.23499 0.029694
1404.34167 0.030069
1404.44849 0.030459
1404.55518 0.030862
1404.66199 0.031275
1404.76868 0.031698
1404.87549 0.032127
1404.98218 0.032562
1405.08899 0.033001
1405.19568 0.033443
1405.30249 0.033887
1405.40918 0.034335
1405.51599 0.034789
1405.62268 0.035247
1405.72949 0.035712
1405.83618 0.036185
1405.94299 0.036665
1406.04980 0.037154
1406.15649 0.037653
1406.26331 0.038164
1406.37000 0.038688
1406.47681 0.039228
1406.58350 0.039786
1406.69031 0.040364
1406.79700 0.040965
1406.90381 0.041589
1407.01050 0.042241
1407.11731 0.042921
1407.22400 0.04363
1407.33081 0.044363
1407.43750 0.045118
1407.54431 0.045891
1407.65100 0.046679
1407.75781 0.047477
1407.86450 0.048283
1407.97131 0.049092
1408.07800 0.049902
1408.18481 0.050709
1408.29150 0.051514
1408.39832 0.052317
1408.50500 0.05312
1408.61182 0.053923
1408.71863 0.054728
1408.82532 0.055536
1408.93213 0.056346
1409.03882 0.057161
1409.14563 0.057982
1409.25232 0.058811
1409.35913 0.059654
1409.46582 0.060515
1409.57263 0.061399
1409.67932 0.062311
1409.78613 0.063256
1409.89282 0.064239
1409.99963 0.065265
1410.10632 0.066337
1410.21313 0.067459
1410.31982 0.068627
1410.42664 0.069839
1410.53333 0.071091
1410.64014 0.07238
1410.74683 0.073702
1410.85364 0.075055
1410.96033 0.076434
1411.06714 0.077838
1411.17383 0.079263
1411.28064 0.080711
1411.38745 0.082183
1411.49414 0.083682
1411.60095 0.085209
1411.70764 0.086767
1411.81445 0.088357
1411.92114 0.089982
1412.02795 0.091644
1412.13464 0.093345
1412.24146 0.09509
1412.34814 0.096889
1412.45496 0.098749
1412.56165 0.10068
1412.66846 0.102689
1412.77515 0.104786
1412.88196 0.106979
1412.98865 0.109276
1413.09546 0.111686
1413.20215 0.114212
1413.30896 0.116843
1413.41565 0.119568
1413.52246 0.122375
1413.62915 0.125251
1413.73596 0.128184
1413.84265 0.131163
1413.94946 0.134175
1414.05627 0.137208
1414.16296 0.140252
1414.26978 0.143307
1414.37646 0.146377
1414.48328 0.149466
1414.58997 0.152578
1414.69678 0.155717
1414.80347 0.158888
1414.91028 0.162096
1415.01697 0.165343
1415.12378 0.168636
1415.23047 0.171981
1415.33728 0.175391
1415.44397 0.17888
1415.55078 0.182459
1415.65747 0.186141
1415.76428 0.18994
1415.87097 0.193868
1415.97778 0.197937
1416.08447 0.202161
1416.19128 0.206543
1416.29797 0.21106
1416.40479 0.215683
1416.51160 0.220384
1416.61829 0.225134
1416.72510 0.229905
1416.83179 0.234669
1416.93860 0.239396
1417.04529 0.244059
1417.15210 0.248632
1417.25879 0.253126
1417.36560 0.257571
1417.47229 0.261994
1417.57910 0.266427
1417.68579 0.270899
1417.79260 0.27544
1417.89929 0.280078
1418.00610 0.284844
1418.11279 0.289767
1418.21960 0.294852
1418.32629 0.300072
1418.43311 0.305395
1418.53979 0.310791
1418.64661 0.316228
1418.75330 0.321676
1418.86011 0.327104
1418.96680 0.332481
1419.07361 0.337776
1419.18042 0.342965
1419.28711 0.348052
1419.39392 0.353049
1419.50061 0.357967
1419.60742 0.362818
1419.71411 0.367613
1419.82092 0.372364
1419.92761 0.377081
1420.03442 0.381778
1420.14111 0.386464
1420.24792 0.391153
1420.35461 0.395856
1420.46143 0.400586
1420.56812 0.405357
1420.67493 0.41018
1420.78162 0.415067
1420.88843 0.420033
1420.99512 0.425088
1421.10193 0.430245
1421.20862 0.435507
1421.31543 0.440851
1421.42212 0.446256
1421.52893 0.451698
1421.63562 0.457155
1421.74243 0.462603
1421.84924 0.468021
1421.95593 0.473384
1422.06274 0.478671
1422.16943 0.483862
1422.27625 0.488961
1422.38293 0.493981
1422.48975 0.498932
1422.59644 0.503827
1422.70325 0.508678
1422.80994 0.513495
1422.91675 0.518292
1423.02344 0.52308
1423.13025 0.527871
1423.23694 0.532674
1423.34375 0.537499
1423.45044 0.542354
1423.55725 0.547248
1423.66394 0.55219
1423.77075 0.557188
1423.87744 0.562251
1423.98425 0.567387
1424.09094 0.572605
1424.19775 0.577906
1424.30457 0.583264
1424.41125 0.588654
1424.51807 0.594048
1424.62476 0.59942
1424.73157 0.604742
1424.83826 0.609987
1424.94507 0.615128
1425.05176 0.620139
1425.15857 0.624995
1425.26526 0.6297
1425.37207 0.634269
1425.47876 0.638719
1425.58557 0.643064
1425.69226 0.647321
1425.79907 0.651504
1425.90576 0.655631
1426.01257 0.659716
1426.11926 0.663775
1426.22607 0.667825
1426.33276 0.671883
1426.43958 0.675968
1426.54626 0.680097
1426.65308 0.684288
1426.75977 0.688559
1426.86658 0.692928
1426.97339 0.697413
1427.08008 0.702031
1427.18689 0.706792
1427.29358 0.711673
1427.40039 0.716646
1427.50708 0.721684
1427.61389 0.726758
1427.72058 0.731839
1427.82739 0.7369
1427.93408 0.741912
1428.04089 0.746846
1428.14758 0.751678
1428.25439 0.756415
1428.36108 0.761082
1428.46790 0.765707
1428.57458 0.770317
1428.68140 0.774937
1428.78809 0.779595
1428.89490 0.784318
1429.00159 0.789133
1429.10840 0.794065
1429.21509 0.79912
1429.32190 0.804268
1429.42859 0.809477
1429.53540 0.814714
1429.64221 0.819945
1429.74890 0.825139
1429.85571 0.830263
1429.96240 0.835284
1430.06921 0.840169
1430.17590 0.844892
1430.28271 0.849456
1430.38940 0.853875
1430.49622 0.858159
1430.60291 0.862321
1430.70972 0.866373
1430.81641 0.870327
1430.92322 0.874195
1431.02991 0.877989
1431.13672 0.881722
1431.24341 0.885395
1431.35022 0.889006
1431.45691 0.892552
1431.56372 0.896028
1431.67041 0.899431
1431.77722 0.902759
1431.88391 0.906006
1431.99072 0.909171
1432.09753 0.912248
1432.20422 0.915235
1432.31104 0.918127
1432.41772 0.920917
1432.52454 0.923602
1432.63123 0.926175
1432.73804 0.928633
1432.84473 0.930969
1432.95154 0.933179
1433.05823 0.935257
1433.16504 0.937201
1433.27173 0.939021
1433.37854 0.940732
1433.48523 0.94235
1433.59204 0.943891
1433.69873 0.945369
1433.80554 0.946802
1433.91223 0.948204
1434.01904 0.949591
1434.12573 0.950978
1434.23254 0.952374
1434.33923 0.953779
1434.44604 0.955196
1434.55273 0.956624
1434.65955 0.958065
1434.76636 0.95952
1434.87305 0.96099
1434.97986 0.962475
1435.08655 0.963977
1435.19336 0.965495
1435.30005 0.96702
1435.40686 0.968546
1435.51355 0.970063
1435.62036 0.971563
1435.72705 0.973038
1435.83386 0.97448
1435.94055 0.97588
1436.04736 0.977231
1436.15405 0.978524
1436.26086 0.979758
1436.36755 0.980938
1436.47437 0.982066
1436.58105 0.983145
1436.68787 0.984178
1436.79456 0.985168
1436.90137 0.986119
1437.00806 0.987032
1437.11487 0.987912
1437.22156 0.98876
1437.32837 0.989578
1437.43518 0.990364
1437.54187 0.991121
1437.64868 0.991848
1437.75537 0.992546
1437.86218 0.993216
1437.96887 0.993858
1438.07568 0.994472
1438.18237 0.99506
1438.28918 0.995619
1438.39587 0.996148
1438.50269 0.996646
1438.60938 0.997111
1438.71619 0.997542
1438.82288 0.997937
1438.92969 0.998294
1439.03638 0.998612
1439.14319 0.998891
1439.24988 0.99913
1439.35669 0.999333
1439.46338 0.999502
1439.57019 0.999641
1439.67688 0.999753
1439.78369 0.99984
1439.89050 0.999906
1439.99719 0.999952
1440.10400 0.999983
1440.21069 0.999999
1440.31750 1.0
1440.42419 0.999984
1440.53101 0.99995
1440.63770 0.999896
1440.74451 0.999821
1440.85120 0.999724
1440.95801 0.999603
1441.06470 0.999457
1441.17151 0.999286
1441.27820 0.999089
1441.38501 0.998867
1441.49170 0.998621
1441.59851 0.998353
1441.70520 0.998064
1441.81201 0.997753
1441.91870 0.997423
1442.02551 0.997074
1442.13220 0.996706
1442.23901 0.99632
1442.34570 0.99591
1442.45251 0.995475
1442.55933 0.995009
1442.66602 0.994511
1442.77283 0.993976
1442.87952 0.9934
1442.98633 0.992781
1443.09302 0.992115
1443.19983 0.9914
1443.30652 0.990638
1443.41333 0.989833
1443.52002 0.988987
1443.62683 0.988103
1443.73352 0.987183
1443.84033 0.986232
1443.94702 0.985251
1444.05383 0.984244
1444.16052 0.983212
1444.26733 0.982157
1444.37402 0.981077
1444.48083 0.979971
1444.58752 0.978838
1444.69434 0.977676
1444.80103 0.976486
1444.90784 0.975265
1445.01453 0.974014
1445.12134 0.97273
1445.22815 0.971411
1445.33484 0.970053
1445.44165 0.968649
1445.54834 0.967197
1445.65515 0.965689
1445.76184 0.964122
1445.86865 0.962491
1445.97534 0.960791
1446.08215 0.959016
1446.18884 0.957166
1446.29565 0.955248
1446.40234 0.953274
1446.50916 0.951252
1446.61584 0.949194
1446.72266 0.947111
1446.82935 0.945012
1446.93616 0.942908
1447.04285 0.940809
1447.14966 0.938725
1447.25635 0.936656
1447.36316 0.934596
1447.46985 0.932538
1447.57666 0.930477
1447.68335 0.928407
1447.79016 0.926323
1447.89697 0.924218
1448.00366 0.922087
1448.11047 0.919922
1448.21716 0.917711
1448.32397 0.915425
1448.43066 0.913035
1448.53748 0.910513
1448.64417 0.907829
1448.75098 0.904954
1448.85767 0.901861
1448.96448 0.898519
1449.07117 0.894901
1449.17798 0.890986
1449.28467 0.886796
1449.39148 0.882361
1449.49817 0.877714
1449.60498 0.872886
1449.71167 0.867908
1449.81848 0.862812
1449.92517 0.857629
1450.03198 0.852391
1450.13867 0.847128
1450.24548 0.841855
1450.35229 0.836573
1450.45898 0.831285
1450.56580 0.825992
1450.67249 0.820696
1450.77930 0.815398
1450.88599 0.810101
1450.99280 0.804807
1451.09949 0.799517
1451.20630 0.79423
1451.31299 0.788942
1451.41980 0.783646
1451.52649 0.778337
1451.63330 0.773009
1451.73999 0.767655
1451.84680 0.762272
1451.95349 0.756851
1452.06030 0.751388
1452.16699 0.74588
1452.27380 0.740341
1452.38049 0.734789
1452.48730 0.729244
1452.59399 0.723726
1452.70081 0.718255
1452.80750 0.71285
1452.91431 0.707531
1453.02112 0.702317
1453.12781 0.697227
1453.23462 0.692263
1453.34131 0.68741
1453.44812 0.682653
1453.55481 0.677977
1453.66162 0.673365
1453.76831 0.668804
1453.87512 0.664277
1453.98181 0.659768
1454.08862 0.655263
1454.19531 0.650747
1454.30212 0.646207
1454.40881 0.641628
1454.51562 0.636998
1454.62231 0.632304
1454.72913 0.627533
1454.83582 0.622671
1454.94263 0.617705
1455.04932 0.612623
1455.15613 0.607413
1455.26282 0.602096
1455.36963 0.596701
1455.47632 0.591262
1455.58313 0.585811
1455.68994 0.580378
1455.79663 0.574997
1455.90344 0.569698
1456.01013 0.564514
1456.11694 0.559477
1456.22363 0.55459
1456.33044 0.549826
1456.43713 0.545154
1456.54395 0.540542
1456.65063 0.53596
1456.75745 0.531378
1456.86414 0.526764
1456.97095 0.522087
1457.07764 0.517317
1457.18445 0.512434
1457.29114 0.507456
1457.39795 0.50241
1457.50464 0.497322
1457.61145 0.49222
1457.71814 0.487131
1457.82495 0.482082
1457.93164 0.477099
1458.03845 0.472209
1458.14526 0.467438
1458.25195 0.462786
1458.35876 0.458241
1458.46545 0.45379
1458.57227 0.449418
1458.67896 0.445114
1458.78577 0.440863
1458.89246 0.436652
1458.99927 0.432468
1459.10596 0.428297
1459.21277 0.424127
1459.31946 0.419948
1459.42627 0.415746
1459.53296 0.411513
1459.63977 0.407236
1459.74646 0.402905
1459.85327 0.398509
1459.95996 0.394036
1460.06677 0.389476
1460.17346 0.384822
1460.28027 0.380087
1460.38696 0.375292
1460.49377 0.370455
1460.60046 0.365598
1460.70728 0.36074
1460.81409 0.355901
1460.92078 0.351101
1461.02759 0.346359
1461.13428 0.341694
1461.24109 0.337109
1461.34778 0.332594
1461.45459 0.328137
1461.56128 0.323726
1461.66809 0.31935
1461.77478 0.314998
1461.88159 0.310658
1461.98828 0.30632
1462.09509 0.301971
1462.20178 0.297602
1462.30859 0.293205
1462.41528 0.28877
1462.52209 0.284292
1462.62878 0.279761
1462.73560 0.275169
1462.84229 0.27051
1462.94910 0.265775
1463.05579 0.260957
1463.16260 0.256049
1463.26929 0.251071
1463.37610 0.246048
1463.48291 0.241008
1463.58960 0.235975
1463.69641 0.230977
1463.80310 0.22604
1463.90991 0.22119
1464.01660 0.216455
1464.12341 0.211859
1464.23010 0.207412
1464.33691 0.203104
1464.44360 0.198926
1464.55042 0.194868
1464.65710 0.190919
1464.76392 0.187069
1464.87061 0.183308
1464.97742 0.179625
1465.08411 0.176011
1465.19092 0.172456
1465.29761 0.16895
1465.40442 0.165487
1465.51111 0.162059
1465.61792 0.158658
1465.72461 0.155276
1465.83142 0.151907
1465.93823 0.148543
1466.04492 0.145176
1466.15173 0.141802
1466.25842 0.138429
1466.36523 0.135073
1466.47192 0.131749
1466.57874 0.128473
1466.68542 0.125262
1466.79224 0.122128
1466.89893 0.119089
1467.00574 0.116157
1467.11243 0.113349
1467.21924 0.110668
1467.32593 0.108103
1467.43274 0.105646
1467.53943 0.103284
1467.64624 0.101006
1467.75293 0.098804
1467.85974 0.096666
1467.96643 0.094581
1468.07324 0.092541
1468.17993 0.090535
1468.28674 0.08856
1468.39343 0.086614
1468.50024 0.084694
1468.60706 0.082799
1468.71375 0.080925
1468.82056 0.079071
1468.92725 0.077233
1469.03406 0.07541
1469.14075 0.0736
1469.24756 0.071806
1469.35425 0.070035
1469.46106 0.068295
1469.56775 0.066594
1469.67456 0.06494
1469.78125 0.06334
1469.88806 0.061801
1469.99475 0.060332
1470.10156 0.05894
1470.20825 0.057627
1470.31506 0.056386
1470.42175 0.055209
1470.52856 0.054088
1470.63525 0.053013
1470.74207 0.051976
1470.84875 0.05097
1470.95557 0.049985
1471.06226 0.049014
1471.16907 0.048049
1471.27588 0.047093
1471.38257 0.046148
1471.48938 0.045221
1471.59607 0.044316
1471.70288 0.043437
1471.80957 0.042588
1471.91638 0.041774
1472.02307 0.041001
1472.12988 0.040271
1472.23657 0.039585
1472.34338 0.03894
1472.45007 0.03833
1472.55688 0.037754
1472.66357 0.037206
1472.77039 0.036682
1472.87708 0.036179
1472.98389 0.035693
1473.09058 0.035219
1473.19739 0.034755
1473.30408 0.034299
1473.41089 0.03385
1473.51758 0.033406
1473.62439 0.032966
1473.73108 0.032528
1473.83789 0.032092
1473.94470 0.031656
1474.05139 0.031219
1474.15820 0.030779
1474.26489 0.030337
1474.37170 0.029896
1474.47839 0.029456
1474.58521 0.029021
1474.69189 0.02859
1474.79871 0.028167
1474.90540 0.027753
1475.01221 0.027349
1475.11890 0.026958
1475.22571 0.026579
1475.33240 0.026212
1475.43921 0.025856
1475.54590 0.02551
1475.65271 0.025173
1475.75940 0.024842
1475.86621 0.024519
1475.97290 0.024201
1476.07971 0.023887
1476.18640 0.023576
1476.29321 0.023269
1476.40002 0.022963
1476.50671 0.022659
1476.61353 0.022357
1476.72021 0.022055
1476.82703 0.021753
1476.93372 0.021451
1477.04053 0.021147
1477.14722 0.020843
1477.25403 0.020537
1477.36072 0.020232
1477.46753 0.019929
1477.57422 0.019629
1477.68103 0.019334
1477.78772 0.019044
1477.89453 0.018761
1478.00122 0.018487
1478.10803 0.018222
1478.21472 0.017967
1478.32153 0.017721
1478.42822 0.017484
1478.53503 0.017255
1478.64172 0.017033
1478.74854 0.016817
1478.85522 0.016606
1478.96204 0.0164
1479.06885 0.016198
1479.17554 0.015999
1479.28235 0.015802
1479.38904 0.015609
1479.49585 0.015417
1479.60254 0.015227
1479.70935 0.015039
1479.81604 0.014852
1479.92285 0.014666
1480.02954 0.01448
1480.13635 0.014296
1480.24304 0.014112
1480.34985 0.01393
1480.45654 0.01375
1480.56335 0.013573
1480.67004 0.013401
1480.77686 0.013234
1480.88354 0.013073
1480.99036 0.012918
1481.09705 0.01277
1481.20386 0.012631
1481.31055 0.012498
1481.41736 0.012372
1481.52405 0.012251
1481.63086 0.012135
1481.73767 0.012022
1481.84436 0.011912
1481.95117 0.011805
1482.05786 0.011698
1482.16467 0.011592
1482.27136 0.011487
1482.37817 0.011383
1482.48486 0.01128
1482.59167 0.01118
1482.69836 0.011082
1482.80518 0.010988
1482.91187 0.010898
1483.01868 0.010812
1483.12537 0.010731
1483.23218 0.010655
1483.33887 0.010583
1483.44568 0.010516
1483.55237 0.010452
1483.65918 0.010391
1483.76587 0.010334
1483.87268 0.010279
1483.97937 0.010226
1484.08618 0.010175
1484.19299 0.010125
1484.29968 0.010077
1484.40649 0.01003
1484.51318 0.009984
1484.62000 0.009939
1484.72668 0.009896
1484.83350 0.009853
1484.94019 0.009812
1485.04700 0.009771
1485.15369 0.009731
1485.26050 0.009692
1485.36719 0.009654
1485.47400 0.009617
1485.58069 0.009581
1485.68750 0.009547
1485.79419 0.009513
1485.90100 0.009481
1486.00769 0.009449
1486.11450 0.00942
1486.22119 0.009391
1486.32800 0.009364
1486.43469 0.009337
1486.54150 0.009312
1486.64819 0.009287
1486.75500 0.009263
1486.86182 0.009239
1486.96851 0.009216
1487.07532 0.009193
1487.18201 0.00917
1487.28882 0.009147
1487.39551 0.009124
1487.50232 0.0091
1487.60901 0.009076
1487.71582 0.009051
1487.82251 0.009025
1487.92932 0.008999
1488.03601 0.008971
1488.14282 0.008943
1488.24951 0.008913
1488.35632 0.008882
1488.46301 0.00885
1488.56982 0.008817
1488.67651 0.008784
1488.78333 0.00875
1488.89001 0.008715
1488.99683 0.00868
1489.10352 0.008645
1489.21033 0.00861
1489.31702 0.008574
1489.42383 0.008538
1489.53064 0.008502
1489.63733 0.008465
1489.74414 0.008428
1489.85083 0.008391
1489.95764 0.008354
1490.06433 0.008316
1490.17114 0.008277
1490.27783 0.008238
1490.38464 0.008198
1490.49133 0.008158
1490.59814 0.008117
1490.70483 0.008074
1490.81165 0.008031
1490.91833 0.007986
1491.02515 0.00794
1491.13184 0.007892
1491.23865 0.007843
1491.34534 0.007793
1491.45215 0.007742
1491.55884 0.00769
1491.66565 0.007638
1491.77234 0.007585
1491.87915 0.007532
1491.98596 0.007479
1492.09265 0.007427
1492.19946 0.007375
1492.30615 0.007324
1492.41296 0.007273
1492.51965 0.007223
1492.62646 0.007173
1492.73315 0.007123
1492.83997 0.007074
1492.94666 0.007025
1493.05347 0.006977
1493.16016 0.006929
1493.26697 0.006881
1493.37366 0.006832
1493.48047 0.006783
1493.58716 0.006733
1493.69397 0.006681
1493.80066 0.006627
1493.90747 0.006571
1494.01416 0.006513
1494.12097 0.006451
1494.22766 0.006387
1494.33447 0.006322
1494.44116 0.006256
1494.54797 0.006191
1494.65479 0.006129
1494.76147 0.006069
1494.86829 0.006015
1494.97498 0.005966
1495.08179 0.005923
1495.18848 0.005889
1495.29529 0.005862
1495.40198 0.005841
1495.50879 0.005826
1495.61548 0.005815
1495.72229 0.005807
1495.82898 0.005803
1495.93579 0.0058
1496.04248 0.005799
1496.14929 0.005798
1496.25598 0.005796
1645.88159 0.0
