# %ECSV 0.9
# ---
# datatype:
# - {name: wavelength, unit: Angstrom, datatype: float32}
# - {name: response, datatype: float32}
# meta: !!omap
# - {band_name: F1500}
# - {group_name: SPEC}
wavelength response
1302.24683 0.0
1446.94092 0.010058
1447.04773 0.010124
1447.15442 0.01019
1447.26123 0.010256
1447.36792 0.010321
1447.47473 0.010387
1447.58142 0.010453
1447.68823 0.01052
1447.79504 0.010587
1447.90173 0.010655
1448.00854 0.010725
1448.11523 0.010795
1448.22205 0.010868
1448.32874 0.010941
1448.43555 0.011015
1448.54224 0.011089
1448.64905 0.011163
1448.75574 0.011236
1448.86255 0.011308
1448.96924 0.011378
1449.07605 0.011447
1449.18274 0.011514
1449.28955 0.011578
1449.39624 0.011642
1449.50305 0.011704
1449.60974 0.011765
1449.71655 0.011827
1449.82324 0.011888
1449.93005 0.01195
1450.03674 0.012013
1450.14355 0.012078
1450.25024 0.012143
1450.35706 0.01221
1450.46387 0.012277
1450.57056 0.012345
1450.67737 0.012412
1450.78406 0.012478
1450.89087 0.012543
1450.99756 0.012607
1451.10437 0.012669
1451.21106 0.012729
1451.31787 0.012787
1451.42456 0.012843
1451.53137 0.012899
1451.63806 0.012953
1451.74487 0.013007
1451.85156 0.01306
1451.95837 0.013114
1452.06506 0.013168
1452.17188 0.013222
1452.27856 0.013278
1452.38538 0.013334
1452.49207 0.013391
1452.59888 0.013448
1452.70557 0.013507
1452.81238 0.013566
1452.91907 0.013626
1453.02588 0.013687
1453.13269 0.013749
1453.23938 0.013812
1453.34619 0.013875
1453.45288 0.013939
1453.55969 0.014004
1453.66638 0.014069
1453.77319 0.014134
1453.87988 0.014199
1453.98669 0.014265
1454.09338 0.01433
1454.20020 0.014395
1454.30688 0.014461
1454.41370 0.014526
1454.52039 0.014592
1454.62720 0.014658
1454.73389 0.014724
1454.84070 0.014791
1454.94739 0.014859
1455.05420 0.014927
1455.16089 0.014997
1455.26770 0.015067
1455.37439 0.015139
1455.48120 0.015213
1455.58789 0.01529
1455.69470 0.015368
1455.80151 0.01545
1455.90820 0.015535
1456.01501 0.015624
1456.12170 0.015716
1456.22852 0.015813
1456.33521 0.015913
1456.44202 0.016016
1456.54871 0.016121
1456.65552 0.016229
1456.76221 0.016339
1456.86902 0.01645
1456.97571 0.016562
1457.08252 0.016675
1457.18921 0.016787
1457.29602 0.0169
1457.40271 0.017013
1457.50952 0.017127
1457.61621 0.017242
1457.72302 0.017357
1457.82971 0.017474
1457.93652 0.017592
1458.04321 0.017711
1458.15002 0.017831
1458.25684 0.017954
1458.36353 0.018079
1458.47034 0.018206
1458.57703 0.018337
1458.68384 0.018472
1458.79053 0.01861
1458.89734 0.018754
1459.00403 0.018902
1459.11084 0.019056
1459.21753 0.019215
1459.32434 0.019379
1459.43103 0.019548
1459.53784 0.019719
1459.64453 0.019894
1459.75134 0.02007
1459.85803 0.020247
1459.96484 0.020425
1460.07153 0.020602
1460.17834 0.020778
1460.28503 0.020953
1460.39185 0.021128
1460.49854 0.021302
1460.60535 0.021477
1460.71204 0.021651
1460.81885 0.021825
1460.92566 0.022
1461.03235 0.022176
1461.13916 0.022353
1461.24585 0.022531
1461.35266 0.022712
1461.45935 0.022897
1461.56616 0.023086
1461.67285 0.023281
1461.77966 0.023482
1461.88635 0.02369
1461.99316 0.023907
1462.09985 0.024133
1462.20667 0.024368
1462.31335 0.024612
1462.42017 0.024862
1462.52686 0.025119
1462.63367 0.02538
1462.74036 0.025644
1462.84717 0.02591
1462.95386 0.026176
1463.06067 0.026441
1463.16736 0.026705
1463.27417 0.026969
1463.38086 0.027234
1463.48767 0.027504
1463.59448 0.02778
1463.70117 0.028064
1463.80798 0.02836
1463.91467 0.028669
1464.02148 0.028993
1464.12817 0.029334
1464.23499 0.029694
1464.34167 0.030069
1464.44849 0.030459
1464.55518 0.030862
1464.66199 0.031275
1464.76868 0.031698
1464.87549 0.032127
1464.98218 0.032562
1465.08899 0.033001
1465.19568 0.033443
1465.30249 0.033887
1465.40918 0.034335
1465.51599 0.034789
1465.62268 0.035247
1465.72949 0.035712
1465.83618 0.036185
1465.94299 0.036665
1466.04980 0.037154
1466.15649 0.037653
1466.26331 0.038164
1466.37000 0.038688
1466.47681 0.039228
1466.58350 0.039786
1466.69031 0.040364
1466.79700 0.040965
1466.90381 0.041589
1467.01050 0.042241
1467.11731 0.042921
1467.22400 0.04363
1467.33081 0.044363
1467.43750 0.045118
1467.54431 0.045891
1467.65100 0.046679
1467.75781 0.047477
1467.86450 0.048283
1467.97131 0.049092
1468.07800 0.049902
1468.18481 0.050709
1468.29150 0.051514
1468.39832 0.052317
1468.50500 0.05312
1468.61182 0.053923
1468.71863 0.054728
1468.82532 0.055536
1468.93213 0.056346
1469.03882 0.057161
1469.14563 0.057982
1469.25232 0.058811
1469.35913 0.059654
1469.46582 0.060515
1469.57263 0.061399
1469.67932 0.062311
1469.78613 0.063256
1469.89282 0.064239
1469.99963 0.065265
1470.10632 0.066337
1470.21313 0.067459
1470.31982 0.068627
1470.42664 0.069839
1470.53333 0.071091
1470.64014 0.07238
1470.74683 0.073702
1470.85364 0.075055
1470.96033 0.076434
1471.06714 0.077838
1471.17383 0.079263
1471.28064 0.080711
1471.38745 0.082183
1471.49414 0.083682
1471.60095 0.085209
1471.70764 0.086767
1471.81445 0.088357
1471.92114 0.089982
1472.02795 0.091644
1472.13464 0.093345
1472.24146 0.09509
1472.34814 0.096889
1472.45496 0.098749
1472.56165 0.10068
1472.66846 0.102689
1472.77515 0.104786
1472.88196 0.106979
1472.98865 0.109276
1473.09546 0.111686
1473.20215 0.114212
1473.30896 0.116843
1473.41565 0.119568
1473.52246 0.122375
1473.62915 0.125251
1473.73596 0.128184
1473.84265 0.131163
1473.94946 0.134175
1474.05627 0.137208
1474.16296 0.140252
1474.26978 0.143307
1474.37646 0.146377
1474.48328 0.149466
1474.58997 0.152578
1474.69678 0.155717
1474.80347 0.158888
1474.91028 0.162096
1475.01697 0.165343
1475.12378 0.168636
1475.23047 0.171981
1475.33728 0.175391
1475.44397 0.17888
1475.55078 0.182459
1475.65747 0.186141
1475.76428 0.18994
1475.87097 0.193868
1475.97778 0.197937
1476.08447 0.202161
1476.19128 0.206543
1476.29797 0.21106
1476.40479 0.215683
1476.51160 0.220384
1476.61829 0.225134
1476.72510 0.229905
1476.83179 0.234669
1476.93860 0.239396
1477.04529 0.244059
1477.15210 0.248632
1477.25879 0.253126
1477.36560 0.257571
1477.47229 0.261994
1477.57910 0.266427
1477.68579 0.270899
1477.79260 0.27544
1477.89929 0.280078
1478.00610 0.284844
1478.11279 0.289767
1478.21960 0.294852
1478.32629 0.300072
1478.43311 0.305395
1478.53979 0.310791
1478.64661 0.316228
1478.75330 0.321676
1478.86011 0.327104
1478.96680 0.332481
1479.07361 0.337776
1479.18042 0.342965
1479.28711 0.348052
1479.39392 0.353049
1479.50061 0.357967
1479.60742 0.362818
1479.71411 0.367613
1479.82092 0.372364
1479.92761 0.377081
1480.03442 0.381778
1480.14111 0.386464
1480.24792 0.391153
1480.35461 0.395856
1480.46143 0.400586
1480.56812 0.405357
1480.67493 0.41018
1480.78162 0.415067
1480.88843 0.420033
1480.99512 0.425088
1481.10193 0.430245
1481.20862 0.435507
1481.31543 0.440851
1481.42212 0.446256
1481.52893 0.451698
1481.63562 0.457155
1481.74243 0.462603
1481.84924 0.468021
1481.95593 0.473384
1482.06274 0.478671
1482.16943 0.483862
1482.27625 0.488961
1482.38293 0.493981
1482.48975 0.498932
1482.59644 0.503827
1482.70325 0.508678
1482.80994 0.513495
1482.91675 0.518292
1483.02344 0.52308
1483.13025 0.527871
1483.23694 0.532674
1483.34375 0.537499
1483.45044 0.542354
1483.55725 0.547248
1483.66394 0.55219
1483.77075 0.557188
1483.87744 0.562251
1483.98425 0.567387
1484.09094 0.572605
1484.19775 0.577906
1484.30457 0.583264
1484.41125 0.588654
1484.51807 0.594048
1484.62476 0.59942
1484.73157 0.604742
1484.83826 0.609987
1484.94507 0.615128
1485.05176 0.620139
1485.15857 0.624995
1485.26526 0.6297
1485.37207 0.634269
1485.47876 0.638719
1485.58557 0.643064
1485.69226 0.647321
1485.79907 0.651504
1485.90576 0.655631
1486.01257 0.659716
1486.11926 0.663775
1486.22607 0.667825
1486.33276 0.671883
1486.43958 0.675968
1486.54626 0.680097
1486.65308 0.684288
1486.75977 0.688559
1486.86658 0.692928
1486.97339 0.697413
1487.08008 0.702031
1487.18689 0.706792
1487.29358 0.711673
1487.40039 0.716646
1487.50708 0.721684
1487.61389 0.726758
1487.72058 0.731839
1487.82739 0.7369
1487.93408 0.741912
1488.04089 0.746846
1488.14758 0.751678
1488.25439 0.756415
1488.36108 0.761082
1488.46790 0.765707
1488.57458 0.770317
1488.68140 0.774937
1488.78809 0.779595
1488.89490 0.784318
1489.00159 0.789133
1489.10840 0.794065
1489.21509 0.79912
1489.32190 0.804268
1489.42859 0.809477
1489.53540 0.814714
1489.64221 0.819945
1489.74890 0.825139
1489.85571 0.830263
1489.96240 0.835284
1490.06921 0.840169
1490.17590 0.844892
1490.28271 0.849456
1490.38940 0.853875
1490.49622 0.858159
1490.60291 0.862321
1490.70972 0.866373
1490.81641 0.870327
1490.92322 0.874195
1491.02991 0.877989
1491.13672 0.881722
1491.24341 0.885395
1491.35022 0.889006
1491.45691 0.892552
1491.56372 0.896028
1491.67041 0.899431
1491.77722 0.902759
1491.88391 0.906006
1491.99072 0.909171
1492.09753 0.912248
1492.20422 0.915235
1492.31104 0.918127
1492.41772 0.920917
1492.52454 0.923602
1492.63123 0.926175
1492.73804 0.928633
1492.84473 0.930969
1492.95154 0.933179
1493.05823 0.935257
1493.16504 0.937201
1493.27173 0.939021
1493.37854 0.940732
1493.48523 0.94235
1493.59204 0.943891
1493.69873 0.945369
1493.80554 0.946802
1493.91223 0.948204
1494.01904 0.949591
1494.12573 0.950978
1494.23254 0.952374
1494.33923 0.953779
1494.44604 0.955196
1494.55273 0.956624
1494.65955 0.958065
1494.76636 0.95952
1494.87305 0.96099
1494.97986 0.962475
1495.08655 0.963977
1495.19336 0.965495
1495.30005 0.96702
1495.40686 0.968546
1495.51355 0.970063
1495.62036 0.971563
1495.72705 0.973038
1495.83386 0.97448
1495.94055 0.97588
1496.04736 0.977231
1496.15405 0.978524
1496.26086 0.979758
1496.36755 0.980938
1496.47437 0.982066
1496.58105 0.983145
1496.68787 0.984178
1496.79456 0.985168
1496.90137 0.986119
1497.00806 0.987032
1497.11487 0.987912
1497.22156 0.98876
1497.32837 0.989578
1497.43518 0.990364
1497.54187 0.991121
1497.64868 0.991848
1497.75537 0.992546
1497.86218 0.993216
1497.96887 0.993858
1498.07568 0.994472
1498.18237 0.99506
1498.28918 0.995619
1498.39587 0.996148
1498.50269 0.996646
1498.60938 0.997111
1498.71619 0.997542
1498.82288 0.997937
1498.92969 0.998294
1499.03638 0.998612
1499.14319 0.998891
1499.24988 0.99913
1499.35669 0.999333
1499.46338 0.999502
1499.57019 0.999641
1499.67688 0.999753
1499.78369 0.99984
1499.89050 0.999906
1499.99719 0.999952
1500.10400 0.999983
1500.21069 0.999999
1500.31750 1.0
1500.42419 0.999984
1500.53101 0.99995
1500.63770 0.999896
1500.74451 0.999821
1500.85120 0.999724
1500.95801 0.999603
1501.06470 0.999457
1501.17151 0.999286
1501.27820 0.999089
1501.38501 0.998867
1501.49170 0.998621
1501.59851 0.998353
1501.70520 0.998064
1501.81201 0.997753
1501.91870 0.997423
1502.02551 0.997074
1502.13220 0.996706
1502.23901 0.99632
1502.34570 0.99591
1502.45251 0.995475
1502.55933 0.995009
1502.66602 0.994511
1502.77283 0.993976
1502.87952 0.9934
1502.98633 0.992781
1503.09302 0.992115
1503.19983 0.9914
1503.30652 0.990638
1503.41333 0.989833
1503.52002 0.988987
1503.62683 0.988103
1503.73352 0.987183
1503.84033 0.986232
1503.94702 0.985251
1504.05383 0.984244
1504.16052 0.983212
1504.26733 0.982157
1504.37402 0.981077
1504.48083 0.979971
1504.58752 0.978838
1504.69434 0.977676
1504.80103 0.976486
1504.90784 0.975265
1505.01453 0.974014
1505.12134 0.97273
1505.22815 0.971411
1505.33484 0.970053
1505.44165 0.968649
1505.54834 0.967197
1505.65515 0.965689
1505.76184 0.964122
1505.86865 0.962491
1505.97534 0.960791
1506.08215 0.959016
1506.18884 0.957166
1506.29565 0.955248
1506.40234 0.953274
1506.50916 0.951252
1506.61584 0.949194
1506.72266 0.947111
1506.82935 0.945012
1506.93616 0.942908
1507.04285 0.940809
1507.14966 0.938725
1507.25635 0.936656
1507.36316 0.934596
1507.46985 0.932538
1507.57666 0.930477
1507.68335 0.928407
1507.79016 0.926323
1507.89697 0.924218
1508.00366 0.922087
1508.11047 0.919922
1508.21716 0.917711
1508.32397 0.915425
1508.43066 0.913035
1508.53748 0.910513
1508.64417 0.907829
1508.75098 0.904954
1508.85767 0.901861
1508.96448 0.898519
1509.07117 0.894901
1509.17798 0.890986
1509.28467 0.886796
1509.39148 0.882361
1509.49817 0.877714
1509.60498 0.872886
1509.71167 0.867908
1509.81848 0.862812
1509.92517 0.857629
1510.03198 0.852391
1510.13867 0.847128
1510.24548 0.841855
1510.35229 0.836573
1510.45898 0.831285
1510.56580 0.825992
1510.67249 0.820696
1510.77930 0.815398
1510.88599 0.810101
1510.99280 0.804807
1511.09949 0.799517
1511.20630 0.79423
1511.31299 0.788942
1511.41980 0.783646
1511.52649 0.778337
1511.63330 0.773009
1511.73999 0.767655
1511.84680 0.762272
1511.95349 0.756851
1512.06030 0.751388
1512.16699 0.74588
1512.27380 0.740341
1512.38049 0.734789
1512.48730 0.729244
1512.59399 0.723726
1512.70081 0.718255
1512.80750 0.71285
1512.91431 0.707531
1513.02112 0.702317
1513.12781 0.697227
1513.23462 0.692263
1513.34131 0.68741
1513.44812 0.682653
1513.55481 0.677977
1513.66162 0.673365
1513.76831 0.668804
1513.87512 0.664277
1513.98181 0.659768
1514.08862 0.655263
1514.19531 0.650747
1514.30212 0.646207
1514.40881 0.641628
1514.51562 0.636998
1514.62231 0.632304
1514.72913 0.627533
1514.83582 0.622671
1514.94263 0.617705
1515.04932 0.612623
1515.15613 0.607413
1515.26282 0.602096
1515.36963 0.596701
1515.47632 0.591262
1515.58313 0.585811
1515.68994 0.580378
1515.79663 0.574997
1515.90344 0.569698
1516.01013 0.564514
1516.11694 0.559477
1516.22363 0.55459
1516.33044 0.549826
1516.43713 0.545154
1516.54395 0.540542
1516.65063 0.53596
1516.75745 0.531378
1516.86414 0.526764
1516.97095 0.522087
1517.07764 0.517317
1517.18445 0.512434
1517.29114 0.507456
1517.39795 0.50241
1517.50464 0.497322
1517.61145 0.49222
1517.71814 0.487131
1517.82495 0.482082
1517.93164 0.477099
1518.03845 0.472209
1518.14526 0.467438
1518.25195 0.462786
1518.35876 0.458241
1518.46545 0.45379
1518.57227 0.449418
1518.67896 0.445114
1518.78577 0.440863
1518.89246 0.436652
1518.99927 0.432468
1519.10596 0.428297
1519.21277 0.424127
1519.31946 0.419948
1519.42627 0.415746
1519.53296 0.411513
1519.63977 0.407236
1519.74646 0.402905
1519.85327 0.398509
1519.95996 0.394036
1520.06677 0.389476
1520.17346 0.384822
1520.28027 0.380087
1520.38696 0.375292
1520.49377 0.370455
1520.60046 0.365598
1520.70728 0.36074
1520.81409 0.355901
1520.92078 0.351101
1521.02759 0.346359
1521.13428 0.341694
1521.24109 0.337109
1521.34778 0.332594
1521.45459 0.328137
1521.56128 0.323726
1521.66809 0.31935
1521.77478 0.314998
1521.88159 0.310658
1521.98828 0.30632
1522.09509 0.301971
1522.20178 0.297602
1522.30859 0.293205
1522.41528 0.28877
1522.52209 0.284292
1522.62878 0.279761
1522.73560 0.275169
1522.84229 0.27051
1522.94910 0.265775
1523.05579 0.260957
1523.16260 0.256049
1523.26929 0.251071
1523.37610 0.246048
1523.48291 0.241008
1523.58960 0.235975
1523.69641 0.230977
1523.80310 0.22604
1523.90991 0.22119
1524.01660 0.216455
1524.12341 0.211859
1524.23010 0.207412
1524.33691 0.203104
1524.44360 0.198926
1524.55042 0.194868
1524.65710 0.190919
1524.76392 0.187069
1524.87061 0.183308
1524.97742 0.179625
1525.08411 0.176011
1525.19092 0.172456
1525.29761 0.16895
1525.40442 0.165487
1525.51111 0.162059
1525.61792 0.158658
1525.72461 0.155276
1525.83142 0.151907
1525.93823 0.148543
1526.04492 0.145176
1526.15173 0.141802
1526.25842 0.138429
1526.36523 0.135073
1526.47192 0.131749
1526.57874 0.128473
1526.68542 0.125262
1526.79224 0.122128
1526.89893 0.119089
1527.00574 0.116157
1527.11243 0.113349
1527.21924 0.110668
1527.32593 0.108103
1527.43274 0.105646
1527.53943 0.103284
1527.64624 0.101006
1527.75293 0.098804
1527.85974 0.096666
1527.96643 0.094581
1528.07324 0.092541
1528.17993 0.090535
1528.28674 0.08856
1528.39343 0.086614
1528.50024 0.084694
1528.60706 0.082799
1528.71375 0.080925
1528.82056 0.079071
1528.92725 0.077233
1529.03406 0.07541
1529.14075 0.0736
1529.24756 0.071806
1529.35425 0.070035
1529.46106 0.068295
1529.56775 0.066594
1529.67456 0.06494
1529.78125 0.06334
1529.88806 0.061801
1529.99475 0.060332
1530.10156 0.05894
1530.20825 0.057627
1530.31506 0.056386
1530.42175 0.055209
1530.52856 0.054088
1530.63525 0.053013
1530.74207 0.051976
1530.84875 0.05097
1530.95557 0.049985
1531.06226 0.049014
1531.16907 0.048049
1531.27588 0.047093
1531.38257 0.046148
1531.48938 0.045221
1531.59607 0.044316
1531.70288 0.043437
1531.80957 0.042588
1531.91638 0.041774
1532.02307 0.041001
1532.12988 0.040271
1532.23657 0.039585
1532.34338 0.03894
1532.45007 0.03833
1532.55688 0.037754
1532.66357 0.037206
1532.77039 0.036682
1532.87708 0.036179
1532.98389 0.035693
1533.09058 0.035219
1533.19739 0.034755
1533.30408 0.034299
1533.41089 0.03385
1533.51758 0.033406
1533.62439 0.032966
1533.73108 0.032528
1533.83789 0.032092
1533.94470 0.031656
1534.05139 0.031219
1534.15820 0.030779
1534.26489 0.030337
1534.37170 0.029896
1534.47839 0.029456
1534.58521 0.029021
1534.69189 0.02859
1534.79871 0.028167
1534.90540 0.027753
1535.01221 0.027349
1535.11890 0.026958
1535.22571 0.026579
1535.33240 0.026212
1535.43921 0.025856
1535.54590 0.02551
1535.65271 0.025173
1535.75940 0.024842
1535.86621 0.024519
1535.97290 0.024201
1536.07971 0.023887
1536.18640 0.023576
1536.29321 0.023269
1536.40002 0.022963
1536.50671 0.022659
1536.61353 0.022357
1536.72021 0.022055
1536.82703 0.021753
1536.93372 0.021451
1537.04053 0.021147
1537.14722 0.020843
1537.25403 0.020537
1537.36072 0.020232
1537.46753 0.019929
1537.57422 0.019629
1537.68103 0.019334
1537.78772 0.019044
1537.89453 0.018761
1538.00122 0.018487
1538.10803 0.018222
1538.21472 0.017967
1538.32153 0.017721
1538.42822 0.017484
1538.53503 0.017255
1538.64172 0.017033
1538.74854 0.016817
1538.85522 0.016606
1538.96204 0.0164
1539.06885 0.016198
1539.17554 0.015999
1539.28235 0.015802
1539.38904 0.015609
1539.49585 0.015417
1539.60254 0.015227
1539.70935 0.015039
1539.81604 0.014852
1539.92285 0.014666
1540.02954 0.01448
1540.13635 0.014296
1540.24304 0.014112
1540.34985 0.01393
1540.45654 0.01375
1540.56335 0.013573
1540.67004 0.013401
1540.77686 0.013234
1540.88354 0.013073
1540.99036 0.012918
1541.09705 0.01277
1541.20386 0.012631
1541.31055 0.012498
1541.41736 0.012372
1541.52405 0.012251
1541.63086 0.012135
1541.73767 0.012022
1541.84436 0.011912
1541.95117 0.011805
1542.05786 0.011698
1542.16467 0.011592
1542.27136 0.011487
1542.37817 0.011383
1542.48486 0.01128
1542.59167 0.01118
1542.69836 0.011082
1542.80518 0.010988
1542.91187 0.010898
1543.01868 0.010812
1543.12537 0.010731
1543.23218 0.010655
1543.33887 0.010583
1543.44568 0.010516
1543.55237 0.010452
1543.65918 0.010391
1543.76587 0.010334
1543.87268 0.010279
1543.97937 0.010226
1544.08618 0.010175
1544.19299 0.010125
1544.29968 0.010077
1544.40649 0.01003
1544.51318 0.009984
1544.62000 0.009939
1544.72668 0.009896
1544.83350 0.009853
1544.94019 0.009812
1545.04700 0.009771
1545.15369 0.009731
1545.26050 0.009692
1545.36719 0.009654
1545.47400 0.009617
1545.58069 0.009581
1545.68750 0.009547
1545.79419 0.009513
1545.90100 0.009481
1546.00769 0.009449
1546.11450 0.00942
1546.22119 0.009391
1546.32800 0.009364
1546.43469 0.009337
1546.54150 0.009312
1546.64819 0.009287
1546.75500 0.009263
1546.86182 0.009239
1546.96851 0.009216
1547.07532 0.009193
1547.18201 0.00917
1547.28882 0.009147
1547.39551 0.009124
1547.50232 0.0091
1547.60901 0.009076
1547.71582 0.009051
1547.82251 0.009025
1547.92932 0.008999
1548.03601 0.008971
1548.14282 0.008943
1548.24951 0.008913
1548.35632 0.008882
1548.46301 0.00885
1548.56982 0.008817
1548.67651 0.008784
1548.78333 0.00875
1548.89001 0.008715
1548.99683 0.00868
1549.10352 0.008645
1549.21033 0.00861
1549.31702 0.008574
1549.42383 0.008538
1549.53064 0.008502
1549.63733 0.008465
1549.74414 0.008428
1549.85083 0.008391
1549.95764 0.008354
1550.06433 0.008316
1550.17114 0.008277
1550.27783 0.008238
1550.38464 0.008198
1550.49133 0.008158
1550.59814 0.008117
1550.70483 0.008074
1550.81165 0.008031
1550.91833 0.007986
1551.02515 0.00794
1551.13184 0.007892
1551.23865 0.007843
1551.34534 0.007793
1551.45215 0.007742
1551.55884 0.00769
1551.66565 0.007638
1551.77234 0.007585
1551.87915 0.007532
1551.98596 0.007479
1552.09265 0.007427
1552.19946 0.007375
1552.30615 0.007324
1552.41296 0.007273
1552.51965 0.007223
1552.62646 0.007173
1552.73315 0.007123
1552.83997 0.007074
1552.94666 0.007025
1553.05347 0.006977
1553.16016 0.006929
1553.26697 0.006881
1553.37366 0.006832
1553.48047 0.006783
1553.58716 0.006733
1553.69397 0.006681
1553.80066 0.006627
1553.90747 0.006571
1554.01416 0.006513
1554.12097 0.006451
1554.22766 0.006387
1554.33447 0.006322
1554.44116 0.006256
1554.54797 0.006191
1554.65479 0.006129
1554.76147 0.006069
1554.86829 0.006015
1554.97498 0.005966
1555.08179 0.005923
1555.18848 0.005889
1555.29529 0.005862
1555.40198 0.005841
1555.50879 0.005826
1555.61548 0.005815
1555.72229 0.005807
1555.82898 0.005803
1555.93579 0.0058
1556.04248 0.005799
1556.14929 0.005798
1556.25598 0.005796
1711.88159 0.0
