# %ECSV 0.9
# ---
# datatype:
# - {name: wavelength, unit: Angstrom, datatype: float32}
# - {name: response, datatype: float32}
# meta: !!omap
# - {band_name: F1360}
# - {group_name: SPEC}
wavelength response
1176.24683 0.0
1306.94092 0.010058
1307.04773 0.010124
1307.15442 0.01019
1307.26123 0.010256
1307.36792 0.010321
1307.47473 0.010387
1307.58142 0.010453
1307.68823 0.01052
1307.79504 0.010587
1307.90173 0.010655
1308.00854 0.010725
1308.11523 0.010795
1308.22205 0.010868
1308.32874 0.010941
1308.43555 0.011015
1308.54224 0.011089
1308.64905 0.011163
1308.75574 0.011236
1308.86255 0.011308
1308.96924 0.011378
1309.07605 0.011447
1309.18274 0.011514
1309.28955 0.011578
1309.39624 0.011642
1309.50305 0.011704
1309.60974 0.011765
1309.71655 0.011827
1309.82324 0.011888
1309.93005 0.01195
1310.03674 0.012013
1310.14355 0.012078
1310.25024 0.012143
1310.35706 0.01221
1310.46387 0.012277
1310.57056 0.012345
1310.67737 0.012412
1310.78406 0.012478
1310.89087 0.012543
1310.99756 0.012607
1311.10437 0.012669
1311.21106 0.012729
1311.31787 0.012787
1311.42456 0.012843
1311.53137 0.012899
1311.63806 0.012953
1311.74487 0.013007
1311.85156 0.01306
1311.95837 0.013114
1312.06506 0.013168
1312.17188 0.013222
1312.27856 0.013278
1312.38538 0.013334
1312.49207 0.013391
1312.59888 0.013448
1312.70557 0.013507
1312.81238 0.013566
1312.91907 0.013626
1313.02588 0.013687
1313.13269 0.013749
1313.23938 0.013812
1313.34619 0.013875
1313.45288 0.013939
1313.55969 0.014004
1313.66638 0.014069
1313.77319 0.014134
1313.87988 0.014199
1313.98669 0.014265
1314.09338 0.01433
1314.20020 0.014395
1314.30688 0.014461
1314.41370 0.014526
1314.52039 0.014592
1314.62720 0.014658
1314.73389 0.014724
1314.84070 0.014791
1314.94739 0.014859
1315.05420 0.014927
1315.16089 0.014997
1315.26770 0.015067
1315.37439 0.015139
1315.48120 0.015213
1315.58789 0.01529
1315.69470 0.015368
1315.80151 0.01545
1315.90820 0.015535
1316.01501 0.015624
1316.12170 0.015716
1316.22852 0.015813
1316.33521 0.015913
1316.44202 0.016016
1316.54871 0.016121
1316.65552 0.016229
1316.76221 0.016339
1316.86902 0.01645
1316.97571 0.016562
1317.08252 0.016675
1317.18921 0.016787
1317.29602 0.0169
1317.40271 0.017013
1317.50952 0.017127
1317.61621 0.017242
1317.72302 0.017357
1317.82971 0.017474
1317.93652 0.017592
1318.04321 0.017711
1318.15002 0.017831
1318.25684 0.017954
1318.36353 0.018079
1318.47034 0.018206
1318.57703 0.018337
1318.68384 0.018472
1318.79053 0.01861
1318.89734 0.018754
1319.00403 0.018902
1319.11084 0.019056
1319.21753 0.019215
1319.32434 0.019379
1319.43103 0.019548
1319.53784 0.019719
1319.64453 0.019894
1319.75134 0.02007
1319.85803 0.020247
1319.96484 0.020425
1320.07153 0.020602
1320.17834 0.020778
1320.28503 0.020953
1320.39185 0.021128
1320.49854 0.021302
1320.60535 0.021477
1320.71204 0.021651
1320.81885 0.021825
1320.92566 0.022
1321.03235 0.022176
1321.13916 0.022353
1321.24585 0.022531
1321.35266 0.022712
1321.45935 0.022897
1321.56616 0.023086
1321.67285 0.023281
1321.77966 0.023482
1321.88635 0.02369
1321.99316 0.023907
1322.09985 0.024133
1322.20667 0.024368
1322.31335 0.024612
1322.42017 0.024862
1322.52686 0.025119
1322.63367 0.02538
1322.74036 0.025644
1322.84717 0.02591
1322.95386 0.026176
1323.06067 0.026441
1323.16736 0.026705
1323.27417 0.026969
1323.38086 0.027234
1323.48767 0.027504
1323.59448 0.02778
1323.70117 0.028064
1323.80798 0.02836
1323.91467 0.028669
1324.02148 0.028993
1324.12817 0.029334
1324.23499 0.029694
1324.34167 0.030069
1324.44849 0.030459
1324.55518 0.030862
1324.66199 0.031275
1324.76868 0.031698
1324.87549 0.032127
1324.98218 0.032562
1325.08899 0.033001
1325.19568 0.033443
1325.30249 0.033887
1325.40918 0.034335
1325.51599 0.034789
1325.62268 0.035247
1325.72949 0.035712
1325.83618 0.036185
1325.94299 0.036665
1326.04980 0.037154
1326.15649 0.037653
1326.26331 0.038164
1326.37000 0.038688
1326.47681 0.039228
1326.58350 0.039786
1326.69031 0.040364
1326.79700 0.040965
1326.90381 0.041589
1327.01050 0.042241
1327.11731 0.042921
1327.22400 0.04363
1327.33081 0.044363
1327.43750 0.045118
1327.54431 0.045891
1327.65100 0.046679
1327.75781 0.047477
1327.86450 0.048283
1327.97131 0.049092
1328.07800 0.049902
1328.18481 0.050709
1328.29150 0.051514
1328.39832 0.052317
1328.50500 0.05312
1328.61182 0.053923
1328.71863 0.054728
1328.82532 0.055536
1328.93213 0.056346
1329.03882 0.057161
1329.14563 0.057982
1329.25232 0.058811
1329.35913 0.059654
1329.46582 0.060515
1329.57263 0.061399
1329.67932 0.062311
1329.78613 0.063256
1329.89282 0.064239
1329.99963 0.065265
1330.10632 0.066337
1330.21313 0.067459
1330.31982 0.068627
1330.42664 0.069839
1330.53333 0.071091
1330.64014 0.07238
1330.74683 0.073702
1330.85364 0.075055
1330.96033 0.076434
1331.06714 0.077838
1331.17383 0.079263
1331.28064 0.080711
1331.38745 0.082183
1331.49414 0.083682
1331.60095 0.085209
1331.70764 0.086767
1331.81445 0.088357
1331.92114 0.089982
1332.02795 0.091644
1332.13464 0.093345
1332.24146 0.09509
1332.34814 0.096889
1332.45496 0.098749
1332.56165 0.10068
1332.66846 0.102689
1332.77515 0.104786
1332.88196 0.106979
1332.98865 0.109276
1333.09546 0.111686
1333.20215 0.114212
1333.30896 0.116843
1333.41565 0.119568
1333.52246 0.122375
1333.62915 0.125251
1333.73596 0.128184
1333.84265 0.131163
1333.94946 0.134175
1334.05627 0.137208
1334.16296 0.140252
1334.26978 0.143307
1334.37646 0.146377
1334.48328 0.149466
1334.58997 0.152578
1334.69678 0.155717
1334.80347 0.158888
1334.91028 0.162096
1335.01697 0.165343
1335.12378 0.168636
1335.23047 0.171981
1335.33728 0.175391
1335.44397 0.17888
1335.55078 0.182459
1335.65747 0.186141
1335.76428 0.18994
1335.87097 0.193868
1335.97778 0.197937
1336.08447 0.202161
1336.19128 0.206543
1336.29797 0.21106
1336.40479 0.215683
1336.51160 0.220384
1336.61829 0.225134
1336.72510 0.229905
1336.83179 0.234669
1336.93860 0.239396
1337.04529 0.244059
1337.15210 0.248632
1337.25879 0.253126
1337.36560 0.257571
1337.47229 0.261994
1337.57910 0.266427
1337.68579 0.270899
1337.79260 0.27544
1337.89929 0.280078
1338.00610 0.284844
1338.11279 0.289767
1338.21960 0.294852
1338.32629 0.300072
1338.43311 0.305395
1338.53979 0.310791
1338.64661 0.316228
1338.75330 0.321676
1338.86011 0.327104
1338.96680 0.332481
1339.07361 0.337776
1339.18042 0.342965
1339.28711 0.348052
1339.39392 0.353049
1339.50061 0.357967
1339.60742 0.362818
1339.71411 0.367613
1339.82092 0.372364
1339.92761 0.377081
1340.03442 0.381778
1340.14111 0.386464
1340.24792 0.391153
1340.35461 0.395856
1340.46143 0.400586
1340.56812 0.405357
1340.67493 0.41018
1340.78162 0.415067
1340.88843 0.420033
1340.99512 0.425088
1341.10193 0.430245
1341.20862 0.435507
1341.31543 0.440851
1341.42212 0.446256
1341.52893 0.451698
1341.63562 0.457155
1341.74243 0.462603
1341.84924 0.468021
1341.95593 0.473384
1342.06274 0.478671
1342.16943 0.483862
1342.27625 0.488961
1342.38293 0.493981
1342.48975 0.498932
1342.59644 0.503827
1342.70325 0.508678
1342.80994 0.513495
1342.91675 0.518292
1343.02344 0.52308
1343.13025 0.527871
1343.23694 0.532674
1343.34375 0.537499
1343.45044 0.542354
1343.55725 0.547248
1343.66394 0.55219
1343.77075 0.557188
1343.87744 0.562251
1343.98425 0.567387
1344.09094 0.572605
1344.19775 0.577906
1344.30457 0.583264
1344.41125 0.588654
1344.51807 0.594048
1344.62476 0.59942
1344.73157 0.604742
1344.83826 0.609987
1344.94507 0.615128
1345.05176 0.620139
1345.15857 0.624995
1345.26526 0.6297
1345.37207 0.634269
1345.47876 0.638719
1345.58557 0.643064
1345.69226 0.647321
1345.79907 0.651504
1345.90576 0.655631
1346.01257 0.659716
1346.11926 0.663775
1346.22607 0.667825
1346.33276 0.671883
1346.43958 0.675968
1346.54626 0.680097
1346.65308 0.684288
1346.75977 0.688559
1346.86658 0.692928
1346.97339 0.697413
1347.08008 0.702031
1347.18689 0.706792
1347.29358 0.711673
1347.40039 0.716646
1347.50708 0.721684
1347.61389 0.726758
1347.72058 0.731839
1347.82739 0.7369
1347.93408 0.741912
1348.04089 0.746846
1348.14758 0.751678
1348.25439 0.756415
1348.36108 0.761082
1348.46790 0.765707
1348.57458 0.770317
1348.68140 0.774937
1348.78809 0.779595
1348.89490 0.784318
1349.00159 0.789133
1349.10840 0.794065
1349.21509 0.79912
1349.32190 0.804268
1349.42859 0.809477
1349.53540 0.814714
1349.64221 0.819945
1349.74890 0.825139
1349.85571 0.830263
1349.96240 0.835284
1350.06921 0.840169
1350.17590 0.844892
1350.28271 0.849456
1350.38940 0.853875
1350.49622 0.858159
1350.60291 0.862321
1350.70972 0.866373
1350.81641 0.870327
1350.92322 0.874195
1351.02991 0.877989
1351.13672 0.881722
1351.24341 0.885395
1351.35022 0.889006
1351.45691 0.892552
1351.56372 0.896028
1351.67041 0.899431
1351.77722 0.902759
1351.88391 0.906006
1351.99072 0.909171
1352.09753 0.912248
1352.20422 0.915235
1352.31104 0.918127
1352.41772 0.920917
1352.52454 0.923602
1352.63123 0.926175
1352.73804 0.928633
1352.84473 0.930969
1352.95154 0.933179
1353.05823 0.935257
1353.16504 0.937201
1353.27173 0.939021
1353.37854 0.940732
1353.48523 0.94235
1353.59204 0.943891
1353.69873 0.945369
1353.80554 0.946802
1353.91223 0.948204
1354.01904 0.949591
1354.12573 0.950978
1354.23254 0.952374
1354.33923 0.953779
1354.44604 0.955196
1354.55273 0.956624
1354.65955 0.958065
1354.76636 0.95952
1354.87305 0.96099
1354.97986 0.962475
1355.08655 0.963977
1355.19336 0.965495
1355.30005 0.96702
1355.40686 0.968546
1355.51355 0.970063
1355.62036 0.971563
1355.72705 0.973038
1355.83386 0.97448
1355.94055 0.97588
1356.04736 0.977231
1356.15405 0.978524
1356.26086 0.979758
1356.36755 0.980938
1356.47437 0.982066
1356.58105 0.983145
1356.68787 0.984178
1356.79456 0.985168
1356.90137 0.986119
1357.00806 0.987032
1357.11487 0.987912
1357.22156 0.98876
1357.32837 0.989578
1357.43518 0.990364
1357.54187 0.991121
1357.64868 0.991848
1357.75537 0.992546
1357.86218 0.993216
1357.96887 0.993858
1358.07568 0.994472
1358.18237 0.99506
1358.28918 0.995619
1358.39587 0.996148
1358.50269 0.996646
1358.60938 0.997111
1358.71619 0.997542
1358.82288 0.997937
1358.92969 0.998294
1359.03638 0.998612
1359.14319 0.998891
1359.24988 0.99913
1359.35669 0.999333
1359.46338 0.999502
1359.57019 0.999641
1359.67688 0.999753
1359.78369 0.99984
1359.89050 0.999906
1359.99719 0.999952
1360.10400 0.999983
1360.21069 0.999999
1360.31750 1.0
1360.42419 0.999984
1360.53101 0.99995
1360.63770 0.999896
1360.74451 0.999821
1360.85120 0.999724
1360.95801 0.999603
1361.06470 0.999457
1361.17151 0.999286
1361.27820 0.999089
1361.38501 0.998867
1361.49170 0.998621
1361.59851 0.998353
1361.70520 0.998064
1361.81201 0.997753
1361.91870 0.997423
1362.02551 0.997074
1362.13220 0.996706
1362.23901 0.99632
1362.34570 0.99591
1362.45251 0.995475
1362.55933 0.995009
1362.66602 0.994511
1362.77283 0.993976
1362.87952 0.9934
1362.98633 0.992781
1363.09302 0.992115
1363.19983 0.9914
1363.30652 0.990638
1363.41333 0.989833
1363.52002 0.988987
1363.62683 0.988103
1363.73352 0.987183
1363.84033 0.986232
1363.94702 0.985251
1364.05383 0.984244
1364.16052 0.983212
1364.26733 0.982157
1364.37402 0.981077
1364.48083 0.979971
1364.58752 0.978838
1364.69434 0.977676
1364.80103 0.976486
1364.90784 0.975265
1365.01453 0.974014
1365.12134 0.97273
1365.22815 0.971411
1365.33484 0.970053
1365.44165 0.968649
1365.54834 0.967197
1365.65515 0.965689
1365.76184 0.964122
1365.86865 0.962491
1365.97534 0.960791
1366.08215 0.959016
1366.18884 0.957166
1366.29565 0.955248
1366.40234 0.953274
1366.50916 0.951252
1366.61584 0.949194
1366.72266 0.947111
1366.82935 0.945012
1366.93616 0.942908
1367.04285 0.940809
1367.14966 0.938725
1367.25635 0.936656
1367.36316 0.934596
1367.46985 0.932538
1367.57666 0.930477
1367.68335 0.928407
1367.79016 0.926323
1367.89697 0.924218
1368.00366 0.922087
1368.11047 0.919922
1368.21716 0.917711
1368.32397 0.915425
1368.43066 0.913035
1368.53748 0.910513
1368.64417 0.907829
1368.75098 0.904954
1368.85767 0.901861
1368.96448 0.898519
1369.07117 0.894901
1369.17798 0.890986
1369.28467 0.886796
1369.39148 0.882361
1369.49817 0.877714
1369.60498 0.872886
1369.71167 0.867908
1369.81848 0.862812
1369.92517 0.857629
1370.03198 0.852391
1370.13867 0.847128
1370.24548 0.841855
1370.35229 0.836573
1370.45898 0.831285
1370.56580 0.825992
1370.67249 0.820696
1370.77930 0.815398
1370.88599 0.810101
1370.99280 0.804807
1371.09949 0.799517
1371.20630 0.79423
1371.31299 0.788942
1371.41980 0.783646
1371.52649 0.778337
1371.63330 0.773009
1371.73999 0.767655
1371.84680 0.762272
1371.95349 0.756851
1372.06030 0.751388
1372.16699 0.74588
1372.27380 0.740341
1372.38049 0.734789
1372.48730 0.729244
1372.59399 0.723726
1372.70081 0.718255
1372.80750 0.71285
1372.91431 0.707531
1373.02112 0.702317
1373.12781 0.697227
1373.23462 0.692263
1373.34131 0.68741
1373.44812 0.682653
1373.55481 0.677977
1373.66162 0.673365
1373.76831 0.668804
1373.87512 0.664277
1373.98181 0.659768
1374.08862 0.655263
1374.19531 0.650747
1374.30212 0.646207
1374.40881 0.641628
1374.51562 0.636998
1374.62231 0.632304
1374.72913 0.627533
1374.83582 0.622671
1374.94263 0.617705
1375.04932 0.612623
1375.15613 0.607413
1375.26282 0.602096
1375.36963 0.596701
1375.47632 0.591262
1375.58313 0.585811
1375.68994 0.580378
1375.79663 0.574997
1375.90344 0.569698
1376.01013 0.564514
1376.11694 0.559477
1376.22363 0.55459
1376.33044 0.549826
1376.43713 0.545154
1376.54395 0.540542
1376.65063 0.53596
1376.75745 0.531378
1376.86414 0.526764
1376.97095 0.522087
1377.07764 0.517317
1377.18445 0.512434
1377.29114 0.507456
1377.39795 0.50241
1377.50464 0.497322
1377.61145 0.49222
1377.71814 0.487131
1377.82495 0.482082
1377.93164 0.477099
1378.03845 0.472209
1378.14526 0.467438
1378.25195 0.462786
1378.35876 0.458241
1378.46545 0.45379
1378.57227 0.449418
1378.67896 0.445114
1378.78577 0.440863
1378.89246 0.436652
1378.99927 0.432468
1379.10596 0.428297
1379.21277 0.424127
1379.31946 0.419948
1379.42627 0.415746
1379.53296 0.411513
1379.63977 0.407236
1379.74646 0.402905
1379.85327 0.398509
1379.95996 0.394036
1380.06677 0.389476
1380.17346 0.384822
1380.28027 0.380087
1380.38696 0.375292
1380.49377 0.370455
1380.60046 0.365598
1380.70728 0.36074
1380.81409 0.355901
1380.92078 0.351101
1381.02759 0.346359
1381.13428 0.341694
1381.24109 0.337109
1381.34778 0.332594
1381.45459 0.328137
1381.56128 0.323726
1381.66809 0.31935
1381.77478 0.314998
1381.88159 0.310658
1381.98828 0.30632
1382.09509 0.301971
1382.20178 0.297602
1382.30859 0.293205
1382.41528 0.28877
1382.52209 0.284292
1382.62878 0.279761
1382.73560 0.275169
1382.84229 0.27051
1382.94910 0.265775
1383.05579 0.260957
1383.16260 0.256049
1383.26929 0.251071
1383.37610 0.246048
1383.48291 0.241008
1383.58960 0.235975
1383.69641 0.230977
1383.80310 0.22604
1383.90991 0.22119
1384.01660 0.216455
1384.12341 0.211859
1384.23010 0.207412
1384.33691 0.203104
1384.44360 0.198926
1384.55042 0.194868
1384.65710 0.190919
1384.76392 0.187069
1384.87061 0.183308
1384.97742 0.179625
1385.08411 0.176011
1385.19092 0.172456
1385.29761 0.16895
1385.40442 0.165487
1385.51111 0.162059
1385.61792 0.158658
1385.72461 0.155276
1385.83142 0.151907
1385.93823 0.148543
1386.04492 0.145176
1386.15173 0.141802
1386.25842 0.138429
1386.36523 0.135073
1386.47192 0.131749
1386.57874 0.128473
1386.68542 0.125262
1386.79224 0.122128
1386.89893 0.119089
1387.00574 0.116157
1387.11243 0.113349
1387.21924 0.110668
1387.32593 0.108103
1387.43274 0.105646
1387.53943 0.103284
1387.64624 0.101006
1387.75293 0.098804
1387.85974 0.096666
1387.96643 0.094581
1388.07324 0.092541
1388.17993 0.090535
1388.28674 0.08856
1388.39343 0.086614
1388.50024 0.084694
1388.60706 0.082799
1388.71375 0.080925
1388.82056 0.079071
1388.92725 0.077233
1389.03406 0.07541
1389.14075 0.0736
1389.24756 0.071806
1389.35425 0.070035
1389.46106 0.068295
1389.56775 0.066594
1389.67456 0.06494
1389.78125 0.06334
1389.88806 0.061801
1389.99475 0.060332
1390.10156 0.05894
1390.20825 0.057627
1390.31506 0.056386
1390.42175 0.055209
1390.52856 0.054088
1390.63525 0.053013
1390.74207 0.051976
1390.84875 0.05097
1390.95557 0.049985
1391.06226 0.049014
1391.16907 0.048049
1391.27588 0.047093
1391.38257 0.046148
1391.48938 0.045221
1391.59607 0.044316
1391.70288 0.043437
1391.80957 0.042588
1391.91638 0.041774
1392.02307 0.041001
1392.12988 0.040271
1392.23657 0.039585
1392.34338 0.03894
1392.45007 0.03833
1392.55688 0.037754
1392.66357 0.037206
1392.77039 0.036682
1392.87708 0.036179
1392.98389 0.035693
1393.09058 0.035219
1393.19739 0.034755
1393.30408 0.034299
1393.41089 0.03385
1393.51758 0.033406
1393.62439 0.032966
1393.73108 0.032528
1393.83789 0.032092
1393.94470 0.031656
1394.05139 0.031219
1394.15820 0.030779
1394.26489 0.030337
1394.37170 0.029896
1394.47839 0.029456
1394.58521 0.029021
1394.69189 0.02859
1394.79871 0.028167
1394.90540 0.027753
1395.01221 0.027349
1395.11890 0.026958
1395.22571 0.026579
1395.33240 0.026212
1395.43921 0.025856
1395.54590 0.02551
1395.65271 0.025173
1395.75940 0.024842
1395.86621 0.024519
1395.97290 0.024201
1396.07971 0.023887
1396.18640 0.023576
1396.29321 0.023269
1396.40002 0.022963
1396.50671 0.022659
1396.61353 0.022357
1396.72021 0.022055
1396.82703 0.021753
1396.93372 0.021451
1397.04053 0.021147
1397.14722 0.020843
1397.25403 0.020537
1397.36072 0.020232
1397.46753 0.019929
1397.57422 0.019629
1397.68103 0.019334
1397.78772 0.019044
1397.89453 0.018761
1398.00122 0.018487
1398.10803 0.018222
1398.21472 0.017967
1398.32153 0.017721
1398.42822 0.017484
1398.53503 0.017255
1398.64172 0.017033
1398.74854 0.016817
1398.85522 0.016606
1398.96204 0.0164
1399.06885 0.016198
1399.17554 0.015999
1399.28235 0.015802
1399.38904 0.015609
1399.49585 0.015417
1399.60254 0.015227
1399.70935 0.015039
1399.81604 0.014852
1399.92285 0.014666
1400.02954 0.01448
1400.13635 0.014296
1400.24304 0.014112
1400.34985 0.01393
1400.45654 0.01375
1400.56335 0.013573
1400.67004 0.013401
1400.77686 0.013234
1400.88354 0.013073
1400.99036 0.012918
1401.09705 0.01277
1401.20386 0.012631
1401.31055 0.012498
1401.41736 0.012372
1401.52405 0.012251
1401.63086 0.012135
1401.73767 0.012022
1401.84436 0.011912
1401.95117 0.011805
1402.05786 0.011698
1402.16467 0.011592
1402.27136 0.011487
1402.37817 0.011383
1402.48486 0.01128
1402.59167 0.01118
1402.69836 0.011082
1402.80518 0.010988
1402.91187 0.010898
1403.01868 0.010812
1403.12537 0.010731
1403.23218 0.010655
1403.33887 0.010583
1403.44568 0.010516
1403.55237 0.010452
1403.65918 0.010391
1403.76587 0.010334
1403.87268 0.010279
1403.97937 0.010226
1404.08618 0.010175
1404.19299 0.010125
1404.29968 0.010077
1404.40649 0.01003
1404.51318 0.009984
1404.62000 0.009939
1404.72668 0.009896
1404.83350 0.009853
1404.94019 0.009812
1405.04700 0.009771
1405.15369 0.009731
1405.26050 0.009692
1405.36719 0.009654
1405.47400 0.009617
1405.58069 0.009581
1405.68750 0.009547
1405.79419 0.009513
1405.90100 0.009481
1406.00769 0.009449
1406.11450 0.00942
1406.22119 0.009391
1406.32800 0.009364
1406.43469 0.009337
1406.54150 0.009312
1406.64819 0.009287
1406.75500 0.009263
1406.86182 0.009239
1406.96851 0.009216
1407.07532 0.009193
1407.18201 0.00917
1407.28882 0.009147
1407.39551 0.009124
1407.50232 0.0091
1407.60901 0.009076
1407.71582 0.009051
1407.82251 0.009025
1407.92932 0.008999
1408.03601 0.008971
1408.14282 0.008943
1408.24951 0.008913
1408.35632 0.008882
1408.46301 0.00885
1408.56982 0.008817
1408.67651 0.008784
1408.78333 0.00875
1408.89001 0.008715
1408.99683 0.00868
1409.10352 0.008645
1409.21033 0.00861
1409.31702 0.008574
1409.42383 0.008538
1409.53064 0.008502
1409.63733 0.008465
1409.74414 0.008428
1409.85083 0.008391
1409.95764 0.008354
1410.06433 0.008316
1410.17114 0.008277
1410.27783 0.008238
1410.38464 0.008198
1410.49133 0.008158
1410.59814 0.008117
1410.70483 0.008074
1410.81165 0.008031
1410.91833 0.007986
1411.02515 0.00794
1411.13184 0.007892
1411.23865 0.007843
1411.34534 0.007793
1411.45215 0.007742
1411.55884 0.00769
1411.66565 0.007638
1411.77234 0.007585
1411.87915 0.007532
1411.98596 0.007479
1412.09265 0.007427
1412.19946 0.007375
1412.30615 0.007324
1412.41296 0.007273
1412.51965 0.007223
1412.62646 0.007173
1412.73315 0.007123
1412.83997 0.007074
1412.94666 0.007025
1413.05347 0.006977
1413.16016 0.006929
1413.26697 0.006881
1413.37366 0.006832
1413.48047 0.006783
1413.58716 0.006733
1413.69397 0.006681
1413.80066 0.006627
1413.90747 0.006571
1414.01416 0.006513
1414.12097 0.006451
1414.22766 0.006387
1414.33447 0.006322
1414.44116 0.006256
1414.54797 0.006191
1414.65479 0.006129
1414.76147 0.006069
1414.86829 0.006015
1414.97498 0.005966
1415.08179 0.005923
1415.18848 0.005889
1415.29529 0.005862
1415.40198 0.005841
1415.50879 0.005826
1415.61548 0.005815
1415.72229 0.005807
1415.82898 0.005803
1415.93579 0.0058
1416.04248 0.005799
1416.14929 0.005798
1416.25598 0.005796
1557.88159 0.0
