# %ECSV 0.9
# ---
# datatype:
# - {name: wavelength, unit: Angstrom, datatype: float32}
# - {name: response, datatype: float32}
# meta: !!omap
# - {band_name: F1480}
# - {group_name: SPEC}
wavelength response
1284.24683 0.0
1426.94092 0.010058
1427.04773 0.010124
1427.15442 0.01019
1427.26123 0.010256
1427.36792 0.010321
1427.47473 0.010387
1427.58142 0.010453
1427.68823 0.01052
1427.79504 0.010587
1427.90173 0.010655
1428.00854 0.010725
1428.11523 0.010795
1428.22205 0.010868
1428.32874 0.010941
1428.43555 0.011015
1428.54224 0.011089
1428.64905 0.011163
1428.75574 0.011236
1428.86255 0.011308
1428.96924 0.011378
1429.07605 0.011447
1429.18274 0.011514
1429.28955 0.011578
1429.39624 0.011642
1429.50305 0.011704
1429.60974 0.011765
1429.71655 0.011827
1429.82324 0.011888
1429.93005 0.01195
1430.03674 0.012013
1430.14355 0.012078
1430.25024 0.012143
1430.35706 0.01221
1430.46387 0.012277
1430.57056 0.012345
1430.67737 0.012412
1430.78406 0.012478
1430.89087 0.012543
1430.99756 0.012607
1431.10437 0.012669
1431.21106 0.012729
1431.31787 0.012787
1431.42456 0.012843
1431.53137 0.012899
1431.63806 0.012953
1431.74487 0.013007
1431.85156 0.01306
1431.95837 0.013114
1432.06506 0.013168
1432.17188 0.013222
1432.27856 0.013278
1432.38538 0.013334
1432.49207 0.013391
1432.59888 0.013448
1432.70557 0.013507
1432.81238 0.013566
1432.91907 0.013626
1433.02588 0.013687
1433.13269 0.013749
1433.23938 0.013812
1433.34619 0.013875
1433.45288 0.013939
1433.55969 0.014004
1433.66638 0.014069
1433.77319 0.014134
1433.87988 0.014199
1433.98669 0.014265
1434.09338 0.01433
1434.20020 0.014395
1434.30688 0.014461
1434.41370 0.014526
1434.52039 0.014592
1434.62720 0.014658
1434.73389 0.014724
1434.84070 0.014791
1434.94739 0.014859
1435.05420 0.014927
1435.16089 0.014997
1435.26770 0.015067
1435.37439 0.015139
1435.48120 0.015213
1435.58789 0.01529
1435.69470 0.015368
1435.80151 0.01545
1435.90820 0.015535
1436.01501 0.015624
1436.12170 0.015716
1436.22852 0.015813
1436.33521 0.015913
1436.44202 0.016016
1436.54871 0.016121
1436.65552 0.016229
1436.76221 0.016339
1436.86902 0.01645
1436.97571 0.016562
1437.08252 0.016675
1437.18921 0.016787
1437.29602 0.0169
1437.40271 0.017013
1437.50952 0.017127
1437.61621 0.017242
1437.72302 0.017357
1437.82971 0.017474
1437.93652 0.017592
1438.04321 0.017711
1438.15002 0.017831
1438.25684 0.017954
1438.36353 0.018079
1438.47034 0.018206
1438.57703 0.018337
1438.68384 0.018472
1438.79053 0.01861
1438.89734 0.018754
1439.00403 0.018902
1439.11084 0.019056
1439.21753 0.019215
1439.32434 0.019379
1439.43103 0.019548
1439.53784 0.019719
1439.64453 0.019894
1439.75134 0.02007
1439.85803 0.020247
1439.96484 0.020425
1440.07153 0.020602
1440.17834 0.020778
1440.28503 0.020953
1440.39185 0.021128
1440.49854 0.021302
1440.60535 0.021477
1440.71204 0.021651
1440.81885 0.021825
1440.92566 0.022
1441.03235 0.022176
1441.13916 0.022353
1441.24585 0.022531
1441.35266 0.022712
1441.45935 0.022897
1441.56616 0.023086
1441.67285 0.023281
1441.77966 0.023482
1441.88635 0.02369
1441.99316 0.023907
1442.09985 0.024133
1442.20667 0.024368
1442.31335 0.024612
1442.42017 0.024862
1442.52686 0.025119
1442.63367 0.02538
1442.74036 0.025644
1442.84717 0.02591
1442.95386 0.026176
1443.06067 0.026441
1443.16736 0.026705
1443.27417 0.026969
1443.38086 0.027234
1443.48767 0.027504
1443.59448 0.02778
1443.70117 0.028064
1443.80798 0.02836
1443.91467 0.028669
1444.02148 0.028993
1444.12817 0.029334
1444.23499 0.029694
1444.34167 0.030069
1444.44849 0.030459
1444.55518 0.030862
1444.66199 0.031275
1444.76868 0.031698
1444.87549 0.032127
1444.98218 0.032562
1445.08899 0.033001
1445.19568 0.033443
1445.30249 0.033887
1445.40918 0.034335
1445.51599 0.034789
1445.62268 0.035247
1445.72949 0.035712
1445.83618 0.036185
1445.94299 0.036665
1446.04980 0.037154
1446.15649 0.037653
1446.26331 0.038164
1446.37000 0.038688
1446.47681 0.039228
1446.58350 0.039786
1446.69031 0.040364
1446.79700 0.040965
1446.90381 0.041589
1447.01050 0.042241
1447.11731 0.042921
1447.22400 0.04363
1447.33081 0.044363
1447.43750 0.045118
1447.54431 0.045891
1447.65100 0.046679
1447.75781 0.047477
1447.86450 0.048283
1447.97131 0.049092
1448.07800 0.049902
1448.18481 0.050709
1448.29150 0.051514
1448.39832 0.052317
1448.50500 0.05312
1448.61182 0.053923
1448.71863 0.054728
1448.82532 0.055536
1448.93213 0.056346
1449.03882 0.057161
1449.14563 0.057982
1449.25232 0.058811
1449.35913 0.059654
1449.46582 0.060515
1449.57263 0.061399
1449.67932 0.062311
1449.78613 0.063256
1449.89282 0.064239
1449.99963 0.065265
1450.10632 0.066337
1450.21313 0.067459
1450.31982 0.068627
1450.42664 0.069839
1450.53333 0.071091
1450.64014 0.07238
1450.74683 0.073702
1450.85364 0.075055
1450.96033 0.076434
1451.06714 0.077838
1451.17383 0.079263
1451.28064 0.080711
1451.38745 0.082183
1451.49414 0.083682
1451.60095 0.085209
1451.70764 0.086767
1451.81445 0.088357
1451.92114 0.089982
1452.02795 0.091644
1452.13464 0.093345
1452.24146 0.09509
1452.34814 0.096889
1452.45496 0.098749
1452.56165 0.10068
1452.66846 0.102689
1452.77515 0.104786
1452.88196 0.106979
1452.98865 0.109276
1453.09546 0.111686
1453.20215 0.114212
1453.30896 0.116843
1453.41565 0.119568
1453.52246 0.122375
1453.62915 0.125251
1453.73596 0.128184
1453.84265 0.131163
1453.94946 0.134175
1454.05627 0.137208
1454.16296 0.140252
1454.26978 0.143307
1454.37646 0.146377
1454.48328 0.149466
1454.58997 0.152578
1454.69678 0.155717
1454.80347 0.158888
1454.91028 0.162096
1455.01697 0.165343
1455.12378 0.168636
1455.23047 0.171981
1455.33728 0.175391
1455.44397 0.17888
1455.55078 0.182459
1455.65747 0.186141
1455.76428 0.18994
1455.87097 0.193868
1455.97778 0.197937
1456.08447 0.202161
1456.19128 0.206543
1456.29797 0.21106
1456.40479 0.215683
1456.51160 0.220384
1456.61829 0.225134
1456.72510 0.229905
1456.83179 0.234669
1456.93860 0.239396
1457.04529 0.244059
1457.15210 0.248632
1457.25879 0.253126
1457.36560 0.257571
1457.47229 0.261994
1457.57910 0.266427
1457.68579 0.270899
1457.79260 0.27544
1457.89929 0.280078
1458.00610 0.284844
1458.11279 0.289767
1458.21960 0.294852
1458.32629 0.300072
1458.43311 0.305395
1458.53979 0.310791
1458.64661 0.316228
1458.75330 0.321676
1458.86011 0.327104
1458.96680 0.332481
1459.07361 0.337776
1459.18042 0.342965
1459.28711 0.348052
1459.39392 0.353049
1459.50061 0.357967
1459.60742 0.362818
1459.71411 0.367613
1459.82092 0.372364
1459.92761 0.377081
1460.03442 0.381778
1460.14111 0.386464
1460.24792 0.391153
1460.35461 0.395856
1460.46143 0.400586
1460.56812 0.405357
1460.67493 0.41018
1460.78162 0.415067
1460.88843 0.420033
1460.99512 0.425088
1461.10193 0.430245
1461.20862 0.435507
1461.31543 0.440851
1461.42212 0.446256
1461.52893 0.451698
1461.63562 0.457155
1461.74243 0.462603
1461.84924 0.468021
1461.95593 0.473384
1462.06274 0.478671
1462.16943 0.483862
1462.27625 0.488961
1462.38293 0.493981
1462.48975 0.498932
1462.59644 0.503827
1462.70325 0.508678
1462.80994 0.513495
1462.91675 0.518292
1463.02344 0.52308
1463.13025 0.527871
1463.23694 0.532674
1463.34375 0.537499
1463.45044 0.542354
1463.55725 0.547248
1463.66394 0.55219
1463.77075 0.557188
1463.87744 0.562251
1463.98425 0.567387
1464.09094 0.572605
1464.19775 0.577906
1464.30457 0.583264
1464.41125 0.588654
1464.51807 0.594048
1464.62476 0.59942
1464.73157 0.604742
1464.83826 0.609987
1464.94507 0.615128
1465.05176 0.620139
1465.15857 0.624995
1465.26526 0.6297
1465.37207 0.634269
1465.47876 0.638719
1465.58557 0.643064
1465.69226 0.647321
1465.79907 0.651504
1465.90576 0.655631
1466.01257 0.659716
1466.11926 0.663775
1466.22607 0.667825
1466.33276 0.671883
1466.43958 0.675968
1466.54626 0.680097
1466.65308 0.684288
1466.75977 0.688559
1466.86658 0.692928
1466.97339 0.697413
1467.08008 0.702031
1467.18689 0.706792
1467.29358 0.711673
1467.40039 0.716646
1467.50708 0.721684
1467.61389 0.726758
1467.72058 0.731839
1467.82739 0.7369
1467.93408 0.741912
1468.04089 0.746846
1468.14758 0.751678
1468.25439 0.756415
1468.36108 0.761082
1468.46790 0.765707
1468.57458 0.770317
1468.68140 0.774937
1468.78809 0.779595
1468.89490 0.784318
1469.00159 0.789133
1469.10840 0.794065
1469.21509 0.79912
1469.32190 0.804268
1469.42859 0.809477
1469.53540 0.814714
1469.64221 0.819945
1469.74890 0.825139
1469.85571 0.830263
1469.96240 0.835284
1470.06921 0.840169
1470.17590 0.844892
1470.28271 0.849456
1470.38940 0.853875
1470.49622 0.858159
1470.60291 0.862321
1470.70972 0.866373
1470.81641 0.870327
1470.92322 0.874195
1471.02991 0.877989
1471.13672 0.881722
1471.24341 0.885395
1471.35022 0.889006
1471.45691 0.892552
1471.56372 0.896028
1471.67041 0.899431
1471.77722 0.902759
1471.88391 0.906006
1471.99072 0.909171
1472.09753 0.912248
1472.20422 0.915235
1472.31104 0.918127
1472.41772 0.920917
1472.52454 0.923602
1472.63123 0.926175
1472.73804 0.928633
1472.84473 0.930969
1472.95154 0.933179
1473.05823 0.935257
1473.16504 0.937201
1473.27173 0.939021
1473.37854 0.940732
1473.48523 0.94235
1473.59204 0.943891
1473.69873 0.945369
1473.80554 0.946802
1473.91223 0.948204
1474.01904 0.949591
1474.12573 0.950978
1474.23254 0.952374
1474.33923 0.953779
1474.44604 0.955196
1474.55273 0.956624
1474.65955 0.958065
1474.76636 0.95952
1474.87305 0.96099
1474.97986 0.962475
1475.08655 0.963977
1475.19336 0.965495
1475.30005 0.96702
1475.40686 0.968546
1475.51355 0.970063
1475.62036 0.971563
1475.72705 0.973038
1475.83386 0.97448
1475.94055 0.97588
1476.04736 0.977231
1476.15405 0.978524
1476.26086 0.979758
1476.36755 0.980938
1476.47437 0.982066
1476.58105 0.983145
1476.68787 0.984178
1476.79456 0.985168
1476.90137 0.986119
1477.00806 0.987032
1477.11487 0.987912
1477.22156 0.98876
1477.32837 0.989578
1477.43518 0.990364
1477.54187 0.991121
1477.64868 0.991848
1477.75537 0.992546
1477.86218 0.993216
1477.96887 0.993858
1478.07568 0.994472
1478.18237 0.99506
1478.28918 0.995619
1478.39587 0.996148
1478.50269 0.996646
1478.60938 0.997111
1478.71619 0.997542
1478.82288 0.997937
1478.92969 0.998294
1479.03638 0.998612
1479.14319 0.998891
1479.24988 0.99913
1479.35669 0.999333
1479.46338 0.999502
1479.57019 0.999641
1479.67688 0.999753
1479.78369 0.99984
1479.89050 0.999906
1479.99719 0.999952
1480.10400 0.999983
1480.21069 0.999999
1480.31750 1.0
1480.42419 0.999984
1480.53101 0.99995
1480.63770 0.999896
1480.74451 0.999821
1480.85120 0.999724
1480.95801 0.999603
1481.06470 0.999457
1481.17151 0.999286
1481.27820 0.999089
1481.38501 0.998867
1481.49170 0.998621
1481.59851 0.998353
1481.70520 0.998064
1481.81201 0.997753
1481.91870 0.997423
1482.02551 0.997074
1482.13220 0.996706
1482.23901 0.99632
1482.34570 0.99591
1482.45251 0.995475
1482.55933 0.995009
1482.66602 0.994511
1482.77283 0.993976
1482.87952 0.9934
1482.98633 0.992781
1483.09302 0.992115
1483.19983 0.9914
1483.30652 0.990638
1483.41333 0.989833
1483.52002 0.988987
1483.62683 0.988103
1483.73352 0.987183
1483.84033 0.986232
1483.94702 0.985251
1484.05383 0.984244
1484.16052 0.983212
1484.26733 0.982157
1484.37402 0.981077
1484.48083 0.979971
1484.58752 0.978838
1484.69434 0.977676
1484.80103 0.976486
1484.90784 0.975265
1485.01453 0.974014
1485.12134 0.97273
1485.22815 0.971411
1485.33484 0.970053
1485.44165 0.968649
1485.54834 0.967197
1485.65515 0.965689
1485.76184 0.964122
1485.86865 0.962491
1485.97534 0.960791
1486.08215 0.959016
1486.18884 0.957166
1486.29565 0.955248
1486.40234 0.953274
1486.50916 0.951252
1486.61584 0.949194
1486.72266 0.947111
1486.82935 0.945012
1486.93616 0.942908
1487.04285 0.940809
1487.14966 0.938725
1487.25635 0.936656
1487.36316 0.934596
1487.46985 0.932538
1487.57666 0.930477
1487.68335 0.928407
1487.79016 0.926323
1487.89697 0.924218
1488.00366 0.922087
1488.11047 0.919922
1488.21716 0.917711
1488.32397 0.915425
1488.43066 0.913035
1488.53748 0.910513
1488.64417 0.907829
1488.75098 0.904954
1488.85767 0.901861
1488.96448 0.898519
1489.07117 0.894901
1489.17798 0.890986
1489.28467 0.886796
1489.39148 0.882361
1489.49817 0.877714
1489.60498 0.872886
1489.71167 0.867908
1489.81848 0.862812
1489.92517 0.857629
1490.03198 0.852391
1490.13867 0.847128
1490.24548 0.841855
1490.35229 0.836573
1490.45898 0.831285
1490.56580 0.825992
1490.67249 0.820696
1490.77930 0.815398
1490.88599 0.810101
1490.99280 0.804807
1491.09949 0.799517
1491.20630 0.79423
1491.31299 0.788942
1491.41980 0.783646
1491.52649 0.778337
1491.63330 0.773009
1491.73999 0.767655
1491.84680 0.762272
1491.95349 0.756851
1492.06030 0.751388
1492.16699 0.74588
1492.27380 0.740341
1492.38049 0.734789
1492.48730 0.729244
1492.59399 0.723726
1492.70081 0.718255
1492.80750 0.71285
1492.91431 0.707531
1493.02112 0.702317
1493.12781 0.697227
1493.23462 0.692263
1493.34131 0.68741
1493.44812 0.682653
1493.55481 0.677977
1493.66162 0.673365
1493.76831 0.668804
1493.87512 0.664277
1493.98181 0.659768
1494.08862 0.655263
1494.19531 0.650747
1494.30212 0.646207
1494.40881 0.641628
1494.51562 0.636998
1494.62231 0.632304
1494.72913 0.627533
1494.83582 0.622671
1494.94263 0.617705
1495.04932 0.612623
1495.15613 0.607413
1495.26282 0.602096
1495.36963 0.596701
1495.47632 0.591262
1495.58313 0.585811
1495.68994 0.580378
1495.79663 0.574997
1495.90344 0.569698
1496.01013 0.564514
1496.11694 0.559477
1496.22363 0.55459
1496.33044 0.549826
1496.43713 0.545154
1496.54395 0.540542
1496.65063 0.53596
1496.75745 0.531378
1496.86414 0.526764
1496.97095 0.522087
1497.07764 0.517317
1497.18445 0.512434
1497.29114 0.507456
1497.39795 0.50241
1497.50464 0.497322
1497.61145 0.49222
1497.71814 0.487131
1497.82495 0.482082
1497.93164 0.477099
1498.03845 0.472209
1498.14526 0.467438
1498.25195 0.462786
1498.35876 0.458241
1498.46545 0.45379
1498.57227 0.449418
1498.67896 0.445114
1498.78577 0.440863
1498.89246 0.436652
1498.99927 0.432468
1499.10596 0.428297
1499.21277 0.424127
1499.31946 0.419948
1499.42627 0.415746
1499.53296 0.411513
1499.63977 0.407236
1499.74646 0.402905
1499.85327 0.398509
1499.95996 0.394036
1500.06677 0.389476
1500.17346 0.384822
1500.28027 0.380087
1500.38696 0.375292
1500.49377 0.370455
1500.60046 0.365598
1500.70728 0.36074
1500.81409 0.355901
1500.92078 0.351101
1501.02759 0.346359
1501.13428 0.341694
1501.24109 0.337109
1501.34778 0.332594
1501.45459 0.328137
1501.56128 0.323726
1501.66809 0.31935
1501.77478 0.314998
1501.88159 0.310658
1501.98828 0.30632
1502.09509 0.301971
1502.20178 0.297602
1502.30859 0.293205
1502.41528 0.28877
1502.52209 0.284292
1502.62878 0.279761
1502.73560 0.275169
1502.84229 0.27051
1502.94910 0.265775
1503.05579 0.260957
1503.16260 0.256049
1503.26929 0.251071
1503.37610 0.246048
1503.48291 0.241008
1503.58960 0.235975
1503.69641 0.230977
1503.80310 0.22604
1503.90991 0.22119
1504.01660 0.216455
1504.12341 0.211859
1504.23010 0.207412
1504.33691 0.203104
1504.44360 0.198926
1504.55042 0.194868
1504.65710 0.190919
1504.76392 0.187069
1504.87061 0.183308
1504.97742 0.179625
1505.08411 0.176011
1505.19092 0.172456
1505.29761 0.16895
1505.40442 0.165487
1505.51111 0.162059
1505.61792 0.158658
1505.72461 0.155276
1505.83142 0.151907
1505.93823 0.148543
1506.04492 0.145176
1506.15173 0.141802
1506.25842 0.138429
1506.36523 0.135073
1506.47192 0.131749
1506.57874 0.128473
1506.68542 0.125262
1506.79224 0.122128
1506.89893 0.119089
1507.00574 0.116157
1507.11243 0.113349
1507.21924 0.110668
1507.32593 0.108103
1507.43274 0.105646
1507.53943 0.103284
1507.64624 0.101006
1507.75293 0.098804
1507.85974 0.096666
1507.96643 0.094581
1508.07324 0.092541
1508.17993 0.090535
1508.28674 0.08856
1508.39343 0.086614
1508.50024 0.084694
1508.60706 0.082799
1508.71375 0.080925
1508.82056 0.079071
1508.92725 0.077233
1509.03406 0.07541
1509.14075 0.0736
1509.24756 0.071806
1509.35425 0.070035
1509.46106 0.068295
1509.56775 0.066594
1509.67456 0.06494
1509.78125 0.06334
1509.88806 0.061801
1509.99475 0.060332
1510.10156 0.05894
1510.20825 0.057627
1510.31506 0.056386
1510.42175 0.055209
1510.52856 0.054088
1510.63525 0.053013
1510.74207 0.051976
1510.84875 0.05097
1510.95557 0.049985
1511.06226 0.049014
1511.16907 0.048049
1511.27588 0.047093
1511.38257 0.046148
1511.48938 0.045221
1511.59607 0.044316
1511.70288 0.043437
1511.80957 0.042588
1511.91638 0.041774
1512.02307 0.041001
1512.12988 0.040271
1512.23657 0.039585
1512.34338 0.03894
1512.45007 0.03833
1512.55688 0.037754
1512.66357 0.037206
1512.77039 0.036682
1512.87708 0.036179
1512.98389 0.035693
1513.09058 0.035219
1513.19739 0.034755
1513.30408 0.034299
1513.41089 0.03385
1513.51758 0.033406
1513.62439 0.032966
1513.73108 0.032528
1513.83789 0.032092
1513.94470 0.031656
1514.05139 0.031219
1514.15820 0.030779
1514.26489 0.030337
1514.37170 0.029896
1514.47839 0.029456
1514.58521 0.029021
1514.69189 0.02859
1514.79871 0.028167
1514.90540 0.027753
1515.01221 0.027349
1515.11890 0.026958
1515.22571 0.026579
1515.33240 0.026212
1515.43921 0.025856
1515.54590 0.02551
1515.65271 0.025173
1515.75940 0.024842
1515.86621 0.024519
1515.97290 0.024201
1516.07971 0.023887
1516.18640 0.023576
1516.29321 0.023269
1516.40002 0.022963
1516.50671 0.022659
1516.61353 0.022357
1516.72021 0.022055
1516.82703 0.021753
1516.93372 0.021451
1517.04053 0.021147
1517.14722 0.020843
1517.25403 0.020537
1517.36072 0.020232
1517.46753 0.019929
1517.57422 0.019629
1517.68103 0.019334
1517.78772 0.019044
1517.89453 0.018761
1518.00122 0.018487
1518.10803 0.018222
1518.21472 0.017967
1518.32153 0.017721
1518.42822 0.017484
1518.53503 0.017255
1518.64172 0.017033
1518.74854 0.016817
1518.85522 0.016606
1518.96204 0.0164
1519.06885 0.016198
1519.17554 0.015999
1519.28235 0.015802
1519.38904 0.015609
1519.49585 0.015417
1519.60254 0.015227
1519.70935 0.015039
1519.81604 0.014852
1519.92285 0.014666
1520.02954 0.01448
1520.13635 0.014296
1520.24304 0.014112
1520.34985 0.01393
1520.45654 0.01375
1520.56335 0.013573
1520.67004 0.013401
1520.77686 0.013234
1520.88354 0.013073
1520.99036 0.012918
1521.09705 0.01277
1521.20386 0.012631
1521.31055 0.012498
1521.41736 0.012372
1521.52405 0.012251
1521.63086 0.012135
1521.73767 0.012022
1521.84436 0.011912
1521.95117 0.011805
1522.05786 0.011698
1522.16467 0.011592
1522.27136 0.011487
1522.37817 0.011383
1522.48486 0.01128
1522.59167 0.01118
1522.69836 0.011082
1522.80518 0.010988
1522.91187 0.010898
1523.01868 0.010812
1523.12537 0.010731
1523.23218 0.010655
1523.33887 0.010583
1523.44568 0.010516
1523.55237 0.010452
1523.65918 0.010391
1523.76587 0.010334
1523.87268 0.010279
1523.97937 0.010226
1524.08618 0.010175
1524.19299 0.010125
1524.29968 0.010077
1524.40649 0.01003
1524.51318 0.009984
1524.62000 0.009939
1524.72668 0.009896
1524.83350 0.009853
1524.94019 0.009812
1525.04700 0.009771
1525.15369 0.009731
1525.26050 0.009692
1525.36719 0.009654
1525.47400 0.009617
1525.58069 0.009581
1525.68750 0.009547
1525.79419 0.009513
1525.90100 0.009481
1526.00769 0.009449
1526.11450 0.00942
1526.22119 0.009391
1526.32800 0.009364
1526.43469 0.009337
1526.54150 0.009312
1526.64819 0.009287
1526.75500 0.009263
1526.86182 0.009239
1526.96851 0.009216
1527.07532 0.009193
1527.18201 0.00917
1527.28882 0.009147
1527.39551 0.009124
1527.50232 0.0091
1527.60901 0.009076
1527.71582 0.009051
1527.82251 0.009025
1527.92932 0.008999
1528.03601 0.008971
1528.14282 0.008943
1528.24951 0.008913
1528.35632 0.008882
1528.46301 0.00885
1528.56982 0.008817
1528.67651 0.008784
1528.78333 0.00875
1528.89001 0.008715
1528.99683 0.00868
1529.10352 0.008645
1529.21033 0.00861
1529.31702 0.008574
1529.42383 0.008538
1529.53064 0.008502
1529.63733 0.008465
1529.74414 0.008428
1529.85083 0.008391
1529.95764 0.008354
1530.06433 0.008316
1530.17114 0.008277
1530.27783 0.008238
1530.38464 0.008198
1530.49133 0.008158
1530.59814 0.008117
1530.70483 0.008074
1530.81165 0.008031
1530.91833 0.007986
1531.02515 0.00794
1531.13184 0.007892
1531.23865 0.007843
1531.34534 0.007793
1531.45215 0.007742
1531.55884 0.00769
1531.66565 0.007638
1531.77234 0.007585
1531.87915 0.007532
1531.98596 0.007479
1532.09265 0.007427
1532.19946 0.007375
1532.30615 0.007324
1532.41296 0.007273
1532.51965 0.007223
1532.62646 0.007173
1532.73315 0.007123
1532.83997 0.007074
1532.94666 0.007025
1533.05347 0.006977
1533.16016 0.006929
1533.26697 0.006881
1533.37366 0.006832
1533.48047 0.006783
1533.58716 0.006733
1533.69397 0.006681
1533.80066 0.006627
1533.90747 0.006571
1534.01416 0.006513
1534.12097 0.006451
1534.22766 0.006387
1534.33447 0.006322
1534.44116 0.006256
1534.54797 0.006191
1534.65479 0.006129
1534.76147 0.006069
1534.86829 0.006015
1534.97498 0.005966
1535.08179 0.005923
1535.18848 0.005889
1535.29529 0.005862
1535.40198 0.005841
1535.50879 0.005826
1535.61548 0.005815
1535.72229 0.005807
1535.82898 0.005803
1535.93579 0.0058
1536.04248 0.005799
1536.14929 0.005798
1536.25598 0.005796
1689.88159 0.0
