# %ECSV 0.9
# ---
# datatype:
# - {name: wavelength, unit: Angstrom, datatype: float32}
# - {name: response, datatype: float32}
# meta: !!omap
# - {band_name: Ks_old}
# - {group_name: NSFCAM}
wavelength response
16327.97949 0.0
18142.19922 0.00414
18148.80078 0.002038
18155.40039 0.003264
18162.00000 0.003376
18168.59961 0.003043
18175.19922 0.002627
18181.80078 0.001599
18188.40039 0.001489
18195.09961 0.002812
18201.69922 0.002044
18208.30078 0.000303
18214.90039 0.004303
18221.59961 0.003036
18228.19922 0.003319
18234.90039 0.001931
18241.50000 0.002695
18248.19922 0.002653
18254.80078 0.001917
18261.50000 0.002899
18268.19922 0.002635
18274.90039 0.002185
18281.50000 0.002823
18288.19922 0.003155
18294.90039 0.001464
18301.59961 0.002599
18308.30078 0.001982
18315.00000 0.002563
18321.69922 0.003015
18328.40039 0.001883
18335.19922 0.002058
18341.90039 0.003316
18348.59961 0.002762
18355.40039 0.00231
18362.09961 0.001932
18368.80078 0.002822
18375.59961 0.001301
18382.40039 0.000993
18389.09961 0.002309
18395.90039 0.003827
18402.59961 0.003189
18409.40039 0.002247
18416.19922 0.001728
18423.00000 0.002928
18429.80078 0.001771
18436.59961 0.001769
18443.40039 0.002952
18450.19922 0.001409
18457.00000 0.00144
18463.80078 0.001659
18470.59961 0.003362
18477.50000 0.004249
18484.30078 0.003773
18491.09961 0.003789
18498.00000 0.002735
18504.80078 0.001628
18511.69922 0.002104
18518.50000 0.002684
18525.40039 0.002662
18532.19922 0.003571
18539.09961 0.003881
18546.00000 0.0035
18552.90039 0.003077
18559.80078 0.002829
18566.69922 0.003603
18573.59961 0.00276
18580.50000 0.002392
18587.40039 0.00331
18594.30078 0.003637
18601.19922 0.002809
18608.09961 0.001526
18615.00000 0.002975
18622.00000 0.002968
18628.90039 0.00372
18635.90039 0.003097
18642.80078 0.001535
18649.80078 0.003758
18656.69922 0.003452
18663.69922 0.0027
18670.59961 0.003543
18677.59961 0.002255
18684.59961 0.003231
18691.59961 0.002791
18698.59961 0.003085
18705.59961 0.003188
18712.59961 0.003321
18719.59961 0.00165
18726.59961 0.001571
18733.59961 0.004685
18740.59961 0.003067
18747.69922 0.002162
18754.69922 0.002449
18761.69922 0.003141
18768.80078 0.002304
18775.80078 0.002551
18782.90039 0.003998
18789.90039 0.003489
18797.00000 0.003237
18804.09961 0.004182
18811.09961 0.002231
18818.19922 0.005462
18825.30078 0.002087
18832.40039 0.003291
18839.50000 0.002541
18846.59961 0.003474
18853.69922 0.002437
18860.80078 0.004196
18867.90039 0.003364
18875.00000 0.003994
18882.19922 0.002368
18889.30078 0.002836
18896.40039 0.003421
18903.59961 0.004005
18910.69922 0.002195
18917.90039 0.003567
18925.09961 0.004085
18932.19922 0.004089
18939.40039 0.004055
18946.59961 0.00359
18953.80078 0.003167
18960.90039 0.003326
18968.09961 0.004154
18975.30078 0.003138
18982.50000 0.004277
18989.69922 0.003441
18997.00000 0.004681
19004.19922 0.003713
19011.40039 0.004602
19018.59961 0.002856
19025.90039 0.004247
19033.09961 0.002137
19040.40039 0.004649
19047.59961 0.003058
19054.90039 0.004286
19062.09961 0.00374
19069.40039 0.00563
19076.69922 0.004045
19084.00000 0.005246
19091.30078 0.004149
19098.50000 0.005398
19105.80078 0.00423
19113.09961 0.005501
19120.50000 0.004394
19127.80078 0.005014
19135.09961 0.005328
19142.40039 0.004483
19149.80078 0.005198
19157.09961 0.004792
19164.40039 0.005798
19171.80078 0.005476
19179.09961 0.006183
19186.50000 0.006234
19193.90039 0.007069
19201.19922 0.005643
19208.59961 0.007952
19216.00000 0.005554
19223.40039 0.007869
19230.80078 0.006718
19238.19922 0.008262
19245.59961 0.006626
19253.00000 0.008717
19260.40039 0.0078
19267.80078 0.008971
19275.30078 0.007547
19282.69922 0.00969
19290.09961 0.008489
19297.59961 0.010279
19305.00000 0.009645
19312.50000 0.010713
19319.90039 0.010875
19327.40039 0.010729
19334.90039 0.01084
19342.40039 0.011706
19349.80078 0.012009
19357.30078 0.012346
19364.80078 0.013568
19372.30078 0.013581
19379.80078 0.014524
19387.40039 0.014681
19394.90039 0.016465
19402.40039 0.01506
19409.90039 0.017582
19417.50000 0.016198
19425.00000 0.019139
19432.59961 0.017922
19440.09961 0.019349
19447.69922 0.019247
19455.30078 0.022298
19462.80078 0.021035
19470.40039 0.023262
19478.00000 0.022961
19485.59961 0.025249
19493.19922 0.024926
19500.80078 0.027288
19508.40039 0.027659
19516.00000 0.029596
19523.59961 0.030687
19531.19922 0.032612
19538.90039 0.033017
19546.50000 0.034792
19554.19922 0.037205
19561.80078 0.038479
19569.50000 0.04048
19577.09961 0.041823
19584.80078 0.044777
19592.50000 0.046328
19600.19922 0.048484
19607.80078 0.050124
19615.50000 0.053595
19623.19922 0.055257
19630.90039 0.058839
19638.59961 0.060779
19646.40039 0.064232
19654.09961 0.066789
19661.80078 0.071258
19669.59961 0.073795
19677.30078 0.07875
19685.00000 0.081605
19692.80078 0.086932
19700.59961 0.090059
19708.30078 0.094651
19716.09961 0.098836
19723.90039 0.10435
19731.59961 0.109362
19739.40039 0.114872
19747.19922 0.120606
19755.00000 0.126087
19762.80078 0.132583
19770.69922 0.139066
19778.50000 0.145544
19786.30078 0.152489
19794.09961 0.159975
19802.00000 0.166821
19809.80078 0.175011
19817.69922 0.18273
19825.50000 0.191703
19833.40039 0.199349
19841.30078 0.208352
19849.09961 0.216697
19857.00000 0.226414
19864.90039 0.23523
19872.80078 0.244489
19880.69922 0.253642
19888.59961 0.263467
19896.50000 0.272967
19904.50000 0.282881
19912.40039 0.293083
19920.30078 0.302875
19928.30078 0.312419
19936.19922 0.322044
19944.19922 0.332233
19952.09961 0.341705
19960.09961 0.351819
19968.09961 0.361906
19976.00000 0.37069
19984.00000 0.380073
19992.00000 0.38964
20000.00000 0.398202
20008.00000 0.406713
20016.00000 0.415905
20024.00000 0.423494
20032.09961 0.43279
20040.09961 0.439894
20048.09961 0.449258
20056.19922 0.455256
20064.19922 0.463515
20072.30078 0.469171
20080.30078 0.477634
20088.40039 0.483065
20096.50000 0.491335
20104.50000 0.496661
20112.59961 0.503509
20120.69922 0.50813
20128.80078 0.514817
20136.90039 0.519959
20145.00000 0.525662
20153.19922 0.529688
20161.30078 0.534511
20169.40039 0.539161
20177.59961 0.544967
20185.69922 0.549029
20193.90039 0.552128
20202.00000 0.556827
20210.19922 0.560376
20218.40039 0.564239
20226.50000 0.568152
20234.69922 0.572451
20242.90039 0.574182
20251.09961 0.579437
20259.30078 0.581058
20267.50000 0.585898
20275.80078 0.586598
20284.00000 0.591624
20292.19922 0.592413
20300.40039 0.596971
20308.69922 0.597179
20316.90039 0.601838
20325.19922 0.602974
20333.50000 0.606151
20341.69922 0.606972
20350.00000 0.61076
20358.30078 0.611519
20366.59961 0.61408
20374.90039 0.614649
20383.19922 0.617842
20391.50000 0.618241
20399.80078 0.620106
20408.19922 0.621339
20416.50000 0.623025
20424.80078 0.624645
20433.19922 0.625134
20441.50000 0.626788
20449.90039 0.627387
20458.30078 0.629352
20466.59961 0.629149
20475.00000 0.631642
20483.40039 0.630327
20491.80078 0.632951
20500.19922 0.631827
20508.59961 0.634352
20517.00000 0.63355
20525.50000 0.63543
20533.90039 0.633443
20542.30078 0.635936
20550.80078 0.634372
20559.19922 0.636453
20567.69922 0.634334
20576.09961 0.636648
20584.59961 0.636282
20593.09961 0.636976
20601.59961 0.636331
20610.09961 0.636548
20618.59961 0.636617
20627.09961 0.636555
20635.59961 0.636563
20644.09961 0.636549
20652.59961 0.636385
20661.19922 0.636039
20669.69922 0.637189
20678.19922 0.63642
20686.80078 0.636925
20695.40039 0.635251
20703.90039 0.636589
20712.50000 0.635242
20721.09961 0.636822
20729.69922 0.635333
20738.30078 0.637251
20746.90039 0.634546
20755.50000 0.636468
20764.09961 0.635339
20772.69922 0.636349
20781.40039 0.634435
20790.00000 0.636332
20798.69922 0.635133
20807.30078 0.635928
20816.00000 0.634828
20824.69922 0.635147
20833.30078 0.635047
20842.00000 0.636281
20850.69922 0.635739
20859.40039 0.636052
20868.09961 0.636017
20876.80078 0.636186
20885.50000 0.636064
20894.30078 0.635938
20903.00000 0.636425
20911.80078 0.635856
20920.50000 0.637326
20929.30078 0.635937
20938.00000 0.637398
20946.80078 0.635982
20955.59961 0.637355
20964.40039 0.63605
20973.19922 0.637768
20982.00000 0.635873
20990.80078 0.636691
20999.59961 0.635174
21008.40039 0.636573
21017.19922 0.63445
21026.09961 0.634845
21034.90039 0.63439
21043.80078 0.63534
21052.59961 0.633903
21061.50000 0.634641
21070.40039 0.633483
21079.30078 0.633431
21088.09961 0.633058
21097.00000 0.633324
21106.00000 0.632761
21114.90039 0.632326
21123.80078 0.632793
21132.69922 0.632268
21141.59961 0.632358
21150.59961 0.631986
21159.50000 0.632662
21168.50000 0.631406
21177.50000 0.632347
21186.40039 0.63142
21195.40039 0.631599
21204.40039 0.630498
21213.40039 0.631289
21222.40039 0.630654
21231.40039 0.631564
21240.40039 0.629791
21249.50000 0.631666
21258.50000 0.62966
21267.50000 0.631102
21276.59961 0.629732
21285.69922 0.631564
21294.69922 0.629438
21303.80078 0.629155
21312.90039 0.628071
21322.00000 0.62758
21331.09961 0.626274
21340.19922 0.625923
21349.30078 0.625166
21358.40039 0.624497
21367.50000 0.623657
21376.69922 0.623154
21385.80078 0.622911
21395.00000 0.621118
21404.09961 0.621488
21413.30078 0.620549
21422.50000 0.619805
21431.59961 0.617899
21440.80078 0.618644
21450.00000 0.616889
21459.19922 0.616794
21468.40039 0.6145
21477.69922 0.615165
21486.90039 0.613643
21496.09961 0.614292
21505.40039 0.611583
21514.59961 0.612398
21523.90039 0.610271
21533.19922 0.610381
21542.40039 0.608123
21551.69922 0.608458
21561.00000 0.606908
21570.30078 0.606919
21579.59961 0.605733
21588.90039 0.605101
21598.30078 0.604213
21607.59961 0.60324
21616.90039 0.602609
21626.30078 0.601784
21635.69922 0.601252
21645.00000 0.600181
21654.40039 0.599934
21663.80078 0.599239
21673.19922 0.598729
21682.59961 0.597665
21692.00000 0.597318
21701.40039 0.59641
21710.80078 0.596513
21720.19922 0.59505
21729.69922 0.595553
21739.09961 0.59354
21748.59961 0.5946
21758.09961 0.59319
21767.50000 0.593386
21777.00000 0.592691
21786.50000 0.592631
21796.00000 0.591392
21805.50000 0.591554
21815.00000 0.591262
21824.50000 0.591051
21834.09961 0.590596
21843.59961 0.590934
21853.09961 0.590836
21862.69922 0.590474
21872.30078 0.590214
21881.80078 0.590066
21891.40039 0.590384
21901.00000 0.590149
21910.59961 0.590806
21920.19922 0.590335
21929.80078 0.590657
21939.40039 0.590293
21949.09961 0.591785
21958.69922 0.590604
21968.40039 0.591443
21978.00000 0.590785
21987.69922 0.592113
21997.40039 0.591468
22007.00000 0.592369
22016.69922 0.591943
22026.40039 0.593023
22036.09961 0.592577
22045.90039 0.593926
22055.59961 0.593719
22065.30078 0.594434
22075.09961 0.594539
22084.80078 0.595108
22094.59961 0.595293
22104.30078 0.59551
22114.09961 0.596163
22123.90039 0.596977
22133.69922 0.596828
22143.50000 0.597445
22153.30078 0.598296
22163.09961 0.597855
22172.90039 0.598225
22182.80078 0.598092
22192.59961 0.599514
22202.50000 0.598771
22212.40039 0.599852
22222.19922 0.599014
22232.09961 0.599867
22242.00000 0.598759
22251.90039 0.600215
22261.80078 0.598739
22271.69922 0.600115
22281.59961 0.598985
22291.59961 0.600011
22301.50000 0.599165
22311.50000 0.599106
22321.40039 0.599007
22331.40039 0.599587
22341.40039 0.598602
22351.40039 0.598456
22361.40039 0.598126
22371.40039 0.59775
22381.40039 0.597443
22391.40039 0.597258
22401.40039 0.596563
22411.50000 0.595417
22421.50000 0.595482
22431.59961 0.594877
22441.69922 0.594733
22451.69922 0.593506
22461.80078 0.59357
22471.90039 0.592129
22482.00000 0.592302
22492.09961 0.59118
22502.30078 0.590843
22512.40039 0.589638
22522.50000 0.589898
22532.69922 0.588676
22542.80078 0.588676
22553.00000 0.587499
22563.19922 0.587558
22573.40039 0.586549
22583.59961 0.586806
22593.80078 0.585615
22604.00000 0.585513
22614.19922 0.585358
22624.40039 0.58556
22634.69922 0.584881
22644.90039 0.58479
22655.19922 0.584411
22665.50000 0.584852
22675.69922 0.58488
22686.00000 0.584535
22696.30078 0.584567
22706.59961 0.584742
22716.90039 0.585119
22727.30078 0.584781
22737.59961 0.585186
22748.00000 0.585325
22758.30078 0.585624
22768.69922 0.585022
22779.00000 0.585647
22789.40039 0.584865
22799.80078 0.585337
22810.19922 0.584423
22820.59961 0.584401
22831.09961 0.582609
22841.50000 0.582757
22851.90039 0.580215
22862.40039 0.579226
22872.80078 0.57649
22883.30078 0.574225
22893.80078 0.570492
22904.30078 0.56671
22914.80078 0.56167
22925.30078 0.556809
22935.80078 0.550469
22946.30078 0.543603
22956.80078 0.535484
22967.40039 0.526606
22977.90039 0.517177
22988.50000 0.506276
22999.09961 0.494831
23009.69922 0.482168
23020.30078 0.469116
23030.90039 0.454491
23041.50000 0.439959
23052.09961 0.423716
23062.69922 0.407915
23073.40039 0.391137
23084.00000 0.37458
23094.69922 0.357055
23105.40039 0.340121
23116.00000 0.322184
23126.69922 0.305385
23137.40039 0.288635
23148.09961 0.272095
23158.90039 0.25608
23169.59961 0.240502
23180.30078 0.225407
23191.09961 0.210785
23201.90039 0.197212
23212.59961 0.183961
23223.40039 0.17136
23234.19922 0.15964
23245.00000 0.148717
23255.80078 0.138221
23266.59961 0.128106
23277.50000 0.119211
23288.30078 0.110429
23299.19922 0.102549
23310.00000 0.094822
23320.90039 0.088343
23331.80078 0.081521
23342.69922 0.075876
23353.59961 0.070009
23364.50000 0.065302
23375.40039 0.059859
23386.30078 0.056075
23397.30078 0.051527
23408.19922 0.04821
23419.19922 0.044353
23430.19922 0.041385
23441.19922 0.038007
23452.19922 0.035529
23463.19922 0.032724
23474.19922 0.030578
23485.19922 0.027972
23496.19922 0.026209
23507.30078 0.024272
23518.30078 0.022427
23529.40039 0.020711
23540.50000 0.019285
23551.59961 0.018024
23562.69922 0.016487
23573.80078 0.015325
23584.90039 0.014105
23596.00000 0.013386
23607.19922 0.011959
23618.30078 0.011406
23629.50000 0.010171
23640.69922 0.009993
23651.80078 0.008529
23663.00000 0.008359
23674.19922 0.007183
23685.50000 0.007062
23696.69922 0.005885
23707.90039 0.005988
23719.19922 0.00517
23730.40039 0.005101
23741.69922 0.004229
23753.00000 0.004305
26128.30078 0.0
