# %ECSV 0.9
# ---
# datatype:
# - {name: wavelength, unit: Angstrom, datatype: float32}
# - {name: response, datatype: float32}
# meta: !!omap
# - {band_name: Kp_old}
# - {group_name: NSFCAM}
wavelength response
16111.70996 0.0
17901.90039 0.004158
17908.30078 0.001075
17914.69922 0.003631
17921.09961 0.000742
17927.59961 0.004665
17934.00000 0.001385
17940.40039 0.004311
17946.90039 0.001662
17953.30078 0.002398
17959.80078 0.00167
17966.19922 0.004698
17972.69922 0.003364
17979.09961 0.004975
17985.59961 0.003552
17992.09961 0.003737
17998.59961 0.00369
18005.00000 0.003724
18011.50000 0.004318
18018.00000 0.005295
18024.50000 0.004405
18031.00000 0.004385
18037.50000 0.005163
18044.00000 0.006497
18050.50000 0.005833
18057.09961 0.004343
18063.59961 0.006162
18070.09961 0.005201
18076.59961 0.009329
18083.19922 0.005271
18089.69922 0.007587
18096.30078 0.006655
18102.80078 0.00844
18109.40039 0.004978
18115.90039 0.007318
18122.50000 0.007488
18129.09961 0.007694
18135.69922 0.00742
18142.19922 0.008737
18148.80078 0.007133
18155.40039 0.009158
18162.00000 0.00997
18168.59961 0.010912
18175.19922 0.009922
18181.80078 0.009622
18188.40039 0.009594
18195.09961 0.00941
18201.69922 0.011109
18208.30078 0.011221
18214.90039 0.010619
18221.59961 0.011307
18228.19922 0.011632
18234.90039 0.012522
18241.50000 0.012961
18248.19922 0.011978
18254.80078 0.01415
18261.50000 0.014007
18268.19922 0.016129
18274.90039 0.014981
18281.50000 0.014042
18288.19922 0.016776
18294.90039 0.017489
18301.59961 0.015969
18308.30078 0.017142
18315.00000 0.016866
18321.69922 0.017284
18328.40039 0.01833
18335.19922 0.019866
18341.90039 0.020648
18348.59961 0.020646
18355.40039 0.019958
18362.09961 0.018823
18368.80078 0.020889
18375.59961 0.023432
18382.40039 0.021719
18389.09961 0.021754
18395.90039 0.022899
18402.59961 0.022115
18409.40039 0.023849
18416.19922 0.022717
18423.00000 0.024875
18429.80078 0.025778
18436.59961 0.025951
18443.40039 0.026774
18450.19922 0.025831
18457.00000 0.02796
18463.80078 0.028988
18470.59961 0.028328
18477.50000 0.027998
18484.30078 0.03044
18491.09961 0.031705
18498.00000 0.033306
18504.80078 0.033865
18511.69922 0.033679
18518.50000 0.035881
18525.40039 0.036572
18532.19922 0.036787
18539.09961 0.036803
18546.00000 0.038922
18552.90039 0.040582
18559.80078 0.040656
18566.69922 0.040403
18573.59961 0.041795
18580.50000 0.042403
18587.40039 0.045033
18594.30078 0.045365
18601.19922 0.046538
18608.09961 0.047133
18615.00000 0.047793
18622.00000 0.050049
18628.90039 0.050709
18635.90039 0.051221
18642.80078 0.053171
18649.80078 0.053468
18656.69922 0.056621
18663.69922 0.055892
18670.59961 0.057417
18677.59961 0.058267
18684.59961 0.060724
18691.59961 0.062284
18698.59961 0.063196
18705.59961 0.064643
18712.59961 0.066571
18719.59961 0.065774
18726.59961 0.066891
18733.59961 0.069802
18740.59961 0.071208
18747.69922 0.073453
18754.69922 0.075031
18761.69922 0.076123
18768.80078 0.077059
18775.80078 0.079036
18782.90039 0.080734
18789.90039 0.081091
18797.00000 0.083251
18804.09961 0.086299
18811.09961 0.087513
18818.19922 0.090369
18825.30078 0.090769
18832.40039 0.093069
18839.50000 0.092052
18846.59961 0.096438
18853.69922 0.09782
18860.80078 0.100043
18867.90039 0.101312
18875.00000 0.102915
18882.19922 0.105938
18889.30078 0.108515
18896.40039 0.109072
18903.59961 0.111386
18910.69922 0.113874
18917.90039 0.114952
18925.09961 0.1172
18932.19922 0.118939
18939.40039 0.121
18946.59961 0.122754
18953.80078 0.124922
18960.90039 0.127781
18968.09961 0.130163
18975.30078 0.130735
18982.50000 0.13374
18989.69922 0.135578
18997.00000 0.136541
19004.19922 0.139703
19011.40039 0.14366
19018.59961 0.143584
19025.90039 0.145142
19033.09961 0.148605
19040.40039 0.151265
19047.59961 0.152132
19054.90039 0.154258
19062.09961 0.158042
19069.40039 0.158795
19076.69922 0.162216
19084.00000 0.165157
19091.30078 0.167094
19098.50000 0.168855
19105.80078 0.172298
19113.09961 0.173223
19120.50000 0.176161
19127.80078 0.179091
19135.09961 0.180197
19142.40039 0.182901
19149.80078 0.185629
19157.09961 0.188427
19164.40039 0.190911
19171.80078 0.193674
19179.09961 0.195989
19186.50000 0.199536
19193.90039 0.199867
19201.19922 0.20344
19208.59961 0.205665
19216.00000 0.209188
19223.40039 0.21046
19230.80078 0.213391
19238.19922 0.216565
19245.59961 0.219429
19253.00000 0.221929
19260.40039 0.225227
19267.80078 0.228103
19275.30078 0.231091
19282.69922 0.233737
19290.09961 0.238122
19297.59961 0.240597
19305.00000 0.242981
19312.50000 0.245821
19319.90039 0.249338
19327.40039 0.252038
19334.90039 0.255044
19342.40039 0.258695
19349.80078 0.262113
19357.30078 0.264685
19364.80078 0.268203
19372.30078 0.271767
19379.80078 0.275245
19387.40039 0.279596
19394.90039 0.282201
19402.40039 0.286364
19409.90039 0.290394
19417.50000 0.294415
19425.00000 0.297532
19432.59961 0.30157
19440.09961 0.305152
19447.69922 0.310484
19455.30078 0.313221
19462.80078 0.318526
19470.40039 0.321287
19478.00000 0.327478
19485.59961 0.330574
19493.19922 0.335772
19500.80078 0.339963
19508.40039 0.345129
19516.00000 0.348944
19523.59961 0.354934
19531.19922 0.359224
19538.90039 0.363606
19546.50000 0.369692
19554.19922 0.374357
19561.80078 0.379264
19569.50000 0.38393
19577.09961 0.389635
19584.80078 0.395458
19592.50000 0.401384
19600.19922 0.405584
19607.80078 0.41162
19615.50000 0.415302
19623.19922 0.422629
19630.90039 0.427724
19638.59961 0.434921
19646.40039 0.439055
19654.09961 0.445913
19661.80078 0.450143
19669.59961 0.45697
19677.30078 0.462293
19685.00000 0.469807
19692.80078 0.473716
19700.59961 0.48125
19708.30078 0.486769
19716.09961 0.493166
19723.90039 0.498743
19731.59961 0.504972
19739.40039 0.509146
19747.19922 0.516229
19755.00000 0.52161
19762.80078 0.526933
19770.69922 0.534086
19778.50000 0.539035
19786.30078 0.54545
19794.09961 0.549691
19802.00000 0.556757
19809.80078 0.559239
19817.69922 0.567613
19825.50000 0.571162
19833.40039 0.579205
19841.30078 0.580304
19849.09961 0.588639
19857.00000 0.591414
19864.90039 0.599137
19872.80078 0.600119
19880.69922 0.606676
19888.59961 0.609221
19896.50000 0.615549
19904.50000 0.617507
19912.40039 0.624346
19920.30078 0.625845
19928.30078 0.63048
19936.19922 0.632663
19944.19922 0.637849
19952.09961 0.639374
19960.09961 0.643276
19968.09961 0.64536
19976.00000 0.647573
19984.00000 0.650682
19992.00000 0.652793
20000.00000 0.656096
20008.00000 0.655868
20016.00000 0.658962
20024.00000 0.659407
20032.09961 0.663389
20040.09961 0.662186
20048.09961 0.666434
20056.19922 0.665051
20064.19922 0.66747
20072.30078 0.665451
20080.30078 0.66926
20088.40039 0.66774
20096.50000 0.671429
20104.50000 0.669794
20112.59961 0.67145
20120.69922 0.66953
20128.80078 0.67172
20136.90039 0.669785
20145.00000 0.671844
20153.19922 0.669773
20161.30078 0.669771
20169.40039 0.670015
20177.59961 0.671181
20185.69922 0.670455
20193.90039 0.66951
20202.00000 0.66939
20210.19922 0.668531
20218.40039 0.668263
20226.50000 0.667027
20234.69922 0.668208
20242.90039 0.665379
20251.09961 0.668183
20259.30078 0.664735
20267.50000 0.666372
20275.80078 0.663992
20284.00000 0.665682
20292.19922 0.663431
20300.40039 0.664122
20308.69922 0.661793
20316.90039 0.664096
20325.19922 0.661008
20333.50000 0.662959
20341.69922 0.660927
20350.00000 0.662376
20358.30078 0.659823
20366.59961 0.661528
20374.90039 0.659675
20383.19922 0.660911
20391.50000 0.659644
20399.80078 0.659885
20408.19922 0.659416
20416.50000 0.658693
20424.80078 0.659572
20433.19922 0.658686
20441.50000 0.65881
20449.90039 0.65847
20458.30078 0.659936
20466.59961 0.658798
20475.00000 0.659813
20483.40039 0.658314
20491.80078 0.660561
20500.19922 0.658694
20508.59961 0.661369
20517.00000 0.658836
20525.50000 0.661584
20533.90039 0.658993
20542.30078 0.661087
20550.80078 0.660166
20559.19922 0.661935
20567.69922 0.660043
20576.09961 0.662398
20584.59961 0.662184
20593.09961 0.663077
20601.59961 0.662177
20610.09961 0.663207
20618.59961 0.662915
20627.09961 0.663486
20635.59961 0.664172
20644.09961 0.664815
20652.59961 0.664441
20661.19922 0.664451
20669.69922 0.66603
20678.19922 0.665154
20686.80078 0.66615
20695.40039 0.665428
20703.90039 0.667422
20712.50000 0.666007
20721.09961 0.667912
20729.69922 0.66667
20738.30078 0.668926
20746.90039 0.666906
20755.50000 0.669561
20764.09961 0.668045
20772.69922 0.668995
20781.40039 0.667018
20790.00000 0.66967
20798.69922 0.668443
20807.30078 0.669262
20816.00000 0.668194
20824.69922 0.668424
20833.30078 0.66812
20842.00000 0.669291
20850.69922 0.66823
20859.40039 0.668115
20868.09961 0.668346
20876.80078 0.668105
20885.50000 0.667921
20894.30078 0.667308
20903.00000 0.667617
20911.80078 0.666476
20920.50000 0.66729
20929.30078 0.665271
20938.00000 0.666154
20946.80078 0.663763
20955.59961 0.66484
20964.40039 0.662276
20973.19922 0.66381
20982.00000 0.660915
20990.80078 0.661484
20999.59961 0.659105
21008.40039 0.65994
21017.19922 0.656528
21026.09961 0.656971
21034.90039 0.654687
21043.80078 0.65462
21052.59961 0.652833
21061.50000 0.652215
21070.40039 0.650252
21079.30078 0.649757
21088.09961 0.648061
21097.00000 0.647532
21106.00000 0.646454
21114.90039 0.645503
21123.80078 0.644507
21132.69922 0.642937
21141.59961 0.642558
21150.59961 0.641376
21159.50000 0.641423
21168.50000 0.63952
21177.50000 0.639939
21186.40039 0.637987
21195.40039 0.638258
21204.40039 0.636073
21213.40039 0.637468
21222.40039 0.635547
21231.40039 0.636469
21240.40039 0.63413
21249.50000 0.635413
21258.50000 0.633339
21267.50000 0.634888
21276.59961 0.63326
21285.69922 0.635598
21294.69922 0.63331
21303.80078 0.632735
21312.90039 0.63115
21322.00000 0.630902
21331.09961 0.629583
21340.19922 0.629196
21349.30078 0.628412
21358.40039 0.628312
21367.50000 0.628198
21376.69922 0.627637
21385.80078 0.62772
21395.00000 0.62664
21404.09961 0.627242
21413.30078 0.626848
21422.50000 0.627093
21431.59961 0.62532
21440.80078 0.626775
21450.00000 0.625541
21459.19922 0.626923
21468.40039 0.624461
21477.69922 0.627044
21486.90039 0.625475
21496.09961 0.627223
21505.40039 0.625286
21514.59961 0.627188
21523.90039 0.625625
21533.19922 0.627058
21542.40039 0.625602
21551.69922 0.627128
21561.00000 0.626724
21570.30078 0.627894
21579.59961 0.627613
21588.90039 0.627911
21598.30078 0.628284
21607.59961 0.628619
21616.90039 0.628626
21626.30078 0.628701
21635.69922 0.62966
21645.00000 0.62952
21654.40039 0.6301
21663.80078 0.629875
21673.19922 0.630269
21682.59961 0.630563
21692.00000 0.63103
21701.40039 0.630854
21710.80078 0.631799
21720.19922 0.631146
21729.69922 0.632404
21739.09961 0.631386
21748.59961 0.63311
21758.09961 0.632079
21767.50000 0.633074
21777.00000 0.632846
21786.50000 0.633399
21796.00000 0.63263
21805.50000 0.633344
21815.00000 0.633113
21824.50000 0.633107
21834.09961 0.632751
21843.59961 0.633528
21853.09961 0.633745
21862.69922 0.633513
21872.30078 0.633287
21881.80078 0.633431
21891.40039 0.633478
21901.00000 0.632959
21910.59961 0.633404
21920.19922 0.632636
21929.80078 0.63296
21939.40039 0.631847
21949.09961 0.633389
21958.69922 0.631438
21968.40039 0.63186
21978.00000 0.631007
21987.69922 0.631604
21997.40039 0.629589
22007.00000 0.63031
22016.69922 0.628779
22026.40039 0.62908
22036.09961 0.627811
22045.90039 0.628157
22055.59961 0.626634
22065.30078 0.626658
22075.09961 0.625509
22084.80078 0.624772
22094.59961 0.623649
22104.30078 0.622639
22114.09961 0.621999
22123.90039 0.621487
22133.69922 0.62007
22143.50000 0.618988
22153.30078 0.618318
22163.09961 0.616598
22172.90039 0.61566
22182.80078 0.613877
22192.59961 0.61326
22202.50000 0.611224
22212.40039 0.61073
22222.19922 0.607748
22232.09961 0.607392
22242.00000 0.604469
22251.90039 0.60437
22261.80078 0.600769
22271.69922 0.60021
22281.59961 0.597568
22291.59961 0.596499
22301.50000 0.593793
22311.50000 0.59193
22321.40039 0.589602
22331.40039 0.588232
22341.40039 0.585423
22351.40039 0.583002
22361.40039 0.580556
22371.40039 0.578023
22381.40039 0.57576
22391.40039 0.573234
22401.40039 0.57024
22411.50000 0.566886
22421.50000 0.564547
22431.59961 0.56161
22441.69922 0.559083
22451.69922 0.555425
22461.80078 0.552868
22471.90039 0.548782
22482.00000 0.546102
22492.09961 0.542158
22502.30078 0.538971
22512.40039 0.534994
22522.50000 0.531963
22532.69922 0.527095
22542.80078 0.52384
22553.00000 0.518922
22563.19922 0.515755
22573.40039 0.510467
22583.59961 0.506781
22593.80078 0.501614
22604.00000 0.497456
22614.19922 0.492379
22624.40039 0.487967
22634.69922 0.482439
22644.90039 0.477587
22655.19922 0.471982
22665.50000 0.466746
22675.69922 0.461406
22686.00000 0.455389
22696.30078 0.449761
22706.59961 0.443848
22716.90039 0.43784
22727.30078 0.431393
22737.59961 0.425138
22748.00000 0.418571
22758.30078 0.412064
22768.69922 0.405053
22779.00000 0.398518
22789.40039 0.391318
22799.80078 0.384598
22810.19922 0.377343
22820.59961 0.370502
22831.09961 0.362364
22841.50000 0.355675
22851.90039 0.347843
22862.40039 0.340631
22872.80078 0.332858
22883.30078 0.325581
22893.80078 0.31765
22904.30078 0.309856
22914.80078 0.302123
22925.30078 0.294635
22935.80078 0.28675
22946.30078 0.279185
22956.80078 0.271641
22967.40039 0.263901
22977.90039 0.255991
22988.50000 0.248651
22999.09961 0.241309
23009.69922 0.233957
23020.30078 0.226465
23030.90039 0.219277
23041.50000 0.212238
23052.09961 0.205088
23062.69922 0.198379
23073.40039 0.191429
23084.00000 0.184614
23094.69922 0.178313
23105.40039 0.171862
23116.00000 0.165539
23126.69922 0.159442
23137.40039 0.153614
23148.09961 0.147703
23158.90039 0.142273
23169.59961 0.136618
23180.30078 0.1314
23191.09961 0.126109
23201.90039 0.121305
23212.59961 0.116349
23223.40039 0.111582
23234.19922 0.106993
23245.00000 0.102589
23255.80078 0.098437
23266.59961 0.094303
23277.50000 0.090376
23288.30078 0.08646
23299.19922 0.082944
23310.00000 0.079178
23320.90039 0.075872
23331.80078 0.072429
23342.69922 0.069438
23353.59961 0.06626
23364.50000 0.063636
23375.40039 0.060472
23386.30078 0.058074
23397.30078 0.055131
23408.19922 0.053034
23419.19922 0.0504
23430.19922 0.048397
23441.19922 0.04589
23452.19922 0.044124
23463.19922 0.041891
23474.19922 0.040157
23485.19922 0.038171
23496.19922 0.036619
23507.30078 0.034972
23518.30078 0.033416
23529.40039 0.031754
23540.50000 0.030229
23551.59961 0.028717
23562.69922 0.027423
23573.80078 0.026308
23584.90039 0.025045
23596.00000 0.024168
23607.19922 0.022687
23618.30078 0.021857
23629.50000 0.020569
23640.69922 0.019883
23651.80078 0.018736
23663.00000 0.018048
23674.19922 0.016876
23685.50000 0.016547
23696.69922 0.015359
23707.90039 0.015078
23719.19922 0.01389
23730.40039 0.013763
23741.69922 0.012723
23753.00000 0.01227
23764.30078 0.01141
23775.59961 0.011129
23786.90039 0.010404
23798.19922 0.010138
23809.50000 0.00964
23820.90039 0.009107
23832.19922 0.008474
23843.59961 0.008212
23855.00000 0.008097
23866.30078 0.007572
23877.69922 0.007275
23889.19922 0.006789
23900.59961 0.006655
23912.00000 0.006165
23923.40039 0.006049
23934.90039 0.005408
23946.40039 0.005403
23957.80078 0.004649
23969.30078 0.005105
23980.80078 0.004333
23992.30078 0.004474
24003.80078 0.004046
24015.40039 0.004195
26416.94141 0.0
