# %ECSV 0.9
# ---
# datatype:
# - {name: wavelength, unit: Angstrom, datatype: float32}
# - {name: response, datatype: float32}
# meta: !!omap
# - {band_name: J}
# - {group_name: MOIRCS}
wavelength response
10350.00000 0.0
11500.00000 0.004288
11505.00000 0.00491
11510.00000 0.005615
11515.00000 0.006465
11520.00000 0.007222
11525.00000 0.008263
11530.00000 0.009415
11535.00000 0.010758
11540.00000 0.012347
11545.00000 0.014153
11550.00000 0.015608
11555.00000 0.017286
11560.00000 0.018963
11565.00000 0.020786
11570.00000 0.022609
11575.00000 0.024398
11580.00000 0.025988
11585.00000 0.027641
11590.00000 0.028993
11595.00000 0.030663
11600.00000 0.032542
11605.00000 0.034829
11610.00000 0.037142
11615.00000 0.039585
11620.00000 0.042453
11625.00000 0.046174
11630.00000 0.050659
11635.00000 0.056118
11640.00000 0.063232
11645.00000 0.070467
11650.00000 0.079418
11655.00000 0.09056
11660.00000 0.104738
11665.00000 0.123825
11670.00000 0.146106
11675.00000 0.171857
11680.00000 0.200473
11685.00000 0.233578
11690.00000 0.275814
11695.00000 0.324803
11700.00000 0.378966
11705.00000 0.427914
11710.00000 0.475041
11715.00000 0.516134
11720.00000 0.553108
11725.00000 0.582456
11730.00000 0.605753
11735.00000 0.620168
11740.00000 0.629576
11745.00000 0.636026
11750.00000 0.64281
11755.00000 0.64908
11760.00000 0.659221
11765.00000 0.671376
11770.00000 0.685124
11775.00000 0.700598
11780.00000 0.720317
11785.00000 0.740907
11790.00000 0.763077
11795.00000 0.787823
11800.00000 0.808054
11805.00000 0.825663
11810.00000 0.840082
11815.00000 0.850934
11820.00000 0.858512
11825.00000 0.860096
11830.00000 0.857124
11835.00000 0.850646
11840.00000 0.841058
11845.00000 0.830202
11850.00000 0.816216
11855.00000 0.801341
11860.00000 0.788372
11865.00000 0.775935
11870.00000 0.766259
11875.00000 0.757919
11880.00000 0.750546
11885.00000 0.744839
11890.00000 0.742024
11895.00000 0.74086
11900.00000 0.741526
11905.00000 0.743705
11910.00000 0.746909
11915.00000 0.752625
11920.00000 0.75914
11925.00000 0.765742
11930.00000 0.772443
11935.00000 0.779308
11940.00000 0.786632
11945.00000 0.79405
11950.00000 0.800979
11955.00000 0.807487
11960.00000 0.812831
11965.00000 0.817307
11970.00000 0.820938
11975.00000 0.824669
11980.00000 0.826965
11985.00000 0.828963
11990.00000 0.830255
11995.00000 0.830309
12000.00000 0.830973
12005.00000 0.831509
12010.00000 0.831966
12015.00000 0.831958
12020.00000 0.832108
12025.00000 0.832334
12030.00000 0.831567
12035.00000 0.832447
12040.00000 0.831548
12045.00000 0.831279
12050.00000 0.831839
12055.00000 0.831706
12060.00000 0.831704
12065.00000 0.831501
12070.00000 0.831037
12075.00000 0.83121
12080.00000 0.830775
12085.00000 0.830367
12090.00000 0.829935
12095.00000 0.830135
12100.00000 0.829979
12105.00000 0.830601
12110.00000 0.830427
12115.00000 0.831012
12120.00000 0.832111
12125.00000 0.832383
12130.00000 0.83362
12135.00000 0.835137
12140.00000 0.837617
12145.00000 0.83992
12150.00000 0.842389
12155.00000 0.844431
12160.00000 0.847657
12165.00000 0.850185
12170.00000 0.853391
12175.00000 0.856884
12180.00000 0.858719
12185.00000 0.861461
12190.00000 0.863919
12195.00000 0.865804
12200.00000 0.867579
12205.00000 0.868236
12210.00000 0.868735
12215.00000 0.868432
12220.00000 0.867496
12225.00000 0.866359
12230.00000 0.864551
12235.00000 0.862076
12240.00000 0.859596
12245.00000 0.856274
12250.00000 0.85318
12255.00000 0.849831
12260.00000 0.84587
12265.00000 0.841356
12270.00000 0.837745
12275.00000 0.83345
12280.00000 0.830485
12285.00000 0.8274
12290.00000 0.824573
12295.00000 0.822058
12300.00000 0.820068
12305.00000 0.819382
12310.00000 0.818308
12315.00000 0.818109
12320.00000 0.81884
12325.00000 0.820604
12330.00000 0.821363
12335.00000 0.824244
12340.00000 0.828018
12345.00000 0.830044
12350.00000 0.835676
12355.00000 0.836695
12360.00000 0.842636
12365.00000 0.849487
12370.00000 0.85304
12375.00000 0.85802
12380.00000 0.862143
12385.00000 0.865968
12390.00000 0.870186
12395.00000 0.873855
12400.00000 0.876305
12405.00000 0.877557
12410.00000 0.8786
12415.00000 0.878779
12420.00000 0.878995
12425.00000 0.876112
12430.00000 0.874592
12435.00000 0.871017
12440.00000 0.868609
12445.00000 0.863669
12450.00000 0.859277
12455.00000 0.854347
12460.00000 0.848354
12465.00000 0.844295
12470.00000 0.838125
12475.00000 0.835038
12480.00000 0.830763
12485.00000 0.825386
12490.00000 0.821304
12495.00000 0.818181
12500.00000 0.814994
12505.00000 0.813713
12510.00000 0.81268
12515.00000 0.811436
12520.00000 0.812301
12525.00000 0.812703
12530.00000 0.815049
12535.00000 0.817099
12540.00000 0.819872
12545.00000 0.823694
12550.00000 0.827962
12555.00000 0.832933
12560.00000 0.838156
12565.00000 0.842369
12570.00000 0.847919
12575.00000 0.853198
12580.00000 0.859434
12585.00000 0.864668
12590.00000 0.87001
12595.00000 0.874397
12600.00000 0.878426
12605.00000 0.882398
12610.00000 0.885712
12615.00000 0.888457
12620.00000 0.890626
12625.00000 0.891408
12630.00000 0.892195
12635.00000 0.892075
12640.00000 0.89144
12645.00000 0.890129
12650.00000 0.8885
12655.00000 0.886155
12660.00000 0.884152
12665.00000 0.881601
12670.00000 0.878403
12675.00000 0.874899
12680.00000 0.871282
12685.00000 0.868528
12690.00000 0.865842
12695.00000 0.86282
12700.00000 0.860216
12705.00000 0.857335
12710.00000 0.855493
12715.00000 0.853805
12720.00000 0.851511
12725.00000 0.850469
12730.00000 0.849732
12735.00000 0.848789
12740.00000 0.848961
12745.00000 0.848472
12750.00000 0.848476
12755.00000 0.849239
12760.00000 0.849818
12765.00000 0.850289
12770.00000 0.851475
12775.00000 0.851966
12780.00000 0.853135
12785.00000 0.853287
12790.00000 0.853643
12795.00000 0.853925
12800.00000 0.854245
12805.00000 0.853532
12810.00000 0.852719
12815.00000 0.851386
12820.00000 0.849612
12825.00000 0.848125
12830.00000 0.845916
12835.00000 0.842469
12840.00000 0.839176
12845.00000 0.835929
12850.00000 0.832228
12855.00000 0.828125
12860.00000 0.823362
12865.00000 0.818189
12870.00000 0.813551
12875.00000 0.808392
12880.00000 0.804331
12885.00000 0.799801
12890.00000 0.795344
12895.00000 0.791343
12900.00000 0.787012
12905.00000 0.782678
12910.00000 0.779795
12915.00000 0.776924
12920.00000 0.774213
12925.00000 0.772208
12930.00000 0.77018
12935.00000 0.768864
12940.00000 0.768631
12945.00000 0.767877
12950.00000 0.767929
12955.00000 0.768136
12960.00000 0.769123
12965.00000 0.770175
12970.00000 0.771568
12975.00000 0.772491
12980.00000 0.774922
12985.00000 0.776588
12990.00000 0.77815
12995.00000 0.780392
13000.00000 0.781854
13005.00000 0.783638
13010.00000 0.784688
13015.00000 0.785931
13020.00000 0.787801
13025.00000 0.788954
13030.00000 0.789501
13035.00000 0.790646
13040.00000 0.790685
13045.00000 0.790644
13050.00000 0.791371
13055.00000 0.791393
13060.00000 0.791693
13065.00000 0.791921
13070.00000 0.792473
13075.00000 0.793869
13080.00000 0.794736
13085.00000 0.795885
13090.00000 0.798167
13095.00000 0.80003
13100.00000 0.802302
13105.00000 0.805078
13110.00000 0.8075
13115.00000 0.811045
13120.00000 0.81556
13125.00000 0.819803
13130.00000 0.823987
13135.00000 0.828012
13140.00000 0.831957
13145.00000 0.836751
13150.00000 0.841184
13155.00000 0.844951
13160.00000 0.849411
13165.00000 0.852708
13170.00000 0.855309
13175.00000 0.858271
13180.00000 0.860111
13185.00000 0.862404
13190.00000 0.863979
13195.00000 0.864265
13200.00000 0.864204
13205.00000 0.865033
13210.00000 0.865019
13215.00000 0.864698
13220.00000 0.864103
13225.00000 0.863219
13230.00000 0.862733
13235.00000 0.862002
13240.00000 0.861237
13245.00000 0.860509
13250.00000 0.858887
13255.00000 0.857543
13260.00000 0.855773
13265.00000 0.852753
13270.00000 0.848186
13275.00000 0.842233
13280.00000 0.832463
13285.00000 0.821067
13290.00000 0.807274
13295.00000 0.7902
13300.00000 0.769286
13305.00000 0.743031
13310.00000 0.710605
13315.00000 0.675041
13320.00000 0.63889
13325.00000 0.602002
13330.00000 0.563144
13335.00000 0.518947
13340.00000 0.473182
13345.00000 0.429899
13350.00000 0.38898
13355.00000 0.353648
13360.00000 0.31959
13365.00000 0.285808
13370.00000 0.255294
13375.00000 0.226015
13380.00000 0.201201
13385.00000 0.180485
13390.00000 0.162068
13395.00000 0.145827
13400.00000 0.129235
13405.00000 0.114811
13410.00000 0.102604
13415.00000 0.092417
13420.00000 0.083561
13425.00000 0.075588
13430.00000 0.068184
13435.00000 0.061099
13440.00000 0.054929
13445.00000 0.049976
13450.00000 0.045571
13455.00000 0.041756
13460.00000 0.037895
13465.00000 0.034625
13470.00000 0.031336
13475.00000 0.028545
13480.00000 0.026193
13485.00000 0.024025
13490.00000 0.022019
13495.00000 0.020127
13500.00000 0.018379
13505.00000 0.01662
13510.00000 0.015318
13515.00000 0.014063
13520.00000 0.013018
13525.00000 0.011625
13530.00000 0.010525
13535.00000 0.009638
13540.00000 0.008829
13545.00000 0.008017
13550.00000 0.007376
13555.00000 0.006566
13560.00000 0.005979
13565.00000 0.005534
13570.00000 0.005015
13575.00000 0.00459
13580.00000 0.004174
14938.00000 0.0
