# %ECSV 0.9
# ---
# datatype:
# - {name: wavelength, unit: Angstrom, datatype: float32}
# - {name: response, datatype: float32}
# meta: !!omap
# - {band_name: SDSS_z}
# - {group_name: Suprime}
wavelength response
7238.96973 0.0
8043.29980 0.00403
8057.60010 0.00452
8071.79980 0.00512
8086.10010 0.00577
8100.39990 0.00665
8114.70020 0.00772
8128.89990 0.00883
8143.20020 0.0101
8157.50000 0.01164
8171.70020 0.01354
8186.00000 0.01561
8200.29980 0.01803
8214.50000 0.02076
8228.79980 0.02413
8243.09961 0.02833
8257.29980 0.03333
8271.59961 0.03903
8285.90039 0.04589
8300.09961 0.05414
8314.40039 0.0644
8328.70020 0.07695
8342.90039 0.09167
8357.20020 0.10975
8371.50000 0.13148
8385.70020 0.15702
8400.00000 0.1873
8414.29980 0.22171
8428.59961 0.26091
8442.79980 0.30698
8457.09961 0.35589
8471.40039 0.40742
8485.59961 0.46273
8499.90039 0.51936
8514.20020 0.5745
8528.40039 0.63142
8542.70020 0.68754
8557.00000 0.7433
8571.20020 0.78653
8585.50000 0.82264
8599.79980 0.86154
8614.00000 0.89322
8628.29980 0.91522
8642.59961 0.9285
8656.79980 0.93933
8671.09961 0.95393
8685.40039 0.96332
8699.59961 0.96547
8713.90039 0.96772
8728.20020 0.96825
8742.50000 0.96607
8756.70020 0.96219
8771.00000 0.9578
8785.29980 0.95265
8799.50000 0.94804
8813.79980 0.94391
8828.09961 0.94199
8842.29980 0.94244
8856.59961 0.9433
8870.90039 0.94446
8885.09961 0.94664
8899.40039 0.94847
8913.70020 0.94942
8927.90039 0.94936
8942.20020 0.94852
8956.50000 0.94713
8970.70020 0.94462
8985.00000 0.94109
8999.29980 0.93741
9013.50000 0.9343
9027.79980 0.93155
9042.09961 0.92873
9056.40039 0.92653
9070.59961 0.92592
9084.90039 0.92618
9099.20020 0.92659
9113.40039 0.92699
9127.70020 0.92749
9142.00000 0.92836
9156.20020 0.92896
9170.50000 0.9284
9184.79980 0.92794
9199.00000 0.92742
9213.29980 0.92691
9227.59961 0.9266
9241.79980 0.92674
9256.09961 0.92722
9270.40039 0.92888
9284.59961 0.93137
9298.90039 0.93421
9313.20020 0.93747
9327.40039 0.94193
9341.70020 0.94641
9356.00000 0.95056
9370.29980 0.95441
9384.50000 0.95749
9398.79980 0.95996
9413.09961 0.96188
9427.29980 0.96262
9441.59961 0.96165
9455.90039 0.95982
9470.09961 0.95761
9484.40039 0.95485
9498.70020 0.95204
9512.90039 0.94928
9527.20020 0.9471
9541.50000 0.94569
9555.70020 0.94526
9570.00000 0.94533
9584.29980 0.94587
9598.50000 0.94682
9612.79980 0.94803
9627.09961 0.94917
9641.29980 0.94994
9655.59961 0.9505
9669.90039 0.95075
9684.20020 0.94901
9698.40039 0.94607
9712.70020 0.94623
9727.00000 0.9445
9741.20020 0.94017
9755.50000 0.93355
9769.79980 0.92312
9784.00000 0.90599
9798.29980 0.88122
9812.59961 0.84514
9826.79980 0.79812
9841.09961 0.74297
9855.40039 0.68003
9869.59961 0.61108
9883.90039 0.53887
9898.20020 0.46741
9912.40039 0.40029
9926.70020 0.33957
9941.00000 0.28455
9955.20020 0.23653
9969.50000 0.19542
9983.79980 0.16092
9998.09961 0.13265
10012.29980 0.10967
10026.59961 0.09136
10040.90039 0.07614
10055.09961 0.06412
10069.40039 0.05479
10083.70020 0.04754
10097.90039 0.04112
10112.20020 0.03598
10126.50000 0.03175
10140.70020 0.02785
10155.00000 0.02415
10169.29980 0.02088
10183.50000 0.01806
10197.79980 0.01571
10212.09961 0.01412
10226.29980 0.01251
10240.59961 0.01132
10254.90039 0.01045
10269.09961 0.00965
10283.40039 0.00929
10297.70020 0.00863
10312.00000 0.00843
10326.20020 0.00823
10340.50000 0.00781
10354.79980 0.00728
10369.00000 0.00662
10383.29980 0.00668
10397.59961 0.00624
10411.79980 0.00603
10426.09961 0.00556
10440.40039 0.00558
10454.59961 0.00606
10468.90039 0.00652
10483.20020 0.00646
10497.40039 0.00566
10511.70020 0.00581
10526.00000 0.00623
10540.20020 0.00679
10554.50000 0.0066
10568.79980 0.00623
10583.00000 0.00588
10597.29980 0.00578
10611.59961 0.00622
10625.90039 0.00571
10640.09961 0.00466
11704.10938 0.0
