# %ECSV 0.9
# ---
# datatype:
# - {name: wavelength, unit: Angstrom, datatype: float32}
# - {name: response, datatype: float32}
# meta: !!omap
# - {band_name: Ks}
# - {group_name: FourStar}
wavelength response
17100.00000 0.0
19000.00000 0.0002
19010.00000 0.0002
19020.00000 0.0004
19030.00000 0.0002
19040.00000 0.0003
19050.00000 0.0004
19060.00000 0.0003
19070.00000 0.0004
19080.00000 0.0004
19090.00000 0.0004
19100.00000 0.0002
19110.00000 0.0002
19120.00000 0.0004
19130.00000 0.0004
19140.00000 0.0003
19150.00000 0.0004
19160.00000 0.0004
19170.00000 0.0004
19180.00000 0.0005
19190.00000 0.0005
19200.00000 0.0003
19210.00000 0.0004
19220.00000 0.0006
19230.00000 0.0007
19240.00000 0.0006
19250.00000 0.0006
19260.00000 0.0006
19270.00000 0.0007
19280.00000 0.0007
19290.00000 0.0009
19300.00000 0.001
19310.00000 0.0011
19320.00000 0.0012
19330.00000 0.0013
19340.00000 0.0013
19350.00000 0.0014
19360.00000 0.0014
19370.00000 0.0017
19380.00000 0.0018
19390.00000 0.0019
19400.00000 0.0021
19410.00000 0.0022
19420.00000 0.0024
19430.00000 0.0025
19440.00000 0.0027
19450.00000 0.0031
19460.00000 0.0032
19470.00000 0.0036
19480.00000 0.0039
19490.00000 0.0042
19500.00000 0.0046
19510.00000 0.0051
19520.00000 0.0056
19530.00000 0.0063
19540.00000 0.007
19550.00000 0.0078
19560.00000 0.0087
19570.00000 0.0101
19580.00000 0.0113
19590.00000 0.0129
19600.00000 0.0148
19610.00000 0.0169
19620.00000 0.0195
19630.00000 0.0226
19640.00000 0.0265
19650.00000 0.0309
19660.00000 0.0361
19670.00000 0.0425
19680.00000 0.0502
19690.00000 0.059
19700.00000 0.0699
19710.00000 0.0824
19720.00000 0.0965
19730.00000 0.1138
19740.00000 0.1325
19750.00000 0.1534
19760.00000 0.1774
19770.00000 0.2023
19780.00000 0.2292
19790.00000 0.2572
19800.00000 0.2874
19810.00000 0.3164
19820.00000 0.3463
19830.00000 0.377
19840.00000 0.406
19850.00000 0.4355
19860.00000 0.4655
19870.00000 0.4947
19880.00000 0.5238
19890.00000 0.5532
19900.00000 0.5823
19910.00000 0.6103
19920.00000 0.639
19930.00000 0.6664
19940.00000 0.6919
19950.00000 0.7175
19960.00000 0.7396
19970.00000 0.7603
19980.00000 0.7781
19990.00000 0.7931
20000.00000 0.8057
20010.00000 0.8157
20020.00000 0.824
20030.00000 0.8289
20040.00000 0.832
20050.00000 0.8336
20060.00000 0.8342
20070.00000 0.8335
20080.00000 0.8323
20090.00000 0.8303
20100.00000 0.8289
20110.00000 0.827
20120.00000 0.8258
20130.00000 0.8248
20140.00000 0.8241
20150.00000 0.8241
20160.00000 0.8247
20170.00000 0.8258
20180.00000 0.8273
20190.00000 0.8291
20200.00000 0.8314
20210.00000 0.834
20220.00000 0.8365
20230.00000 0.8394
20240.00000 0.8421
20250.00000 0.8452
20260.00000 0.8476
20270.00000 0.8503
20280.00000 0.8528
20290.00000 0.8551
20300.00000 0.8571
20310.00000 0.8588
20320.00000 0.8603
20330.00000 0.8617
20340.00000 0.8624
20350.00000 0.8633
20360.00000 0.8637
20370.00000 0.8643
20380.00000 0.8647
20390.00000 0.8648
20400.00000 0.8646
20410.00000 0.8648
20420.00000 0.8644
20430.00000 0.8646
20440.00000 0.864
20450.00000 0.8639
20460.00000 0.8637
20470.00000 0.8635
20480.00000 0.8625
20490.00000 0.8623
20500.00000 0.862
20510.00000 0.8614
20520.00000 0.8611
20530.00000 0.8605
20540.00000 0.8602
20550.00000 0.86
20560.00000 0.8599
20570.00000 0.8595
20580.00000 0.8596
20590.00000 0.8592
20600.00000 0.8595
20610.00000 0.8598
20620.00000 0.86
20630.00000 0.8603
20640.00000 0.8605
20650.00000 0.8609
20660.00000 0.8616
20670.00000 0.8627
20680.00000 0.8634
20690.00000 0.864
20700.00000 0.8648
20710.00000 0.8654
20720.00000 0.8662
20730.00000 0.8669
20740.00000 0.8676
20750.00000 0.8677
20760.00000 0.8682
20770.00000 0.8683
20780.00000 0.8686
20790.00000 0.8685
20800.00000 0.8683
20810.00000 0.868
20820.00000 0.8677
20830.00000 0.8673
20840.00000 0.8661
20850.00000 0.8656
20860.00000 0.8646
20870.00000 0.8637
20880.00000 0.8629
20890.00000 0.8618
20900.00000 0.861
20910.00000 0.8602
20920.00000 0.8595
20930.00000 0.8586
20940.00000 0.8581
20950.00000 0.8577
20960.00000 0.8571
20970.00000 0.8569
20980.00000 0.8563
20990.00000 0.8563
21000.00000 0.8563
21010.00000 0.8564
21020.00000 0.8568
21030.00000 0.8566
21040.00000 0.8569
21050.00000 0.8573
21060.00000 0.8576
21070.00000 0.8579
21080.00000 0.8579
21090.00000 0.8581
21100.00000 0.8582
21110.00000 0.8582
21120.00000 0.8579
21130.00000 0.8577
21140.00000 0.8567
21150.00000 0.8559
21160.00000 0.8553
21170.00000 0.854
21180.00000 0.8529
21190.00000 0.8515
21200.00000 0.8499
21210.00000 0.8481
21220.00000 0.8465
21230.00000 0.8448
21240.00000 0.8426
21250.00000 0.841
21260.00000 0.8395
21270.00000 0.8379
21280.00000 0.8358
21290.00000 0.8343
21300.00000 0.8331
21310.00000 0.8318
21320.00000 0.8309
21330.00000 0.8297
21340.00000 0.8292
21350.00000 0.8287
21360.00000 0.8286
21370.00000 0.8287
21380.00000 0.8287
21390.00000 0.8292
21400.00000 0.8299
21410.00000 0.8305
21420.00000 0.8315
21430.00000 0.8324
21440.00000 0.8335
21450.00000 0.8349
21460.00000 0.8364
21470.00000 0.8379
21480.00000 0.8391
21490.00000 0.8402
21500.00000 0.8416
21510.00000 0.8428
21520.00000 0.8438
21530.00000 0.8446
21540.00000 0.8454
21550.00000 0.846
21560.00000 0.8459
21570.00000 0.8464
21580.00000 0.8464
21590.00000 0.846
21600.00000 0.8452
21610.00000 0.8446
21620.00000 0.8434
21630.00000 0.8425
21640.00000 0.8412
21650.00000 0.8397
21660.00000 0.8377
21670.00000 0.836
21680.00000 0.8342
21690.00000 0.832
21700.00000 0.8297
21710.00000 0.8274
21720.00000 0.8253
21730.00000 0.8227
21740.00000 0.8205
21750.00000 0.8182
21760.00000 0.8157
21770.00000 0.8137
21780.00000 0.8111
21790.00000 0.8091
21800.00000 0.8067
21810.00000 0.8047
21820.00000 0.8025
21830.00000 0.8006
21840.00000 0.799
21850.00000 0.7971
21860.00000 0.7951
21870.00000 0.7936
21880.00000 0.7918
21890.00000 0.7906
21900.00000 0.789
21910.00000 0.7879
21920.00000 0.7865
21930.00000 0.7856
21940.00000 0.7842
21950.00000 0.7831
21960.00000 0.7824
21970.00000 0.7813
21980.00000 0.7808
21990.00000 0.7799
22000.00000 0.7791
22010.00000 0.7785
22020.00000 0.7778
22030.00000 0.7776
22040.00000 0.7771
22050.00000 0.7768
22060.00000 0.7762
22070.00000 0.7762
22080.00000 0.776
22090.00000 0.7759
22100.00000 0.7762
22110.00000 0.7761
22120.00000 0.7759
22130.00000 0.7761
22140.00000 0.7764
22150.00000 0.7766
22160.00000 0.7772
22170.00000 0.7774
22180.00000 0.7778
22190.00000 0.7783
22200.00000 0.7791
22210.00000 0.7795
22220.00000 0.7802
22230.00000 0.7806
22240.00000 0.7815
22250.00000 0.782
22260.00000 0.7826
22270.00000 0.7832
22280.00000 0.7836
22290.00000 0.7843
22300.00000 0.785
22310.00000 0.7856
22320.00000 0.7857
22330.00000 0.7864
22340.00000 0.7868
22350.00000 0.7873
22360.00000 0.7876
22370.00000 0.7878
22380.00000 0.788
22390.00000 0.7886
22400.00000 0.7888
22410.00000 0.7891
22420.00000 0.7893
22430.00000 0.7894
22440.00000 0.7896
22450.00000 0.7896
22460.00000 0.7895
22470.00000 0.7897
22480.00000 0.7897
22490.00000 0.7898
22500.00000 0.7894
22510.00000 0.7894
22520.00000 0.7895
22530.00000 0.7896
22540.00000 0.7897
22550.00000 0.7897
22560.00000 0.7898
22570.00000 0.7894
22580.00000 0.7894
22590.00000 0.7897
22600.00000 0.7896
22610.00000 0.7895
22620.00000 0.7895
22630.00000 0.7894
22640.00000 0.7892
22650.00000 0.789
22660.00000 0.7891
22670.00000 0.7888
22680.00000 0.7883
22690.00000 0.7877
22700.00000 0.7872
22710.00000 0.7863
22720.00000 0.7853
22730.00000 0.7845
22740.00000 0.7829
22750.00000 0.7815
22760.00000 0.7802
22770.00000 0.7781
22780.00000 0.7761
22790.00000 0.7741
22800.00000 0.7713
22810.00000 0.7691
22820.00000 0.7663
22830.00000 0.7635
22840.00000 0.7609
22850.00000 0.758
22860.00000 0.7552
22870.00000 0.7521
22880.00000 0.7493
22890.00000 0.7465
22900.00000 0.744
22910.00000 0.7415
22920.00000 0.7395
22930.00000 0.7374
22940.00000 0.7357
22950.00000 0.7342
22960.00000 0.7328
22970.00000 0.7319
22980.00000 0.7308
22990.00000 0.7297
23000.00000 0.7288
23010.00000 0.7272
23020.00000 0.7257
23030.00000 0.723
23040.00000 0.7199
23050.00000 0.715
23060.00000 0.7086
23070.00000 0.7003
23080.00000 0.689
23090.00000 0.6755
23100.00000 0.6589
23110.00000 0.638
23120.00000 0.6142
23130.00000 0.587
23140.00000 0.5575
23150.00000 0.5234
23160.00000 0.4891
23170.00000 0.4532
23180.00000 0.4149
23190.00000 0.3796
23200.00000 0.3441
23210.00000 0.3096
23220.00000 0.2772
23230.00000 0.2478
23240.00000 0.2199
23250.00000 0.1946
23260.00000 0.1729
23270.00000 0.1523
23280.00000 0.1343
23290.00000 0.1187
23300.00000 0.1045
23310.00000 0.0921
23320.00000 0.0813
23330.00000 0.0718
23340.00000 0.0632
23350.00000 0.056
23360.00000 0.0497
23370.00000 0.0439
23380.00000 0.039
23390.00000 0.0348
23400.00000 0.0308
23410.00000 0.0273
23420.00000 0.0244
23430.00000 0.0218
23440.00000 0.0195
23450.00000 0.0175
23460.00000 0.0156
23470.00000 0.014
23480.00000 0.0127
23490.00000 0.0114
23500.00000 0.0102
23510.00000 0.0092
23520.00000 0.0083
23530.00000 0.0074
23540.00000 0.0067
23550.00000 0.0062
23560.00000 0.0055
23570.00000 0.005
23580.00000 0.0045
23590.00000 0.004
23600.00000 0.0037
23610.00000 0.0035
23620.00000 0.003
23630.00000 0.0027
23640.00000 0.0025
23650.00000 0.0024
23660.00000 0.0021
23670.00000 0.0018
23680.00000 0.0017
23690.00000 0.0017
23700.00000 0.0014
23710.00000 0.0014
23720.00000 0.0011
23730.00000 0.001
23740.00000 0.001
23750.00000 0.0009
23760.00000 0.0008
23770.00000 0.0008
23780.00000 0.0007
23790.00000 0.0007
23800.00000 0.0006
23810.00000 0.0006
23820.00000 0.0004
23830.00000 0.0004
23840.00000 0.0004
23850.00000 0.0004
23860.00000 0.0004
23870.00000 0.0004
23880.00000 0.0003
23890.00000 0.0002
23900.00000 0.0003
23910.00000 0.0002
23920.00000 0.0003
23930.00000 0.0003
23940.00000 0.0001
23950.00000 0.0001
23960.00000 0.0001
23970.00000 0.0002
23980.00000 0.0002
23990.00000 0.0002
24000.00000 0.0
