# %ECSV 0.9
# ---
# datatype:
# - {name: wavelength, unit: Angstrom, datatype: float32}
# - {name: response, datatype: float32}
# meta: !!omap
# - {band_name: MMTF510ib}
# - {group_name: IMACS}
wavelength response
4431.60010 0.0
4924.00000 0.0022
4925.00000 0.0023
4927.00000 0.0024
4928.00000 0.0025
4929.00000 0.0028
4931.00000 0.0028
4932.00000 0.0028
4934.00000 0.003
4935.00000 0.003
4937.00000 0.0029
4938.00000 0.003
4940.00000 0.003
4941.00000 0.0033
4943.00000 0.0036
4944.00000 0.004
4945.00000 0.0041
4947.00000 0.0044
4948.00000 0.0047
4950.00000 0.0049
4951.00000 0.0054
4953.00000 0.0059
4954.00000 0.0061
4956.00000 0.0064
4957.00000 0.0068
4959.00000 0.007
4960.00000 0.0071
4961.00000 0.0075
4963.00000 0.008
4964.00000 0.0085
4966.00000 0.0088
4967.00000 0.0092
4969.00000 0.0096
4970.00000 0.0103
4972.00000 0.0109
4973.00000 0.0114
4975.00000 0.012
4976.00000 0.0128
4977.00000 0.0134
4979.00000 0.0139
4980.00000 0.0146
4982.00000 0.0156
4983.00000 0.0166
4985.00000 0.0175
4986.00000 0.0185
4988.00000 0.0198
4989.00000 0.0209
4990.00000 0.0222
4992.00000 0.0234
4993.00000 0.0248
4995.00000 0.0265
4996.00000 0.0281
4998.00000 0.0299
4999.00000 0.0318
5001.00000 0.0339
5002.00000 0.0364
5003.00000 0.0391
5005.00000 0.0418
5006.00000 0.0449
5008.00000 0.0482
5009.00000 0.0517
5011.00000 0.0556
5012.00000 0.0599
5014.00000 0.0644
5015.00000 0.0693
5017.00000 0.0748
5018.00000 0.0805
5019.00000 0.0865
5021.00000 0.0936
5022.00000 0.1009
5024.00000 0.1089
5025.00000 0.1178
5027.00000 0.1276
5028.00000 0.1382
5029.00000 0.15
5031.00000 0.1624
5032.00000 0.1757
5034.00000 0.1904
5035.00000 0.2064
5037.00000 0.2233
5038.00000 0.2419
5040.00000 0.2616
5041.00000 0.2826
5042.00000 0.3045
5044.00000 0.328
5045.00000 0.3523
5047.00000 0.3781
5048.00000 0.4046
5050.00000 0.4319
5051.00000 0.4597
5053.00000 0.4879
5054.00000 0.5162
5055.00000 0.5443
5057.00000 0.5721
5058.00000 0.5995
5060.00000 0.626
5061.00000 0.6515
5063.00000 0.6759
5064.00000 0.6989
5065.00000 0.7204
5067.00000 0.7402
5068.00000 0.7585
5070.00000 0.7752
5071.00000 0.7901
5073.00000 0.8034
5074.00000 0.8154
5076.00000 0.8258
5077.00000 0.835
5078.00000 0.8425
5080.00000 0.8485
5081.00000 0.8534
5083.00000 0.8579
5084.00000 0.8613
5086.00000 0.864
5087.00000 0.8658
5088.00000 0.8671
5090.00000 0.8676
5091.00000 0.8681
5093.00000 0.8685
5094.00000 0.8689
5096.00000 0.8691
5097.00000 0.8693
5098.00000 0.8693
5100.00000 0.8693
5101.00000 0.8692
5103.00000 0.8697
5104.00000 0.8702
5106.00000 0.8706
5107.00000 0.8711
5109.00000 0.8713
5110.00000 0.8719
5111.00000 0.8725
5113.00000 0.8729
5114.00000 0.8735
5116.00000 0.8738
5117.00000 0.874
5119.00000 0.8742
5120.00000 0.8745
5121.00000 0.8746
5123.00000 0.8743
5124.00000 0.8745
5126.00000 0.8744
5127.00000 0.8743
5129.00000 0.874
5130.00000 0.874
5131.00000 0.874
5133.00000 0.8742
5134.00000 0.8742
5136.00000 0.8738
5137.00000 0.8737
5139.00000 0.8738
5140.00000 0.873
5141.00000 0.8721
5143.00000 0.8713
5144.00000 0.8711
5146.00000 0.8701
5147.00000 0.8691
5148.00000 0.868
5150.00000 0.8666
5151.00000 0.8658
5153.00000 0.8649
5154.00000 0.8643
5156.00000 0.8636
5157.00000 0.8631
5158.00000 0.8626
5160.00000 0.8618
5161.00000 0.8612
5163.00000 0.8602
5164.00000 0.8596
5166.00000 0.8588
5167.00000 0.8571
5168.00000 0.8552
5170.00000 0.8526
5171.00000 0.8501
5173.00000 0.8468
5174.00000 0.8423
5176.00000 0.8372
5177.00000 0.8315
5178.00000 0.8249
5180.00000 0.8167
5181.00000 0.8075
5183.00000 0.7974
5184.00000 0.7857
5185.00000 0.7726
5187.00000 0.7581
5188.00000 0.7425
5190.00000 0.7253
5191.00000 0.7069
5193.00000 0.6865
5194.00000 0.6652
5195.00000 0.6428
5197.00000 0.6191
5198.00000 0.5945
5200.00000 0.5688
5201.00000 0.5434
5202.00000 0.5176
5204.00000 0.4915
5205.00000 0.4654
5207.00000 0.44
5208.00000 0.4153
5210.00000 0.3906
5211.00000 0.3665
5212.00000 0.3436
5214.00000 0.3213
5215.00000 0.3004
5217.00000 0.28
5218.00000 0.2606
5219.00000 0.2424
5221.00000 0.2252
5222.00000 0.209
5224.00000 0.194
5225.00000 0.1804
5227.00000 0.1674
5228.00000 0.1553
5229.00000 0.1445
5231.00000 0.1344
5232.00000 0.1254
5234.00000 0.1171
5235.00000 0.1091
5236.00000 0.1016
5238.00000 0.0949
5239.00000 0.0884
5241.00000 0.0825
5242.00000 0.0769
5243.00000 0.072
5245.00000 0.0675
5246.00000 0.063
5248.00000 0.0587
5249.00000 0.0549
5250.00000 0.0514
5252.00000 0.0486
5253.00000 0.0452
5255.00000 0.0425
5256.00000 0.0402
5258.00000 0.038
5259.00000 0.0353
5260.00000 0.0329
5262.00000 0.031
5263.00000 0.0292
5265.00000 0.0281
5266.00000 0.0267
5267.00000 0.0251
5269.00000 0.0241
5270.00000 0.0228
5272.00000 0.0211
5273.00000 0.0198
5274.00000 0.0189
5276.00000 0.0182
5277.00000 0.0174
5279.00000 0.0168
5280.00000 0.0159
5281.00000 0.015
5283.00000 0.0141
5284.00000 0.0135
5286.00000 0.013
5287.00000 0.0125
5288.00000 0.0121
5290.00000 0.0117
5291.00000 0.0112
5293.00000 0.0104
5294.00000 0.0096
5295.00000 0.0089
5297.00000 0.0082
5298.00000 0.0078
5300.00000 0.007
5301.00000 0.0065
5302.00000 0.006
5304.00000 0.0056
5305.00000 0.0054
5307.00000 0.0051
5308.00000 0.0049
5309.00000 0.0046
5311.00000 0.0045
5312.00000 0.0044
5314.00000 0.0041
5315.00000 0.004
5316.00000 0.004
5318.00000 0.0042
5319.00000 0.0043
5321.00000 0.0043
5322.00000 0.0044
5323.00000 0.0043
5325.00000 0.0047
5326.00000 0.0043
5328.00000 0.0043
5329.00000 0.0046
5330.00000 0.0049
5332.00000 0.0051
5333.00000 0.005
5335.00000 0.005
5336.00000 0.005
5337.00000 0.0048
5339.00000 0.0047
5340.00000 0.0042
5342.00000 0.0043
5343.00000 0.0046
5344.00000 0.0046
5346.00000 0.0047
5347.00000 0.0051
5349.00000 0.005
5350.00000 0.0051
5351.00000 0.0051
5353.00000 0.0049
5888.29980 0.0
