# %ECSV 0.9
# ---
# datatype:
# - {name: wavelength, unit: Angstrom, datatype: float32}
# - {name: response, datatype: float32}
# meta: !!omap
# - {band_name: V}
# - {group_name: MagIC}
wavelength response
4048.19995 0.0
4498.00000 5e-05
4501.00000 5e-05
4504.00000 6e-05
4507.00000 5e-05
4510.00000 5e-05
4513.00000 6e-05
4516.00000 6e-05
4519.00000 5e-05
4522.00000 6e-05
4525.00000 6e-05
4528.00000 5e-05
4531.00000 6e-05
4534.00000 5e-05
4537.00000 5e-05
4540.00000 6e-05
4543.00000 6e-05
4546.00000 5e-05
4549.00000 6e-05
4552.00000 5e-05
4555.00000 5e-05
4558.00000 6e-05
4561.00000 5e-05
4564.00000 6e-05
4567.00000 5e-05
4570.00000 6e-05
4573.00000 6e-05
4576.00000 5e-05
4579.00000 4e-05
4582.00000 6e-05
4585.00000 6e-05
4588.00000 5e-05
4591.00000 5e-05
4594.00000 5e-05
4597.00000 5e-05
4600.00000 6e-05
4603.00000 6e-05
4606.00000 5e-05
4609.00000 6e-05
4612.00000 5e-05
4615.00000 4e-05
4618.00000 6e-05
4621.00000 5e-05
4624.00000 5e-05
4627.00000 6e-05
4630.00000 6e-05
4633.00000 4e-05
4636.00000 5e-05
4639.00000 6e-05
4642.00000 5e-05
4645.00000 5e-05
4648.00000 5e-05
4651.00000 6e-05
4654.00000 5e-05
4657.00000 6e-05
4660.00000 6e-05
4663.00000 6e-05
4666.00000 6e-05
4669.00000 6e-05
4672.00000 6e-05
4675.00000 6e-05
4678.00000 6e-05
4681.00000 6e-05
4684.00000 6e-05
4687.00000 6e-05
4690.00000 7e-05
4693.00000 7e-05
4696.00000 6e-05
4699.00000 7e-05
4702.00000 8e-05
4705.00000 8e-05
4708.00000 9e-05
4711.00000 0.0001
4714.00000 0.00011
4717.00000 0.00013
4720.00000 0.00013
4723.00000 0.00016
4726.00000 0.00017
4729.00000 0.00021
4732.00000 0.00024
4735.00000 0.00028
4738.00000 0.00032
4741.00000 0.00037
4744.00000 0.00044
4747.00000 0.00053
4750.00000 0.00061
4753.00000 0.00073
4756.00000 0.00086
4759.00000 0.00105
4762.00000 0.00122
4765.00000 0.00148
4768.00000 0.00174
4771.00000 0.00206
4774.00000 0.00246
4777.00000 0.0029
4780.00000 0.00345
4783.00000 0.00404
4786.00000 0.00476
4789.00000 0.0056
4792.00000 0.00659
4795.00000 0.00767
4798.00000 0.009
4801.00000 0.01046
4804.00000 0.01218
4807.00000 0.01412
4810.00000 0.01627
4813.00000 0.01876
4816.00000 0.02155
4819.00000 0.02465
4822.00000 0.02806
4825.00000 0.03202
4828.00000 0.03632
4831.00000 0.04102
4834.00000 0.04618
4837.00000 0.05194
4840.00000 0.05827
4843.00000 0.06506
4846.00000 0.07247
4849.00000 0.08009
4852.00000 0.08903
4855.00000 0.09812
4858.00000 0.10776
4861.00000 0.11805
4864.00000 0.12897
4867.00000 0.1406
4870.00000 0.15263
4873.00000 0.16515
4876.00000 0.17798
4879.00000 0.19193
4882.00000 0.20621
4885.00000 0.22068
4888.00000 0.23524
4891.00000 0.25031
4894.00000 0.26608
4897.00000 0.28167
4900.00000 0.29733
4903.00000 0.31305
4906.00000 0.32995
4909.00000 0.34612
4912.00000 0.36258
4915.00000 0.37877
4918.00000 0.39518
4921.00000 0.41166
4924.00000 0.42761
4927.00000 0.44314
4930.00000 0.45872
4933.00000 0.47506
4936.00000 0.48959
4939.00000 0.50459
4942.00000 0.51898
4945.00000 0.5336
4948.00000 0.54751
4951.00000 0.56136
4954.00000 0.57445
4957.00000 0.58808
4960.00000 0.60115
4963.00000 0.61306
4966.00000 0.62511
4969.00000 0.63658
4972.00000 0.64746
4975.00000 0.65905
4978.00000 0.66944
4981.00000 0.67932
4984.00000 0.68954
4987.00000 0.69948
4990.00000 0.70843
4993.00000 0.71738
4996.00000 0.72569
4999.00000 0.73388
5002.00000 0.74219
5005.00000 0.74999
5008.00000 0.75676
5011.00000 0.76325
5014.00000 0.77067
5017.00000 0.7765
5020.00000 0.78275
5023.00000 0.7884
5026.00000 0.79419
5029.00000 0.79962
5032.00000 0.80487
5035.00000 0.80895
5038.00000 0.81361
5041.00000 0.81809
5044.00000 0.82221
5047.00000 0.82613
5050.00000 0.82959
5053.00000 0.83297
5056.00000 0.83646
5059.00000 0.8398
5062.00000 0.84335
5065.00000 0.84646
5068.00000 0.84901
5071.00000 0.8522
5074.00000 0.85499
5077.00000 0.85679
5080.00000 0.85944
5083.00000 0.8624
5086.00000 0.86368
5089.00000 0.86626
5092.00000 0.86822
5095.00000 0.87047
5098.00000 0.87212
5101.00000 0.87427
5104.00000 0.87531
5107.00000 0.87671
5110.00000 0.87763
5113.00000 0.8792
5116.00000 0.88025
5119.00000 0.88186
5122.00000 0.88273
5125.00000 0.88324
5128.00000 0.88558
5131.00000 0.88604
5134.00000 0.88692
5137.00000 0.88705
5140.00000 0.88782
5143.00000 0.88864
5146.00000 0.89056
5149.00000 0.8902
5152.00000 0.89103
5155.00000 0.89155
5158.00000 0.892
5161.00000 0.8934
5164.00000 0.89252
5167.00000 0.89313
5170.00000 0.89265
5173.00000 0.89342
5176.00000 0.89423
5179.00000 0.89388
5182.00000 0.89486
5185.00000 0.89481
5188.00000 0.89515
5191.00000 0.89506
5194.00000 0.89514
5197.00000 0.89548
5200.00000 0.89571
5203.00000 0.89578
5206.00000 0.89597
5209.00000 0.89519
5212.00000 0.89607
5215.00000 0.89504
5218.00000 0.89524
5221.00000 0.8949
5224.00000 0.89458
5227.00000 0.8944
5230.00000 0.89448
5233.00000 0.89449
5236.00000 0.89398
5239.00000 0.89325
5242.00000 0.89429
5245.00000 0.8933
5248.00000 0.8938
5251.00000 0.89243
5254.00000 0.89291
5257.00000 0.89222
5260.00000 0.89236
5263.00000 0.89126
5266.00000 0.89122
5269.00000 0.89053
5272.00000 0.88997
5275.00000 0.88983
5278.00000 0.88901
5281.00000 0.88772
5284.00000 0.88793
5287.00000 0.88721
5290.00000 0.88723
5293.00000 0.88518
5296.00000 0.886
5299.00000 0.88454
5302.00000 0.88415
5305.00000 0.88382
5308.00000 0.88307
5311.00000 0.88179
5314.00000 0.88097
5317.00000 0.8804
5320.00000 0.88022
5323.00000 0.87894
5326.00000 0.87853
5329.00000 0.87714
5332.00000 0.87645
5335.00000 0.87604
5338.00000 0.87504
5341.00000 0.87401
5344.00000 0.87368
5347.00000 0.87276
5350.00000 0.87147
5353.00000 0.87058
5356.00000 0.86997
5359.00000 0.86825
5362.00000 0.86741
5365.00000 0.86599
5368.00000 0.865
5371.00000 0.86409
5374.00000 0.86338
5377.00000 0.8608
5380.00000 0.86101
5383.00000 0.85876
5386.00000 0.858
5389.00000 0.8565
5392.00000 0.85563
5395.00000 0.85393
5398.00000 0.85298
5401.00000 0.85153
5404.00000 0.85035
5407.00000 0.84944
5410.00000 0.848
5413.00000 0.84661
5416.00000 0.84521
5419.00000 0.84424
5422.00000 0.84214
5425.00000 0.84046
5428.00000 0.83973
5431.00000 0.83792
5434.00000 0.83679
5437.00000 0.8349
5440.00000 0.83408
5443.00000 0.83221
5446.00000 0.82996
5449.00000 0.82881
5452.00000 0.82711
5455.00000 0.82484
5458.00000 0.82378
5461.00000 0.82181
5464.00000 0.82043
5467.00000 0.81797
5470.00000 0.81633
5473.00000 0.81431
5476.00000 0.81307
5479.00000 0.81135
5482.00000 0.80961
5485.00000 0.80725
5488.00000 0.80525
5491.00000 0.8033
5494.00000 0.80166
5497.00000 0.79952
5500.00000 0.79752
5503.00000 0.79603
5506.00000 0.79443
5509.00000 0.79238
5512.00000 0.79017
5515.00000 0.78833
5518.00000 0.78638
5521.00000 0.78305
5524.00000 0.78204
5527.00000 0.77885
5530.00000 0.77703
5533.00000 0.77427
5536.00000 0.77298
5539.00000 0.76995
5542.00000 0.76803
5545.00000 0.76569
5548.00000 0.76389
5551.00000 0.7612
5554.00000 0.75851
5557.00000 0.75553
5560.00000 0.75377
5563.00000 0.75089
5566.00000 0.7487
5569.00000 0.7455
5572.00000 0.74402
5575.00000 0.7415
5578.00000 0.73854
5581.00000 0.7366
5584.00000 0.7342
5587.00000 0.73151
5590.00000 0.72826
5593.00000 0.7268
5596.00000 0.72339
5599.00000 0.72035
5602.00000 0.71787
5605.00000 0.71461
5608.00000 0.71229
5611.00000 0.71015
5614.00000 0.70723
5617.00000 0.70371
5620.00000 0.70157
5623.00000 0.69881
5626.00000 0.69574
5629.00000 0.69299
5632.00000 0.68946
5635.00000 0.68614
5638.00000 0.68372
5641.00000 0.68109
5644.00000 0.67758
5647.00000 0.67449
5650.00000 0.67201
5653.00000 0.66928
5656.00000 0.66585
5659.00000 0.66309
5662.00000 0.65985
5665.00000 0.65635
5668.00000 0.65342
5671.00000 0.65007
5674.00000 0.64723
5677.00000 0.64369
5680.00000 0.64084
5683.00000 0.63793
5686.00000 0.6346
5689.00000 0.63117
5692.00000 0.62851
5695.00000 0.62441
5698.00000 0.62171
5701.00000 0.61832
5704.00000 0.61485
5707.00000 0.61207
5710.00000 0.60783
5713.00000 0.60531
5716.00000 0.60173
5719.00000 0.59775
5722.00000 0.59526
5725.00000 0.59136
5728.00000 0.58799
5731.00000 0.58457
5734.00000 0.58087
5737.00000 0.57719
5740.00000 0.57397
5743.00000 0.57013
5746.00000 0.56678
5749.00000 0.56358
5752.00000 0.55965
5755.00000 0.55611
5758.00000 0.55264
5761.00000 0.54948
5764.00000 0.54552
5767.00000 0.54186
5770.00000 0.53845
5773.00000 0.53496
5776.00000 0.53108
5779.00000 0.52763
5782.00000 0.52391
5785.00000 0.52047
5788.00000 0.51678
5791.00000 0.5133
5794.00000 0.50947
5797.00000 0.5057
5800.00000 0.50252
5803.00000 0.49853
5806.00000 0.49487
5809.00000 0.49171
5812.00000 0.48767
5815.00000 0.48399
5818.00000 0.48006
5821.00000 0.47666
5824.00000 0.47343
5827.00000 0.46964
5830.00000 0.46558
5833.00000 0.46212
5836.00000 0.45893
5839.00000 0.45523
5842.00000 0.45135
5845.00000 0.44768
5848.00000 0.4436
5851.00000 0.43983
5854.00000 0.43639
5857.00000 0.4326
5860.00000 0.42927
5863.00000 0.42575
5866.00000 0.42213
5869.00000 0.41852
5872.00000 0.41486
5875.00000 0.41091
5878.00000 0.40724
5881.00000 0.4038
5884.00000 0.40001
5887.00000 0.39642
5890.00000 0.39274
5893.00000 0.38899
5896.00000 0.38575
5899.00000 0.38184
5902.00000 0.37834
5905.00000 0.37495
5908.00000 0.37131
5911.00000 0.36799
5914.00000 0.3643
5917.00000 0.36067
5920.00000 0.35754
5923.00000 0.35358
5926.00000 0.34999
5929.00000 0.34688
5932.00000 0.34297
5935.00000 0.33988
5938.00000 0.33595
5941.00000 0.33266
5944.00000 0.32901
5947.00000 0.32574
5950.00000 0.32256
5953.00000 0.31912
5956.00000 0.31537
5959.00000 0.31188
5962.00000 0.30855
5965.00000 0.30493
5968.00000 0.30179
5971.00000 0.29835
5974.00000 0.29511
5977.00000 0.29174
5980.00000 0.28825
5983.00000 0.28497
5986.00000 0.28202
5989.00000 0.27876
5992.00000 0.27516
5995.00000 0.27208
5998.00000 0.26908
6001.00000 0.26563
6004.00000 0.26267
6007.00000 0.25952
6010.00000 0.25625
6013.00000 0.25338
6016.00000 0.25023
6019.00000 0.24726
6022.00000 0.24423
6025.00000 0.24126
6028.00000 0.23808
6031.00000 0.23525
6034.00000 0.23228
6037.00000 0.22939
6040.00000 0.22639
6043.00000 0.22358
6046.00000 0.22048
6049.00000 0.21751
6052.00000 0.21462
6055.00000 0.21169
6058.00000 0.20879
6061.00000 0.20612
6064.00000 0.2033
6067.00000 0.20058
6070.00000 0.19798
6073.00000 0.19486
6076.00000 0.19255
6079.00000 0.18973
6082.00000 0.18717
6085.00000 0.18444
6088.00000 0.18188
6091.00000 0.17924
6094.00000 0.17661
6097.00000 0.17411
6100.00000 0.17172
6103.00000 0.16919
6106.00000 0.16684
6109.00000 0.16427
6112.00000 0.16198
6115.00000 0.15961
6118.00000 0.15719
6121.00000 0.15484
6124.00000 0.15256
6127.00000 0.15035
6130.00000 0.14795
6133.00000 0.14578
6136.00000 0.14357
6139.00000 0.14124
6142.00000 0.13905
6145.00000 0.13685
6148.00000 0.13478
6151.00000 0.13255
6154.00000 0.13044
6157.00000 0.12836
6160.00000 0.12633
6163.00000 0.12427
6166.00000 0.12215
6169.00000 0.12017
6172.00000 0.11821
6175.00000 0.11623
6178.00000 0.11432
6181.00000 0.1124
6184.00000 0.11053
6187.00000 0.10866
6190.00000 0.10684
6193.00000 0.10498
6196.00000 0.10314
6199.00000 0.10134
6202.00000 0.09968
6205.00000 0.09782
6208.00000 0.09615
6211.00000 0.09447
6214.00000 0.09288
6217.00000 0.09122
6220.00000 0.08953
6223.00000 0.0879
6226.00000 0.08637
6229.00000 0.08484
6232.00000 0.08338
6235.00000 0.08181
6238.00000 0.08031
6241.00000 0.07887
6244.00000 0.07745
6247.00000 0.07604
6250.00000 0.07469
6253.00000 0.07324
6256.00000 0.07188
6259.00000 0.07059
6262.00000 0.06917
6265.00000 0.06789
6268.00000 0.06662
6271.00000 0.06529
6274.00000 0.06403
6277.00000 0.06281
6280.00000 0.06158
6283.00000 0.06042
6286.00000 0.05923
6289.00000 0.05816
6292.00000 0.05695
6295.00000 0.05582
6298.00000 0.05467
6301.00000 0.05349
6304.00000 0.0525
6307.00000 0.05135
6310.00000 0.05035
6313.00000 0.04932
6316.00000 0.04829
6319.00000 0.04736
6322.00000 0.04635
6325.00000 0.04539
6328.00000 0.04449
6331.00000 0.04359
6334.00000 0.04266
6337.00000 0.04177
6340.00000 0.04094
6343.00000 0.04004
6346.00000 0.03919
6349.00000 0.03837
6352.00000 0.03762
6355.00000 0.03678
6358.00000 0.03596
6361.00000 0.03519
6364.00000 0.03443
6367.00000 0.03366
6370.00000 0.03296
6373.00000 0.03222
6376.00000 0.03147
6379.00000 0.03081
6382.00000 0.0301
6385.00000 0.02939
6388.00000 0.02875
6391.00000 0.02811
6394.00000 0.02748
6397.00000 0.02686
6400.00000 0.02623
6403.00000 0.02565
6406.00000 0.02501
6409.00000 0.02444
6412.00000 0.0239
6415.00000 0.02336
6418.00000 0.0228
6421.00000 0.02224
6424.00000 0.02173
6427.00000 0.02126
6430.00000 0.02074
6433.00000 0.02026
6436.00000 0.01974
6439.00000 0.01929
6442.00000 0.01883
6445.00000 0.0184
6448.00000 0.01797
6451.00000 0.01751
6454.00000 0.01706
6457.00000 0.01668
6460.00000 0.01625
6463.00000 0.01583
6466.00000 0.01545
6469.00000 0.01509
6472.00000 0.01473
6475.00000 0.01438
6478.00000 0.01402
6481.00000 0.01366
6484.00000 0.0133
6487.00000 0.013
6490.00000 0.01261
6493.00000 0.01232
6496.00000 0.01201
6499.00000 0.0117
6502.00000 0.0114
6505.00000 0.0111
6508.00000 0.01082
6511.00000 0.01053
6514.00000 0.01027
6517.00000 0.00999
6520.00000 0.00974
6523.00000 0.00948
6526.00000 0.00925
6529.00000 0.00899
6532.00000 0.00875
6535.00000 0.00855
6538.00000 0.00828
6541.00000 0.00808
6544.00000 0.00785
6547.00000 0.00767
6550.00000 0.00745
6553.00000 0.00723
6556.00000 0.00705
6559.00000 0.00686
6562.00000 0.00666
6565.00000 0.00648
6568.00000 0.00632
6571.00000 0.00614
6574.00000 0.00597
6577.00000 0.00582
6580.00000 0.00564
6583.00000 0.0055
6586.00000 0.00534
6589.00000 0.00519
6592.00000 0.00504
6595.00000 0.00491
6598.00000 0.00476
6601.00000 0.00462
6604.00000 0.00449
6607.00000 0.00436
6610.00000 0.00424
6613.00000 0.00412
6616.00000 0.00401
6619.00000 0.0039
6622.00000 0.00377
6625.00000 0.00366
6628.00000 0.00355
6631.00000 0.00346
6634.00000 0.00335
6637.00000 0.00325
6640.00000 0.00315
6643.00000 0.00306
6646.00000 0.00297
6649.00000 0.00289
6652.00000 0.0028
6655.00000 0.00272
6658.00000 0.00264
6661.00000 0.00254
6664.00000 0.00249
6667.00000 0.00241
6670.00000 0.00234
6673.00000 0.00224
6676.00000 0.0022
6679.00000 0.00216
6682.00000 0.00208
6685.00000 0.002
6688.00000 0.00195
6691.00000 0.00189
6694.00000 0.00184
6697.00000 0.00177
6700.00000 0.00171
6703.00000 0.00167
6706.00000 0.00161
6709.00000 0.00157
6712.00000 0.00151
6715.00000 0.00147
6718.00000 0.00142
6721.00000 0.00138
6724.00000 0.00132
6727.00000 0.00129
6730.00000 0.00125
6733.00000 0.00121
6736.00000 0.00118
6739.00000 0.00114
6742.00000 0.00109
6745.00000 0.00107
6748.00000 0.00103
6751.00000 0.001
6754.00000 0.00096
6757.00000 0.00093
6760.00000 0.0009
6763.00000 0.00088
6766.00000 0.00085
6769.00000 0.00082
6772.00000 0.0008
6775.00000 0.00076
6778.00000 0.00075
6781.00000 0.00072
6784.00000 0.00071
6787.00000 0.00067
6790.00000 0.00065
6793.00000 0.00062
6796.00000 0.00061
6799.00000 0.00059
6802.00000 0.00057
6805.00000 0.00055
6808.00000 0.00054
6811.00000 0.00051
6814.00000 0.00049
6817.00000 0.00049
6820.00000 0.00047
6823.00000 0.00045
6826.00000 0.00044
6829.00000 0.00041
6832.00000 0.00041
6835.00000 0.00038
6838.00000 0.00038
6841.00000 0.00037
6844.00000 0.00035
6847.00000 0.00033
6850.00000 0.00033
6853.00000 0.00032
6856.00000 0.00031
6859.00000 0.0003
6862.00000 0.00028
6865.00000 0.00027
6868.00000 0.00027
6871.00000 0.00027
6874.00000 0.00024
6877.00000 0.00024
6880.00000 0.00023
6883.00000 0.00023
6886.00000 0.00021
6889.00000 0.0002
6892.00000 0.0002
6895.00000 0.0002
6898.00000 0.00019
6901.00000 0.00018
6904.00000 0.00016
6907.00000 0.00017
6910.00000 0.00016
6913.00000 0.00016
6916.00000 0.00014
6919.00000 0.00015
6922.00000 0.00013
6925.00000 0.00014
6928.00000 0.00013
6931.00000 0.00012
6934.00000 0.00012
6937.00000 0.00012
6940.00000 0.00011
6943.00000 0.00011
6946.00000 0.00011
6949.00000 0.0001
6952.00000 0.0001
6955.00000 8e-05
6958.00000 9e-05
6961.00000 8e-05
6964.00000 9e-05
6967.00000 8e-05
6970.00000 7e-05
6973.00000 7e-05
6976.00000 7e-05
6979.00000 7e-05
6982.00000 6e-05
6985.00000 6e-05
6988.00000 6e-05
6991.00000 6e-05
6994.00000 6e-05
6997.00000 5e-05
7000.00000 5e-05
7700.00000 0.0
