# %ECSV 0.9
# ---
# datatype:
# - {name: wavelength, unit: Angstrom, datatype: float32}
# - {name: response, datatype: float32}
# meta: !!omap
# - {band_name: Bes_B}
# - {group_name: ALFOSC}
wavelength response
3213.00000 0.0
3570.00000 0.00426
3575.00000 0.00547
3580.00000 0.006895
3585.00000 0.00864
3590.00000 0.01073
3595.00000 0.01311
3600.00000 0.01572
3605.00000 0.0189
3610.00000 0.02238
3615.00000 0.02623
3620.00000 0.03046
3625.00000 0.03502
3630.00000 0.04008
3635.00000 0.04565
3640.00000 0.05146
3645.00000 0.05771
3650.00000 0.06408
3655.00000 0.07091
3660.00000 0.07811
3665.00000 0.08569
3670.00000 0.09342
3675.00000 0.1017
3680.00000 0.11
3685.00000 0.1184
3690.00000 0.127
3695.00000 0.1361
3700.00000 0.1452
3705.00000 0.1545
3710.00000 0.1637
3715.00000 0.1731
3720.00000 0.1821
3725.00000 0.1917
3730.00000 0.2011
3735.00000 0.2105
3740.00000 0.2201
3745.00000 0.2294
3750.00000 0.239
3755.00000 0.2483
3760.00000 0.2575
3765.00000 0.2668
3770.00000 0.2759
3775.00000 0.2853
3780.00000 0.2941
3785.00000 0.3031
3790.00000 0.3116
3795.00000 0.3203
3800.00000 0.3283
3805.00000 0.3374
3810.00000 0.346
3815.00000 0.3544
3820.00000 0.3621
3825.00000 0.3701
3830.00000 0.378
3835.00000 0.3857
3840.00000 0.3929
3845.00000 0.4007
3850.00000 0.4084
3855.00000 0.4152
3860.00000 0.4225
3865.00000 0.4296
3870.00000 0.4366
3875.00000 0.4431
3880.00000 0.4497
3885.00000 0.4564
3890.00000 0.463
3895.00000 0.4687
3900.00000 0.4747
3905.00000 0.4806
3910.00000 0.4872
3915.00000 0.4923
3920.00000 0.4978
3925.00000 0.5035
3930.00000 0.5085
3935.00000 0.5138
3940.00000 0.5192
3945.00000 0.5241
3950.00000 0.5288
3955.00000 0.5337
3960.00000 0.5384
3965.00000 0.5429
3970.00000 0.5472
3975.00000 0.5517
3980.00000 0.5556
3985.00000 0.5594
3990.00000 0.5636
3995.00000 0.5676
4000.00000 0.5713
4005.00000 0.5748
4010.00000 0.5786
4015.00000 0.5823
4020.00000 0.5853
4025.00000 0.5886
4030.00000 0.5918
4035.00000 0.595
4040.00000 0.5984
4045.00000 0.6012
4050.00000 0.6046
4055.00000 0.6074
4060.00000 0.6096
4065.00000 0.6128
4070.00000 0.6158
4075.00000 0.6183
4080.00000 0.6211
4085.00000 0.6241
4090.00000 0.627
4095.00000 0.629
4100.00000 0.6311
4105.00000 0.6334
4110.00000 0.6351
4115.00000 0.6375
4120.00000 0.6394
4125.00000 0.6415
4130.00000 0.6434
4135.00000 0.6455
4140.00000 0.6472
4145.00000 0.6489
4150.00000 0.651
4155.00000 0.6528
4160.00000 0.6546
4165.00000 0.6561
4170.00000 0.6581
4175.00000 0.6596
4180.00000 0.6615
4185.00000 0.6629
4190.00000 0.6643
4195.00000 0.6658
4200.00000 0.6679
4205.00000 0.6691
4210.00000 0.6703
4215.00000 0.6717
4220.00000 0.6729
4225.00000 0.6736
4230.00000 0.6747
4235.00000 0.6757
4240.00000 0.6764
4245.00000 0.6769
4250.00000 0.6777
4255.00000 0.678
4260.00000 0.6788
4265.00000 0.6789
4270.00000 0.6797
4275.00000 0.6806
4280.00000 0.6809
4285.00000 0.681
4290.00000 0.6813
4295.00000 0.6825
4300.00000 0.6824
4305.00000 0.6827
4310.00000 0.6833
4315.00000 0.6836
4320.00000 0.6837
4325.00000 0.6839
4330.00000 0.6839
4335.00000 0.6836
4340.00000 0.6837
4345.00000 0.684
4350.00000 0.6838
4355.00000 0.6832
4360.00000 0.6826
4365.00000 0.6831
4370.00000 0.683
4375.00000 0.6828
4380.00000 0.6821
4385.00000 0.6826
4390.00000 0.6822
4395.00000 0.6818
4400.00000 0.6811
4405.00000 0.6811
4410.00000 0.6807
4415.00000 0.6803
4420.00000 0.6797
4425.00000 0.6793
4430.00000 0.6783
4435.00000 0.6779
4440.00000 0.6769
4445.00000 0.6759
4450.00000 0.6751
4455.00000 0.6745
4460.00000 0.6739
4465.00000 0.6717
4470.00000 0.67
4475.00000 0.6688
4480.00000 0.6671
4485.00000 0.665
4490.00000 0.6632
4495.00000 0.6618
4500.00000 0.6596
4505.00000 0.6581
4510.00000 0.6567
4515.00000 0.6548
4520.00000 0.653
4525.00000 0.6514
4530.00000 0.6502
4535.00000 0.6485
4540.00000 0.6464
4545.00000 0.6447
4550.00000 0.6428
4555.00000 0.6403
4560.00000 0.6384
4565.00000 0.6362
4570.00000 0.6341
4575.00000 0.6312
4580.00000 0.6288
4585.00000 0.6263
4590.00000 0.6238
4595.00000 0.6205
4600.00000 0.617
4605.00000 0.6139
4610.00000 0.6106
4615.00000 0.6069
4620.00000 0.6035
4625.00000 0.5996
4630.00000 0.5955
4635.00000 0.5911
4640.00000 0.587
4645.00000 0.5826
4650.00000 0.5777
4655.00000 0.5729
4660.00000 0.5678
4665.00000 0.5626
4670.00000 0.5565
4675.00000 0.5507
4680.00000 0.545
4685.00000 0.5387
4690.00000 0.5324
4695.00000 0.5256
4700.00000 0.5188
4705.00000 0.5121
4710.00000 0.5055
4715.00000 0.4986
4720.00000 0.4913
4725.00000 0.4845
4730.00000 0.4777
4735.00000 0.4706
4740.00000 0.4634
4745.00000 0.4561
4750.00000 0.4489
4755.00000 0.4418
4760.00000 0.4345
4765.00000 0.4271
4770.00000 0.4196
4775.00000 0.4123
4780.00000 0.4052
4785.00000 0.3974
4790.00000 0.3897
4795.00000 0.3823
4800.00000 0.3748
4805.00000 0.367
4810.00000 0.3593
4815.00000 0.3515
4820.00000 0.344
4825.00000 0.3361
4830.00000 0.3288
4835.00000 0.3213
4840.00000 0.314
4845.00000 0.3065
4850.00000 0.2992
4855.00000 0.2919
4860.00000 0.2849
4865.00000 0.2777
4870.00000 0.2708
4875.00000 0.264
4880.00000 0.2574
4885.00000 0.2509
4890.00000 0.2444
4895.00000 0.2381
4900.00000 0.2319
4905.00000 0.2262
4910.00000 0.2201
4915.00000 0.2144
4920.00000 0.209
4925.00000 0.2035
4930.00000 0.1983
4935.00000 0.1933
4940.00000 0.1884
4945.00000 0.1838
4950.00000 0.1793
4955.00000 0.175
4960.00000 0.1706
4965.00000 0.1668
4970.00000 0.1628
4975.00000 0.1587
4980.00000 0.1552
4985.00000 0.1516
4990.00000 0.1478
4995.00000 0.1443
5000.00000 0.1407
5005.00000 0.1369
5010.00000 0.133
5015.00000 0.129
5020.00000 0.1252
5025.00000 0.1213
5030.00000 0.1173
5035.00000 0.1133
5040.00000 0.1092
5045.00000 0.1052
5050.00000 0.1011
5055.00000 0.09721
5060.00000 0.09352
5065.00000 0.08955
5070.00000 0.08598
5075.00000 0.08245
5080.00000 0.07901
5085.00000 0.07587
5090.00000 0.07284
5095.00000 0.06992
5100.00000 0.06719
5105.00000 0.06459
5110.00000 0.06192
5115.00000 0.05951
5120.00000 0.05721
5125.00000 0.05489
5130.00000 0.05267
5135.00000 0.05054
5140.00000 0.04844
5145.00000 0.04641
5150.00000 0.04441
5155.00000 0.04255
5160.00000 0.04066
5165.00000 0.03882
5170.00000 0.03705
5175.00000 0.03525
5180.00000 0.03357
5185.00000 0.03197
5190.00000 0.03034
5195.00000 0.02881
5200.00000 0.02729
5205.00000 0.02589
5210.00000 0.02447
5215.00000 0.02317
5220.00000 0.02195
5225.00000 0.02072
5230.00000 0.01952
5235.00000 0.01849
5240.00000 0.01742
5245.00000 0.01645
5250.00000 0.01551
5255.00000 0.01463
5260.00000 0.01383
5265.00000 0.01304
5270.00000 0.0123
5275.00000 0.0116
5280.00000 0.01102
5285.00000 0.01041
5290.00000 0.009795
5295.00000 0.009278
5300.00000 0.008828
5305.00000 0.008395
5310.00000 0.008011
5315.00000 0.00767
5320.00000 0.007337
5325.00000 0.007035
5330.00000 0.006763
5335.00000 0.006495
5340.00000 0.006264
5345.00000 0.006057
5350.00000 0.005861
5355.00000 0.005702
5360.00000 0.005548
5365.00000 0.005391
5370.00000 0.005279
5375.00000 0.005162
5380.00000 0.005084
5385.00000 0.004977
5390.00000 0.004921
5395.00000 0.004844
5400.00000 0.004793
5405.00000 0.004757
5410.00000 0.004724
5415.00000 0.004702
5420.00000 0.004696
5425.00000 0.0047
5430.00000 0.004706
5435.00000 0.004741
5440.00000 0.004773
5445.00000 0.004832
5450.00000 0.004895
5455.00000 0.004969
5460.00000 0.005056
5465.00000 0.005176
5470.00000 0.005272
5475.00000 0.005404
5480.00000 0.005569
5485.00000 0.005714
5490.00000 0.005883
5495.00000 0.006073
5500.00000 0.006277
5505.00000 0.006487
5510.00000 0.006708
5515.00000 0.006925
5520.00000 0.00717
5525.00000 0.007414
5530.00000 0.007666
5535.00000 0.007916
5540.00000 0.008162
5545.00000 0.008417
5550.00000 0.008637
5555.00000 0.008872
5560.00000 0.009057
5565.00000 0.009261
5570.00000 0.009412
5575.00000 0.009537
5580.00000 0.009641
5585.00000 0.009736
5590.00000 0.009788
5595.00000 0.009832
5600.00000 0.009853
5605.00000 0.009828
5610.00000 0.009788
5615.00000 0.009706
5620.00000 0.009624
5625.00000 0.009487
5630.00000 0.009363
5635.00000 0.009203
5640.00000 0.009022
5645.00000 0.008842
5650.00000 0.008609
5655.00000 0.008352
5660.00000 0.00813
5665.00000 0.007857
5670.00000 0.007573
5675.00000 0.007304
5680.00000 0.007007
5685.00000 0.006697
5690.00000 0.006396
5695.00000 0.006129
5700.00000 0.005815
5705.00000 0.005494
5710.00000 0.005175
5715.00000 0.004881
5720.00000 0.004559
5725.00000 0.004268
6297.50000 0.0
