# %ECSV 0.9
# ---
# datatype:
# - {name: wavelength, unit: Angstrom, datatype: float32}
# - {name: response, datatype: float32}
# meta: !!omap
# - {band_name: CH4l}
# - {group_name: NOTcam}
wavelength response
13582.79980 0.0
15092.00000 0.004008
15095.09961 0.004176
15098.29980 0.003295
15101.40039 0.001699
15104.59961 0.001822
15107.70020 0.001781
15110.90039 0.001779
15114.00000 0.001881
15117.20020 0.001573
15120.29980 0.00166
15123.50000 0.001948
15126.59961 0.001849
15129.79980 0.000303
15133.00000 0.0
15136.09961 0.0
15139.29980 0.000439
15142.40039 0.001642
15145.59961 0.003098
15148.70020 0.003099
15151.90039 0.002101
15155.00000 0.003558
15158.20020 0.003795
15161.29980 0.003765
15164.50000 0.003777
15167.59961 0.003713
15170.79980 0.003031
15174.00000 0.002033
15177.09961 0.001649
15180.29980 0.001738
15183.40039 0.001581
15186.59961 0.0017
15189.70020 0.002223
15192.90039 0.002693
15196.00000 0.004929
15199.20020 0.005026
15202.29980 0.004681
15205.50000 0.004114
15208.59961 0.003535
15211.79980 0.00133
15215.00000 0.000581
15218.09961 0.00068
15221.29980 0.000322
15224.40039 0.0004
15227.59961 0.000426
15230.70020 0.001494
15233.90039 0.003241
15237.00000 0.003003
15240.20020 0.002893
15243.29980 0.003067
15246.50000 0.00304
15249.70020 0.003091
15252.79980 0.003355
15256.00000 0.003376
15259.09961 0.003491
15262.29980 0.002859
15265.40039 0.002132
15268.59961 0.002984
15271.70020 0.00337
15274.90039 0.00332
15278.00000 0.003333
15281.20020 0.003426
15284.29980 0.003278
15287.50000 0.002802
15290.70020 0.003075
15293.79980 0.003524
15297.00000 0.003229
15300.09961 0.002998
15303.29980 0.003417
15306.40039 0.003511
15309.59961 0.003493
15312.70020 0.003517
15315.90039 0.003619
15319.00000 0.002713
15322.20020 0.000954
15325.29980 0.001032
15328.50000 0.001496
15331.70020 0.001864
15334.79980 0.002397
15338.00000 0.003547
15341.09961 0.002733
15344.29980 0.002724
15347.40039 0.002769
15350.59961 0.002745
15353.70020 0.002902
15356.90039 0.003342
15360.00000 0.003508
15363.20020 0.003316
15366.29980 0.00307
15369.50000 0.002756
15372.70020 0.002635
15375.79980 0.001936
15379.00000 0.001782
15382.09961 0.002092
15385.29980 0.003303
15388.40039 0.003493
15391.59961 0.003483
15394.70020 0.003505
15397.90039 0.00328
15401.00000 0.002786
15404.20020 0.002655
15407.40039 0.001845
15410.50000 0.001674
15413.70020 0.002475
15416.79980 0.001791
15420.00000 0.002081
15423.09961 0.003105
15426.29980 0.003288
15429.40039 0.003287
15432.59961 0.00322
15435.70020 0.003909
15438.90039 0.003455
15442.00000 0.002739
15445.20020 0.002436
15448.40039 0.002301
15451.50000 0.001783
15454.70020 0.001561
15457.79980 0.001509
15461.00000 0.001522
15464.09961 0.001957
15467.29980 0.002994
15470.40039 0.00301
15473.59961 0.002972
15476.70020 0.003166
15479.90039 0.003155
15483.00000 0.00209
15486.20020 0.000709
15489.40039 0.000298
15492.50000 0.000301
15495.70020 0.000535
15498.79980 0.00145
15502.00000 0.001817
15505.09961 0.002482
15508.29980 0.004163
15511.40039 0.004235
15514.59961 0.004425
15517.70020 0.004298
15520.90039 0.003892
15524.00000 0.003707
15527.20020 0.003581
15530.40039 0.003503
15533.50000 0.003678
15536.70020 0.004039
15539.79980 0.004722
15543.00000 0.004816
15546.09961 0.004765
15549.29980 0.004598
15552.40039 0.004636
15555.59961 0.004341
15558.70020 0.003578
15561.90039 0.004409
15565.09961 0.005518
15568.20020 0.004293
15571.40039 0.004542
15574.50000 0.005378
15577.70020 0.005264
15580.79980 0.005128
15584.00000 0.005265
15587.09961 0.00551
15590.29980 0.005617
15593.40039 0.00568
15596.59961 0.005678
15599.70020 0.005708
15602.90039 0.006438
15606.09961 0.007596
15609.20020 0.007553
15612.40039 0.007633
15615.50000 0.006998
15618.70020 0.005428
15621.79980 0.004835
15625.00000 0.004795
15628.09961 0.006111
15631.29980 0.006883
15634.40039 0.006801
15637.59961 0.005693
15640.70020 0.005336
15643.90039 0.00539
15647.09961 0.005381
15650.20020 0.005582
15653.40039 0.006116
15656.50000 0.006503
15659.70020 0.007932
15662.79980 0.007766
15666.00000 0.007265
15669.09961 0.007585
15672.29980 0.007743
15675.40039 0.007267
15678.59961 0.007959
15681.70020 0.008775
15684.90039 0.007842
15688.09961 0.007227
15691.20020 0.007227
15694.40039 0.007151
15697.50000 0.007247
15700.70020 0.008625
15703.79980 0.009412
15707.00000 0.011524
15710.09961 0.012098
15713.29980 0.012163
15716.40039 0.012186
15719.59961 0.012258
15722.79980 0.012438
15725.90039 0.012766
15729.09961 0.013881
15732.20020 0.013996
15735.40039 0.014325
15738.50000 0.014653
15741.70020 0.014788
15744.79980 0.014448
15748.00000 0.014419
15751.09961 0.014109
15754.29980 0.013339
15757.40039 0.013134
15760.59961 0.013356
15763.79980 0.013329
15766.90039 0.013331
15770.09961 0.013339
15773.20020 0.01315
15776.40039 0.013071
15779.50000 0.013052
15782.70020 0.01302
15785.79980 0.013112
15789.00000 0.014293
15792.09961 0.013179
15795.29980 0.013315
15798.40039 0.01291
15801.59961 0.012838
15804.79980 0.012856
15807.90039 0.012766
15811.09961 0.01253
15814.20020 0.01248
15817.40039 0.012214
15820.50000 0.012837
15823.70020 0.0143
15826.79980 0.014234
15830.00000 0.014558
15833.09961 0.015254
15836.29980 0.013391
15839.40039 0.012215
15842.59961 0.013936
15845.79980 0.012874
15848.90039 0.012922
15852.09961 0.013856
15855.20020 0.013897
15858.40039 0.014673
15861.50000 0.015679
15864.70020 0.016143
15867.79980 0.017631
15871.00000 0.018398
15874.09961 0.018425
15877.29980 0.018687
15880.40039 0.018909
15883.59961 0.022148
15886.79980 0.023176
15889.90039 0.022937
15893.09961 0.020811
15896.20020 0.020239
15899.40039 0.020632
15902.50000 0.024505
15905.70020 0.025399
15908.79980 0.025778
15912.00000 0.026365
15915.09961 0.027282
15918.29980 0.027825
15921.50000 0.028338
15924.59961 0.030393
15927.79980 0.030727
15930.90039 0.032205
15934.09961 0.033959
15937.20020 0.034795
15940.40039 0.034762
15943.50000 0.034939
15946.70020 0.035394
15949.79980 0.035585
15953.00000 0.036555
15956.09961 0.038067
15959.29980 0.03899
15962.50000 0.039787
15965.59961 0.041497
15968.79980 0.041658
15971.90039 0.041935
15975.09961 0.04344
15978.20020 0.045974
15981.40039 0.04762
15984.50000 0.049345
15987.70020 0.050522
15990.79980 0.050791
15994.00000 0.050734
15997.09961 0.052158
16000.29980 0.055184
16003.50000 0.058364
16006.59961 0.060674
16009.79980 0.061767
16012.90039 0.062221
16016.09961 0.062588
16019.20020 0.065163
16022.40039 0.066779
16025.50000 0.066716
16028.70020 0.06859
16031.79980 0.070106
16035.00000 0.071907
16038.09961 0.074407
16041.29980 0.077243
16044.50000 0.079316
16047.59961 0.082231
16050.79980 0.084328
16053.90039 0.087595
16057.09961 0.08955
16060.20020 0.089864
16063.40039 0.093407
16066.50000 0.096078
16069.70020 0.097602
16072.79980 0.103887
16076.00000 0.106984
16079.20020 0.110959
16082.29980 0.114248
16085.50000 0.116068
16088.59961 0.117459
16091.79980 0.120749
16094.90039 0.126946
16098.09961 0.130773
16101.20020 0.132569
16104.40039 0.140725
16107.50000 0.146541
16110.70020 0.148978
16113.79980 0.154997
16117.00000 0.161983
16120.20020 0.168831
16123.29980 0.173389
16126.50000 0.177274
16129.59961 0.184014
16132.79980 0.191053
16135.90039 0.197903
16139.09961 0.20361
16142.20020 0.210328
16145.40039 0.219928
16148.50000 0.226653
16151.70020 0.233986
16154.79980 0.242174
16158.00000 0.250466
16161.20020 0.259412
16164.29980 0.268848
16167.50000 0.278393
16170.59961 0.287161
16173.79980 0.295326
16176.90039 0.304837
16180.09961 0.315694
16183.20020 0.325922
16186.40039 0.336037
16189.50000 0.34721
16192.70020 0.35819
16195.79980 0.36933
16199.00000 0.38129
16202.20020 0.393909
16205.29980 0.408198
16208.50000 0.419139
16211.59961 0.430129
16214.79980 0.443673
16217.90039 0.455159
16221.09961 0.468393
16224.20020 0.483598
16227.40039 0.498057
16230.50000 0.512618
16233.70020 0.52646
16236.90039 0.534212
16240.00000 0.548801
16243.20020 0.567463
16246.29980 0.58234
16249.50000 0.596174
16252.59961 0.606826
16255.79980 0.622741
16258.90039 0.636822
16262.09961 0.654819
16265.20020 0.669092
16268.40039 0.680592
16271.50000 0.700762
16274.70020 0.70866
16277.90039 0.723211
16281.00000 0.737989
16284.20020 0.748717
16287.29980 0.757077
16290.50000 0.768017
16293.59961 0.781631
16296.79980 0.795004
16299.90039 0.800125
16303.09961 0.807717
16306.20020 0.816395
16309.40039 0.829537
16312.50000 0.838429
16315.70020 0.848979
16318.90039 0.851978
16322.00000 0.859915
16325.20020 0.865955
16328.29980 0.872106
16331.50000 0.883926
16334.59961 0.887381
16337.79980 0.899308
16340.90039 0.900946
16344.09961 0.903436
16347.20020 0.908204
16350.40039 0.908959
16353.50000 0.911273
16356.70020 0.915294
16359.90039 0.919284
16363.00000 0.922346
16366.20020 0.924814
16369.29980 0.92544
16372.50000 0.925363
16375.59961 0.925755
16378.79980 0.930147
16381.90039 0.930113
16385.09961 0.929037
16388.19922 0.929194
16391.40039 0.929329
16394.59961 0.927264
16397.69922 0.925186
16400.90039 0.92255
16404.00000 0.920644
16407.19922 0.92036
16410.30078 0.919524
16413.50000 0.91769
16416.59961 0.916361
16419.80078 0.917513
16422.90039 0.919181
16426.09961 0.916923
16429.19922 0.913658
16432.40039 0.913649
16435.59961 0.913312
16438.69922 0.912506
16441.90039 0.910743
16445.00000 0.910156
16448.19922 0.908477
16451.30078 0.908002
16454.50000 0.906332
16457.59961 0.906397
16460.80078 0.905815
16463.90039 0.902516
16467.09961 0.902034
16470.19922 0.900815
16473.40039 0.899905
16476.59961 0.900599
16479.69922 0.900731
16482.90039 0.898478
16486.00000 0.897022
16489.19922 0.901309
16492.30078 0.899459
16495.50000 0.896953
16498.59961 0.896722
16501.80078 0.896755
16504.90039 0.89549
16508.09961 0.892784
16511.19922 0.891614
16514.40039 0.891779
16517.59961 0.891789
16520.69922 0.891527
16523.90039 0.893411
16527.00000 0.896029
16530.19922 0.896915
16533.30078 0.897539
16536.50000 0.896019
16539.59961 0.896657
16542.80078 0.900106
16545.90039 0.903921
16549.09961 0.904205
16552.30078 0.90516
16555.40039 0.905233
16558.59961 0.905208
16561.69922 0.905231
16564.90039 0.905125
16568.00000 0.904434
16571.19922 0.904984
16574.30078 0.90522
16577.50000 0.905758
16580.59961 0.905849
16583.80078 0.909333
16586.90039 0.911464
16590.09961 0.90975
16593.30078 0.910336
16596.40039 0.912026
16599.59961 0.913373
16602.69922 0.914353
16605.90039 0.916516
16609.00000 0.918975
16612.19922 0.920541
16615.30078 0.923183
16618.50000 0.923482
16621.59961 0.924657
16624.80078 0.924773
16627.90039 0.924512
16631.09961 0.924813
16634.30078 0.926262
16637.40039 0.92645
16640.59961 0.926417
16643.69922 0.926432
16646.90039 0.926381
16650.00000 0.92666
16653.19922 0.931507
16656.30078 0.935421
16659.50000 0.936604
16662.59961 0.937198
16665.80078 0.937727
16668.90039 0.940023
16672.09961 0.941752
16675.30078 0.941927
16678.40039 0.94334
16681.59961 0.944518
16684.69922 0.944921
16687.90039 0.945856
16691.00000 0.945856
16694.19922 0.945611
16697.30078 0.944869
16700.50000 0.944496
16703.59961 0.943597
16706.80078 0.94353
16710.00000 0.943497
16713.09961 0.943029
16716.30078 0.943418
16719.40039 0.944816
16722.59961 0.943692
16725.69922 0.939432
16728.90039 0.941187
16732.00000 0.939919
16735.19922 0.937335
16738.30078 0.937731
16741.50000 0.937464
16744.59961 0.936562
16747.80078 0.934946
16751.00000 0.93207
16754.09961 0.92885
16757.30078 0.927134
16760.40039 0.925783
16763.59961 0.925119
16766.69922 0.921908
16769.90039 0.919605
16773.00000 0.918688
16776.19922 0.916692
16779.30078 0.916174
16782.50000 0.911715
16785.59961 0.909796
16788.80078 0.908417
16792.00000 0.902878
16795.09961 0.89572
16798.30078 0.89293
16801.40039 0.893059
16804.59961 0.892054
16807.69922 0.891846
16810.90039 0.888877
16814.00000 0.882415
16817.19922 0.881913
16820.30078 0.881204
16823.50000 0.876915
16826.59961 0.868819
16829.80078 0.867516
16833.00000 0.865835
16836.09961 0.86115
16839.30078 0.858486
16842.40039 0.855898
16845.59961 0.851229
16848.69922 0.846725
16851.90039 0.84371
16855.00000 0.840662
16858.19922 0.837533
16861.30078 0.834005
16864.50000 0.8299
16867.59961 0.827921
16870.80078 0.826581
16874.00000 0.822767
16877.09961 0.818796
16880.30078 0.814383
16883.40039 0.81171
16886.59961 0.806918
16889.69922 0.801476
16892.90039 0.797859
16896.00000 0.796677
16899.19922 0.792536
16902.30078 0.789361
16905.50000 0.786203
16908.69922 0.781597
16911.80078 0.777766
16915.00000 0.775671
16918.09961 0.774786
16921.30078 0.771177
16924.40039 0.765491
16927.59961 0.762318
16930.69922 0.760559
16933.90039 0.757144
16937.00000 0.752071
16940.19922 0.749605
16943.30078 0.745107
16946.50000 0.743438
16949.69922 0.740438
16952.80078 0.736896
16956.00000 0.735307
16959.09961 0.734781
16962.30078 0.734414
16965.40039 0.732913
16968.59961 0.729682
16971.69922 0.726042
16974.90039 0.723368
16978.00000 0.721269
16981.19922 0.719981
16984.30078 0.716704
16987.50000 0.715556
16990.69922 0.712875
16993.80078 0.711778
16997.00000 0.711208
17000.09961 0.709724
17003.30078 0.707106
17006.40039 0.702527
17009.59961 0.699743
17012.69922 0.700071
17015.90039 0.699961
17019.00000 0.699848
17022.19922 0.699678
17025.30078 0.6986
17028.50000 0.696649
17031.69922 0.694255
17034.80078 0.693848
17038.00000 0.692466
17041.09961 0.691953
17044.30078 0.69212
17047.40039 0.690519
17050.59961 0.689306
17053.69922 0.689396
17056.90039 0.687894
17060.00000 0.686037
17063.19922 0.685144
17066.40039 0.683143
17069.50000 0.682832
17072.69922 0.68278
17075.80078 0.68286
17079.00000 0.682861
17082.09961 0.682576
17085.30078 0.682436
17088.40039 0.682284
17091.59961 0.681962
17094.69922 0.681862
17097.90039 0.681536
17101.00000 0.681125
17104.19922 0.681382
17107.40039 0.682076
17110.50000 0.682672
17113.69922 0.682728
17116.80078 0.682993
17120.00000 0.683077
17123.09961 0.683003
17126.30078 0.68303
17129.40039 0.684631
17132.59961 0.68523
17135.69922 0.686364
17138.90039 0.687382
17142.00000 0.687785
17145.19922 0.688298
17148.40039 0.688438
17151.50000 0.688902
17154.69922 0.688684
17157.80078 0.687885
17161.00000 0.687806
17164.09961 0.687592
17167.30078 0.687192
17170.40039 0.687432
17173.59961 0.687587
17176.69922 0.687639
17179.90039 0.686875
17183.00000 0.686181
17186.19922 0.686189
17189.40039 0.686188
17192.50000 0.685644
17195.69922 0.684198
17198.80078 0.684078
17202.00000 0.683243
17205.09961 0.681656
17208.30078 0.680584
17211.40039 0.679022
17214.59961 0.678004
17217.69922 0.677998
17220.90039 0.676749
17224.09961 0.674971
17227.19922 0.672643
17230.40039 0.667836
17233.50000 0.664002
17236.69922 0.662745
17239.80078 0.659578
17243.00000 0.657799
17246.09961 0.65703
17249.30078 0.656979
17252.40039 0.651468
17255.59961 0.646225
17258.69922 0.640707
17261.90039 0.634449
17265.09961 0.628778
17268.19922 0.625575
17271.40039 0.622711
17274.50000 0.614471
17277.69922 0.609449
17280.80078 0.603703
17284.00000 0.599024
17287.09961 0.592263
17290.30078 0.584715
17293.40039 0.576732
17296.59961 0.570433
17299.69922 0.56766
17302.90039 0.56256
17306.09961 0.551955
17309.19922 0.542651
17312.40039 0.537934
17315.50000 0.533347
17318.69922 0.525461
17321.80078 0.514772
17325.00000 0.507864
17328.09961 0.498875
17331.30078 0.489918
17334.40039 0.483047
17337.59961 0.474685
17340.69922 0.465813
17343.90039 0.459859
17347.09961 0.453369
17350.19922 0.443851
17353.40039 0.436145
17356.50000 0.427973
17359.69922 0.418306
17362.80078 0.411265
17366.00000 0.405479
17369.09961 0.395303
17372.30078 0.385513
17375.40039 0.380952
17378.59961 0.373511
17381.80078 0.362378
17384.90039 0.355787
17388.09961 0.349095
17391.19922 0.341462
17394.40039 0.334431
17397.50000 0.326758
17400.69922 0.317913
17403.80078 0.311421
17407.00000 0.305271
17410.09961 0.295743
17413.30078 0.286289
17416.40039 0.282148
17419.59961 0.27759
17422.80078 0.267748
17425.90039 0.26096
17429.09961 0.254402
17432.19922 0.252099
17435.40039 0.24529
17438.50000 0.238168
17441.69922 0.232515
17444.80078 0.225259
17448.00000 0.220917
17451.09961 0.218464
17454.30078 0.211717
17457.40039 0.205233
17460.59961 0.202199
17463.80078 0.19837
17466.90039 0.193344
17470.09961 0.185505
17473.19922 0.180816
17476.40039 0.178079
17479.50000 0.174739
17482.69922 0.170056
17485.80078 0.164505
17489.00000 0.161029
17492.09961 0.159283
17495.30078 0.155023
17498.40039 0.150536
17501.59961 0.145629
17504.80078 0.141184
17507.90039 0.140051
17511.09961 0.135104
17514.19922 0.128915
17517.40039 0.126732
17520.50000 0.126496
17523.69922 0.124507
17526.80078 0.119618
17530.00000 0.114789
17533.09961 0.113806
17536.30078 0.113658
17539.50000 0.109631
17542.59961 0.10447
17545.80078 0.101847
17548.90039 0.099596
17552.09961 0.097147
17555.19922 0.093669
17558.40039 0.090086
17561.50000 0.089977
17564.69922 0.088352
17567.80078 0.086042
17571.00000 0.08557
17574.09961 0.084158
17577.30078 0.081726
17580.50000 0.080599
17583.59961 0.080736
17586.80078 0.079226
17589.90039 0.076645
17593.09961 0.074718
17596.19922 0.071571
17599.40039 0.069148
17602.50000 0.066694
17605.69922 0.066272
17608.80078 0.066237
17612.00000 0.065928
17615.09961 0.06424
17618.30078 0.060371
17621.50000 0.057354
17624.59961 0.057337
17627.80078 0.057856
17630.90039 0.05778
17634.09961 0.057258
17637.19922 0.056772
17640.40039 0.055244
17643.50000 0.054716
17646.69922 0.051784
17649.80078 0.047878
17653.00000 0.04668
17656.09961 0.046674
17659.30078 0.04639
17662.50000 0.04636
17665.59961 0.046157
17668.80078 0.045848
17671.90039 0.045416
17675.09961 0.042847
17678.19922 0.038818
17681.40039 0.037087
17684.50000 0.037273
17687.69922 0.037649
17690.80078 0.038509
17694.00000 0.038552
17697.19922 0.038638
17700.30078 0.038481
17703.50000 0.035269
17706.59961 0.034133
17709.80078 0.034296
17712.90039 0.034994
17716.09961 0.035726
17719.19922 0.035662
17722.40039 0.035589
17725.50000 0.034986
17728.69922 0.033576
17731.80078 0.031861
17735.00000 0.031177
17738.19922 0.031195
17741.30078 0.030201
17744.50000 0.029541
17747.59961 0.028581
17750.80078 0.027777
17753.90039 0.028467
17757.09961 0.027307
17760.19922 0.025912
17763.40039 0.025361
17766.50000 0.02534
17769.69922 0.023853
17772.80078 0.022998
17776.00000 0.023648
17779.19922 0.022688
17782.30078 0.020184
17785.50000 0.019209
17788.59961 0.017914
17791.80078 0.014825
17794.90039 0.014423
17798.09961 0.015534
17801.19922 0.015598
17804.40039 0.018954
17807.50000 0.02194
17810.69922 0.02026
17813.80078 0.018327
17817.00000 0.018553
17820.19922 0.018316
17823.30078 0.017913
17826.50000 0.017771
17829.59961 0.013818
17832.80078 0.012089
17835.90039 0.012435
17839.09961 0.012348
17842.19922 0.01263
17845.40039 0.011364
17848.50000 0.006706
19633.34961 0.0
