# %ECSV 0.9
# ---
# datatype:
# - {name: wavelength, unit: Angstrom, datatype: float32}
# - {name: response, datatype: float32}
# meta: !!omap
# - {band_name: R}
# - {group_name: WFC}
wavelength response
4914.00000 0.0
5460.00000 0.004711
5470.00000 0.007642
5480.00000 0.012069
5490.00000 0.01846
5500.00000 0.027251
5510.00000 0.039103
5520.00000 0.054577
5530.00000 0.07371
5540.00000 0.096797
5550.00000 0.124105
5560.00000 0.155624
5570.00000 0.189895
5580.00000 0.22679
5590.00000 0.266755
5600.00000 0.307464
5610.00000 0.348599
5620.00000 0.390312
5630.00000 0.429969
5640.00000 0.469124
5650.00000 0.507128
5660.00000 0.541059
5670.00000 0.574576
5680.00000 0.588435
5690.00000 0.632395
5700.00000 0.658863
5710.00000 0.682002
5720.00000 0.701076
5730.00000 0.719744
5740.00000 0.736845
5750.00000 0.749227
5760.00000 0.762939
5770.00000 0.775221
5780.00000 0.783098
5790.00000 0.791975
5800.00000 0.799785
5810.00000 0.804598
5820.00000 0.809317
5830.00000 0.815122
5840.00000 0.817289
5850.00000 0.820488
5860.00000 0.824707
5870.00000 0.825054
5880.00000 0.826532
5890.00000 0.82962
5900.00000 0.828633
5910.00000 0.829394
5920.00000 0.831025
5930.00000 0.829941
5940.00000 0.829453
5950.00000 0.830841
5960.00000 0.829727
5970.00000 0.828294
5980.00000 0.82931
5990.00000 0.826267
6000.00000 0.824806
6010.00000 0.82546
6020.00000 0.822728
6030.00000 0.820957
6040.00000 0.820464
6050.00000 0.818318
6060.00000 0.816902
6070.00000 0.815614
6080.00000 0.813344
6090.00000 0.810062
6100.00000 0.810167
6110.00000 0.806936
6120.00000 0.804027
6130.00000 0.803438
6140.00000 0.800759
6150.00000 0.797544
6160.00000 0.797055
6170.00000 0.794076
6180.00000 0.79062
6190.00000 0.789401
6200.00000 0.786482
6210.00000 0.782487
6220.00000 0.780949
6230.00000 0.777977
6240.00000 0.774152
6250.00000 0.771873
6260.00000 0.768851
6270.00000 0.764751
6280.00000 0.763167
6290.00000 0.760183
6300.00000 0.755767
6310.00000 0.753952
6320.00000 0.750676
6330.00000 0.746361
6340.00000 0.74447
6350.00000 0.741637
6360.00000 0.738064
6370.00000 0.735865
6380.00000 0.732564
6390.00000 0.728487
6400.00000 0.725977
6410.00000 0.722883
6420.00000 0.718954
6430.00000 0.715807
6440.00000 0.71269
6450.00000 0.707674
6460.00000 0.705525
6470.00000 0.702654
6480.00000 0.698037
6490.00000 0.694794
6500.00000 0.691752
6510.00000 0.687081
6520.00000 0.684095
6530.00000 0.6807
6540.00000 0.675933
6550.00000 0.67292
6560.00000 0.6705
6570.00000 0.665955
6580.00000 0.662481
6590.00000 0.659903
6600.00000 0.654852
6610.00000 0.651542
6620.00000 0.648606
6630.00000 0.643642
6640.00000 0.639875
6650.00000 0.637563
6660.00000 0.632287
6670.00000 0.628601
6680.00000 0.625961
6690.00000 0.620993
6700.00000 0.616983
6710.00000 0.614108
6720.00000 0.609752
6730.00000 0.606451
6740.00000 0.602734
6750.00000 0.597868
6760.00000 0.594124
6770.00000 0.590809
6780.00000 0.586668
6790.00000 0.581114
6800.00000 0.577928
6810.00000 0.572844
6820.00000 0.567529
6830.00000 0.564355
6840.00000 0.55915
6850.00000 0.554094
6860.00000 0.550381
6870.00000 0.546067
6880.00000 0.5405
6890.00000 0.537271
6900.00000 0.532685
6910.00000 0.52693
6920.00000 0.523222
6930.00000 0.518513
6940.00000 0.51387
6950.00000 0.509847
6960.00000 0.505101
6970.00000 0.499657
6980.00000 0.495639
6990.00000 0.492132
7000.00000 0.486706
7010.00000 0.482703
7020.00000 0.478896
7030.00000 0.473048
7040.00000 0.469202
7050.00000 0.464569
7060.00000 0.459351
7070.00000 0.455382
7080.00000 0.451373
7090.00000 0.446499
7100.00000 0.442496
7110.00000 0.437596
7120.00000 0.432913
7130.00000 0.428694
7140.00000 0.424692
7150.00000 0.420714
7160.00000 0.415636
7170.00000 0.412521
7180.00000 0.40953
7190.00000 0.403212
7200.00000 0.399293
7210.00000 0.39326
7220.00000 0.390583
7230.00000 0.386042
7240.00000 0.381603
7250.00000 0.377438
7260.00000 0.374128
7270.00000 0.369216
7280.00000 0.364859
7290.00000 0.360881
7300.00000 0.356072
7310.00000 0.352676
7320.00000 0.348275
7330.00000 0.343956
7340.00000 0.340183
7350.00000 0.336652
7360.00000 0.332147
7370.00000 0.328056
7380.00000 0.324306
7390.00000 0.319769
7400.00000 0.315918
7410.00000 0.312091
7420.00000 0.307435
7430.00000 0.304321
7440.00000 0.300392
7450.00000 0.295656
7460.00000 0.292615
7470.00000 0.288944
7480.00000 0.284154
7490.00000 0.280858
7500.00000 0.277419
7510.00000 0.273219
7520.00000 0.269253
7530.00000 0.265857
7540.00000 0.262048
7550.00000 0.257995
7560.00000 0.254707
7570.00000 0.250783
7580.00000 0.247245
7590.00000 0.243369
7600.00000 0.23996
7610.00000 0.236472
7620.00000 0.233482
7630.00000 0.229654
7640.00000 0.225655
7650.00000 0.223322
7660.00000 0.219076
7670.00000 0.215853
7680.00000 0.212712
7690.00000 0.20943
7700.00000 0.205466
7710.00000 0.203087
7720.00000 0.199359
7730.00000 0.195959
7740.00000 0.193655
7750.00000 0.189873
7760.00000 0.186242
7770.00000 0.18329
7780.00000 0.180858
7790.00000 0.177661
7800.00000 0.175004
7810.00000 0.171895
7820.00000 0.168568
7830.00000 0.166567
7840.00000 0.163247
7850.00000 0.160255
7860.00000 0.158012
7870.00000 0.155314
7880.00000 0.152427
7890.00000 0.149653
7900.00000 0.147467
7910.00000 0.144242
7920.00000 0.142445
7930.00000 0.139584
7940.00000 0.137021
7950.00000 0.134725
7960.00000 0.132038
7970.00000 0.129623
7980.00000 0.127485
7990.00000 0.12514
8000.00000 0.122383
8010.00000 0.120647
8020.00000 0.118562
8030.00000 0.116106
8040.00000 0.114058
8050.00000 0.111917
8060.00000 0.109434
8070.00000 0.107187
8080.00000 0.105857
8090.00000 0.103497
8100.00000 0.101466
8110.00000 0.099658
8120.00000 0.098239
8130.00000 0.095761
8140.00000 0.094372
8150.00000 0.09177
8160.00000 0.090368
8170.00000 0.088731
8180.00000 0.086649
8190.00000 0.084854
8200.00000 0.083364
8210.00000 0.081541
8220.00000 0.080257
8230.00000 0.07814
8240.00000 0.076773
8250.00000 0.07566
8260.00000 0.073729
8270.00000 0.072135
8280.00000 0.070811
8290.00000 0.069361
8300.00000 0.067727
8310.00000 0.066967
8320.00000 0.065399
8330.00000 0.063814
8340.00000 0.062043
8350.00000 0.061143
8360.00000 0.05978
8370.00000 0.058524
8380.00000 0.057255
8390.00000 0.056118
8400.00000 0.055255
8410.00000 0.054441
8420.00000 0.052312
8430.00000 0.05157
8440.00000 0.050558
8450.00000 0.049581
8460.00000 0.048619
8470.00000 0.04703
8480.00000 0.046352
8490.00000 0.045144
8500.00000 0.044191
8510.00000 0.043101
8520.00000 0.042188
8530.00000 0.041379
8540.00000 0.040659
8550.00000 0.039194
8560.00000 0.039167
8570.00000 0.038009
8580.00000 0.037334
8590.00000 0.036141
8600.00000 0.034855
8610.00000 0.035331
8620.00000 0.034492
8630.00000 0.033012
8640.00000 0.032647
8650.00000 0.031462
8660.00000 0.030844
8670.00000 0.031087
8680.00000 0.029313
8690.00000 0.028335
8700.00000 0.028441
8710.00000 0.027628
8720.00000 0.026679
8730.00000 0.02632
8740.00000 0.024611
8750.00000 0.024909
8760.00000 0.024559
8770.00000 0.02511
8780.00000 0.023642
8790.00000 0.022907
8800.00000 0.021166
8810.00000 0.021667
8820.00000 0.022821
8830.00000 0.02171
8840.00000 0.020373
8850.00000 0.021785
8860.00000 0.019717
8870.00000 0.020739
8880.00000 0.019099
8890.00000 0.018252
8900.00000 0.020624
8910.00000 0.020109
8920.00000 0.019363
8930.00000 0.017518
8940.00000 0.015225
8950.00000 0.01619
8960.00000 0.015802
8970.00000 0.017268
8980.00000 0.016201
8990.00000 0.017184
9000.00000 0.014485
9900.00000 0.0
