# %ECSV 0.9
# ---
# datatype:
# - {name: wavelength, unit: Angstrom, datatype: float32}
# - {name: response, datatype: float32}
# meta: !!omap
# - {band_name: Gunn_g}
# - {group_name: WFC}
wavelength response
3627.00000 0.0
4030.00000 0.005182
4035.00000 0.007223
4040.00000 0.009861
4045.00000 0.013356
4050.00000 0.017996
4055.00000 0.02381
4060.00000 0.030857
4065.00000 0.039483
4070.00000 0.049272
4075.00000 0.060149
4080.00000 0.071377
4085.00000 0.082942
4090.00000 0.094276
4095.00000 0.104757
4100.00000 0.11428
4105.00000 0.12348
4110.00000 0.132056
4115.00000 0.140612
4120.00000 0.149236
4125.00000 0.158627
4130.00000 0.16926
4135.00000 0.180906
4140.00000 0.194133
4145.00000 0.209423
4150.00000 0.226967
4155.00000 0.24687
4160.00000 0.268198
4165.00000 0.29164
4170.00000 0.316533
4175.00000 0.341305
4180.00000 0.365917
4185.00000 0.389265
4190.00000 0.410611
4195.00000 0.428793
4200.00000 0.442993
4205.00000 0.45356
4210.00000 0.461331
4215.00000 0.466207
4220.00000 0.469095
4225.00000 0.471039
4230.00000 0.472694
4235.00000 0.475006
4240.00000 0.478573
4245.00000 0.483855
4250.00000 0.491113
4255.00000 0.500319
4260.00000 0.51203
4265.00000 0.525187
4270.00000 0.539909
4275.00000 0.557117
4280.00000 0.574526
4285.00000 0.59267
4290.00000 0.610901
4295.00000 0.627883
4300.00000 0.64264
4305.00000 0.656924
4310.00000 0.667669
4315.00000 0.676522
4320.00000 0.683029
4325.00000 0.687089
4330.00000 0.689485
4335.00000 0.690813
4340.00000 0.690628
4345.00000 0.690472
4350.00000 0.690858
4355.00000 0.691076
4360.00000 0.693134
4365.00000 0.695537
4370.00000 0.699543
4375.00000 0.703935
4380.00000 0.709774
4385.00000 0.71641
4390.00000 0.723058
4395.00000 0.730985
4400.00000 0.738461
4405.00000 0.7457
4410.00000 0.752328
4415.00000 0.757676
4420.00000 0.762572
4425.00000 0.766481
4430.00000 0.76912
4435.00000 0.770752
4440.00000 0.772026
4445.00000 0.771923
4450.00000 0.771838
4455.00000 0.772325
4460.00000 0.772092
4465.00000 0.772285
4470.00000 0.77384
4475.00000 0.775316
4480.00000 0.776836
4485.00000 0.780107
4490.00000 0.782698
4495.00000 0.786718
4500.00000 0.791555
4505.00000 0.796301
4510.00000 0.801101
4515.00000 0.80623
4520.00000 0.810167
4525.00000 0.813785
4530.00000 0.817557
4535.00000 0.819469
4540.00000 0.821307
4545.00000 0.822284
4550.00000 0.822605
4555.00000 0.822501
4560.00000 0.821531
4565.00000 0.821127
4570.00000 0.819301
4575.00000 0.819198
4580.00000 0.818487
4585.00000 0.817937
4590.00000 0.818311
4595.00000 0.81884
4600.00000 0.820407
4605.00000 0.822879
4610.00000 0.825421
4615.00000 0.827925
4620.00000 0.83102
4625.00000 0.834992
4630.00000 0.838357
4635.00000 0.842026
4640.00000 0.84607
4645.00000 0.848674
4650.00000 0.85154
4655.00000 0.853807
4660.00000 0.855627
4665.00000 0.857111
4670.00000 0.857711
4675.00000 0.857818
4680.00000 0.857497
4685.00000 0.857498
4690.00000 0.856433
4695.00000 0.855333
4700.00000 0.855089
4705.00000 0.853583
4710.00000 0.853652
4715.00000 0.853199
4720.00000 0.85281
4725.00000 0.853522
4730.00000 0.854418
4735.00000 0.85494
4740.00000 0.856354
4745.00000 0.857859
4750.00000 0.859859
4755.00000 0.861693
4760.00000 0.864549
4765.00000 0.866703
4770.00000 0.869236
4775.00000 0.871253
4780.00000 0.872726
4785.00000 0.87497
4790.00000 0.877253
4795.00000 0.878825
4800.00000 0.879714
4805.00000 0.881553
4810.00000 0.8829
4815.00000 0.884009
4820.00000 0.885191
4825.00000 0.88584
4830.00000 0.886124
4835.00000 0.887568
4840.00000 0.887509
4845.00000 0.88858
4850.00000 0.889516
4855.00000 0.89001
4860.00000 0.891244
4865.00000 0.891589
4870.00000 0.892293
4875.00000 0.892628
4880.00000 0.893523
4885.00000 0.893639
4890.00000 0.893779
4895.00000 0.893372
4900.00000 0.89222
4905.00000 0.891587
4910.00000 0.891311
4915.00000 0.889823
4920.00000 0.888613
4925.00000 0.887419
4930.00000 0.886195
4935.00000 0.884693
4940.00000 0.883677
4945.00000 0.883167
4950.00000 0.881634
4955.00000 0.88143
4960.00000 0.881868
4965.00000 0.88213
4970.00000 0.883048
4975.00000 0.88361
4980.00000 0.885616
4985.00000 0.886481
4990.00000 0.888768
4995.00000 0.890088
5000.00000 0.892166
5005.00000 0.893683
5010.00000 0.895275
5015.00000 0.896297
5020.00000 0.896784
5025.00000 0.896758
5030.00000 0.896555
5035.00000 0.895509
5040.00000 0.89456
5045.00000 0.892637
5050.00000 0.890309
5055.00000 0.887221
5060.00000 0.884092
5065.00000 0.881223
5070.00000 0.877989
5075.00000 0.874431
5080.00000 0.87175
5085.00000 0.869345
5090.00000 0.866554
5095.00000 0.865549
5100.00000 0.864228
5105.00000 0.864389
5110.00000 0.864301
5115.00000 0.86507
5120.00000 0.866666
5125.00000 0.868814
5130.00000 0.870787
5135.00000 0.874069
5140.00000 0.877878
5145.00000 0.880287
5150.00000 0.883193
5155.00000 0.886366
5160.00000 0.88829
5165.00000 0.890695
5170.00000 0.891605
5175.00000 0.892036
5180.00000 0.891091
5185.00000 0.890791
5190.00000 0.888476
5195.00000 0.885591
5200.00000 0.882656
5205.00000 0.88019
5210.00000 0.87584
5215.00000 0.87246
5220.00000 0.868526
5225.00000 0.865069
5230.00000 0.861956
5235.00000 0.859453
5240.00000 0.85686
5245.00000 0.856051
5250.00000 0.854916
5255.00000 0.854507
5260.00000 0.855329
5265.00000 0.856063
5270.00000 0.857324
5275.00000 0.859481
5280.00000 0.860755
5285.00000 0.862266
5290.00000 0.864625
5295.00000 0.866049
5300.00000 0.866746
5305.00000 0.867132
5310.00000 0.867285
5315.00000 0.866047
5320.00000 0.865164
5325.00000 0.863768
5330.00000 0.86182
5335.00000 0.859469
5340.00000 0.857545
5345.00000 0.855422
5350.00000 0.853359
5355.00000 0.851665
5360.00000 0.850182
5365.00000 0.848177
5370.00000 0.846797
5375.00000 0.844689
5380.00000 0.842769
5385.00000 0.839268
5390.00000 0.834681
5395.00000 0.829229
5400.00000 0.822278
5405.00000 0.813747
5410.00000 0.803831
5415.00000 0.792924
5420.00000 0.781905
5425.00000 0.770349
5430.00000 0.761228
5435.00000 0.753554
5440.00000 0.74922
5445.00000 0.747852
5450.00000 0.749238
5455.00000 0.75255
5460.00000 0.753539
5465.00000 0.748517
5470.00000 0.728527
5475.00000 0.686342
5480.00000 0.622398
5485.00000 0.535927
5490.00000 0.437038
5495.00000 0.339797
5500.00000 0.253738
5505.00000 0.182523
5510.00000 0.129199
5515.00000 0.089747
5520.00000 0.063594
5525.00000 0.044727
5530.00000 0.031792
5535.00000 0.022974
5540.00000 0.016898
5545.00000 0.012454
5550.00000 0.009342
5555.00000 0.007011
5560.00000 0.005379
5565.00000 0.004156
6121.50000 0.0
