# %ECSV 0.9
# ---
# datatype:
# - {name: wavelength, unit: Angstrom, datatype: float32}
# - {name: response, datatype: float32}
# meta: !!omap
# - {band_name: Gunn_r}
# - {group_name: WFC}
wavelength response
4896.00000 0.0
5440.00000 0.005652
5445.00000 0.008193
5450.00000 0.011744
5455.00000 0.016234
5460.00000 0.02213
5465.00000 0.029538
5470.00000 0.038709
5475.00000 0.049663
5480.00000 0.062348
5485.00000 0.076861
5490.00000 0.093581
5495.00000 0.110832
5500.00000 0.12993
5505.00000 0.149641
5510.00000 0.170454
5515.00000 0.191186
5520.00000 0.212236
5525.00000 0.233666
5530.00000 0.25598
5535.00000 0.277627
5540.00000 0.300245
5545.00000 0.322871
5550.00000 0.345775
5555.00000 0.368551
5560.00000 0.390988
5565.00000 0.413149
5570.00000 0.435085
5575.00000 0.454558
5580.00000 0.473129
5585.00000 0.489893
5590.00000 0.50513
5595.00000 0.518567
5600.00000 0.529932
5605.00000 0.539966
5610.00000 0.549622
5615.00000 0.558528
5620.00000 0.567174
5625.00000 0.575401
5630.00000 0.584709
5635.00000 0.594212
5640.00000 0.603932
5645.00000 0.614573
5650.00000 0.625264
5655.00000 0.636568
5660.00000 0.647783
5665.00000 0.659526
5670.00000 0.670761
5675.00000 0.682386
5680.00000 0.693139
5685.00000 0.703957
5690.00000 0.708914
5695.00000 0.725802
5700.00000 0.73627
5705.00000 0.745967
5710.00000 0.755769
5715.00000 0.764932
5720.00000 0.774032
5725.00000 0.782484
5730.00000 0.791144
5735.00000 0.799291
5740.00000 0.806235
5745.00000 0.813712
5750.00000 0.819152
5755.00000 0.824803
5760.00000 0.829778
5765.00000 0.834856
5770.00000 0.839158
5775.00000 0.843079
5780.00000 0.84666
5785.00000 0.849738
5790.00000 0.853278
5795.00000 0.855856
5800.00000 0.858972
5805.00000 0.862375
5810.00000 0.865649
5815.00000 0.868855
5820.00000 0.871953
5825.00000 0.875101
5830.00000 0.877994
5835.00000 0.880258
5840.00000 0.882473
5845.00000 0.883531
5850.00000 0.885027
5855.00000 0.885272
5860.00000 0.8843
5865.00000 0.884499
5870.00000 0.884227
5875.00000 0.882997
5880.00000 0.881438
5885.00000 0.880993
5890.00000 0.880256
5895.00000 0.879745
5900.00000 0.880647
5905.00000 0.8802
5910.00000 0.881787
5915.00000 0.883198
5920.00000 0.885347
5925.00000 0.887482
5930.00000 0.890279
5935.00000 0.89239
5940.00000 0.894568
5945.00000 0.897034
5950.00000 0.898038
5955.00000 0.898979
5960.00000 0.899414
5965.00000 0.898882
5970.00000 0.898702
5975.00000 0.897067
5980.00000 0.895478
5985.00000 0.893484
5990.00000 0.8916
5995.00000 0.889415
6000.00000 0.886857
6005.00000 0.884799
6010.00000 0.882909
6015.00000 0.880936
6020.00000 0.880706
6025.00000 0.87878
6030.00000 0.877929
6035.00000 0.878325
6040.00000 0.878333
6045.00000 0.878588
6050.00000 0.878755
6055.00000 0.878672
6060.00000 0.880128
6065.00000 0.880776
6070.00000 0.882975
6075.00000 0.883947
6080.00000 0.884931
6085.00000 0.886531
6090.00000 0.886423
6095.00000 0.886265
6100.00000 0.885667
6105.00000 0.885007
6110.00000 0.88333
6115.00000 0.8807
6120.00000 0.878164
6125.00000 0.875154
6130.00000 0.871671
6135.00000 0.86944
6140.00000 0.866496
6145.00000 0.864104
6150.00000 0.862021
6155.00000 0.861059
6160.00000 0.859861
6165.00000 0.860248
6170.00000 0.861755
6175.00000 0.863296
6180.00000 0.865304
6185.00000 0.868012
6190.00000 0.870432
6195.00000 0.872756
6200.00000 0.875005
6205.00000 0.876559
6210.00000 0.877886
6215.00000 0.878573
6220.00000 0.877238
6225.00000 0.876316
6230.00000 0.873482
6235.00000 0.87057
6240.00000 0.867463
6245.00000 0.863478
6250.00000 0.859613
6255.00000 0.856077
6260.00000 0.852223
6265.00000 0.84725
6270.00000 0.843055
6275.00000 0.839366
6280.00000 0.835742
6285.00000 0.831657
6290.00000 0.828528
6295.00000 0.825671
6300.00000 0.822855
6305.00000 0.820065
6310.00000 0.817647
6315.00000 0.815633
6320.00000 0.813888
6325.00000 0.812488
6330.00000 0.812093
6335.00000 0.811876
6340.00000 0.813231
6345.00000 0.814014
6350.00000 0.816205
6355.00000 0.819385
6360.00000 0.823303
6365.00000 0.827205
6370.00000 0.831499
6375.00000 0.836589
6380.00000 0.84047
6385.00000 0.844803
6390.00000 0.847887
6395.00000 0.850099
6400.00000 0.851208
6405.00000 0.850809
6410.00000 0.848934
6415.00000 0.846211
6420.00000 0.84087
6425.00000 0.835055
6430.00000 0.827376
6435.00000 0.818928
6440.00000 0.810922
6445.00000 0.801557
6450.00000 0.792988
6455.00000 0.784017
6460.00000 0.77607
6465.00000 0.768157
6470.00000 0.760943
6475.00000 0.75561
6480.00000 0.749471
6485.00000 0.746243
6490.00000 0.743082
6495.00000 0.741202
6500.00000 0.740517
6505.00000 0.739722
6510.00000 0.741537
6515.00000 0.742855
6520.00000 0.745756
6525.00000 0.748644
6530.00000 0.752944
6535.00000 0.757086
6540.00000 0.76166
6545.00000 0.766734
6550.00000 0.772252
6555.00000 0.777385
6560.00000 0.782785
6565.00000 0.787225
6570.00000 0.792375
6575.00000 0.796475
6580.00000 0.801447
6585.00000 0.803396
6590.00000 0.805712
6595.00000 0.808149
6600.00000 0.808817
6605.00000 0.807857
6610.00000 0.805697
6615.00000 0.804238
6620.00000 0.801521
6625.00000 0.797455
6630.00000 0.792741
6635.00000 0.788516
6640.00000 0.783337
6645.00000 0.779419
6650.00000 0.773666
6655.00000 0.7688
6660.00000 0.764492
6665.00000 0.759743
6670.00000 0.756404
6675.00000 0.753345
6680.00000 0.750203
6685.00000 0.74801
6690.00000 0.746274
6695.00000 0.745187
6700.00000 0.744806
6705.00000 0.743684
6710.00000 0.743428
6715.00000 0.744112
6720.00000 0.74502
6725.00000 0.745117
6730.00000 0.746076
6735.00000 0.74661
6740.00000 0.747757
6745.00000 0.748548
6750.00000 0.748302
6755.00000 0.747185
6760.00000 0.746009
6765.00000 0.743879
6770.00000 0.740645
6775.00000 0.736266
6780.00000 0.730778
6785.00000 0.721974
6790.00000 0.713079
6795.00000 0.702295
6800.00000 0.690396
6805.00000 0.677264
6810.00000 0.66141
6815.00000 0.646503
6820.00000 0.629708
6825.00000 0.613673
6830.00000 0.596875
6835.00000 0.580664
6840.00000 0.566587
6845.00000 0.552587
6850.00000 0.539905
6855.00000 0.529319
6860.00000 0.519602
6865.00000 0.51149
6870.00000 0.504262
6875.00000 0.498494
6880.00000 0.493162
6885.00000 0.488883
6890.00000 0.483099
6895.00000 0.478586
6900.00000 0.472593
6905.00000 0.464809
6910.00000 0.456276
6915.00000 0.445607
6920.00000 0.434384
6925.00000 0.421515
6930.00000 0.405953
6935.00000 0.390939
6940.00000 0.372011
6945.00000 0.352409
6950.00000 0.329477
6955.00000 0.303748
6960.00000 0.275493
6965.00000 0.244872
6970.00000 0.211394
6975.00000 0.180339
6980.00000 0.149594
6985.00000 0.121955
6990.00000 0.097553
6995.00000 0.077794
7000.00000 0.061428
7005.00000 0.048614
7010.00000 0.038289
7015.00000 0.0306
7020.00000 0.024454
7025.00000 0.019848
7030.00000 0.016176
7035.00000 0.013413
7040.00000 0.01122
7045.00000 0.009431
7050.00000 0.008046
7055.00000 0.006951
7060.00000 0.006046
7065.00000 0.005335
7070.00000 0.004696
7075.00000 0.00421
7782.50000 0.0
