# %ECSV 0.9
# ---
# datatype:
# - {name: wavelength, unit: Angstrom, datatype: float32}
# - {name: response, datatype: float32}
# meta: !!omap
# - {band_name: ESO1035}
# - {group_name: FORS1}
wavelength response
4293.00000 0.0
4770.00000 0.00423
4775.00000 0.00597
4780.00000 0.00821
4785.00000 0.01111
4790.00000 0.01479
4795.00000 0.01935
4800.00000 0.02491
4805.00000 0.03153
4810.00000 0.03923
4815.00000 0.04826
4820.00000 0.05847
4825.00000 0.07004
4830.00000 0.083
4835.00000 0.09712
4840.00000 0.11249
4845.00000 0.12883
4850.00000 0.14601
4855.00000 0.16434
4860.00000 0.18339
4865.00000 0.20319
4870.00000 0.22357
4875.00000 0.2442
4880.00000 0.26523
4885.00000 0.2863
4890.00000 0.30762
4895.00000 0.32891
4900.00000 0.3498
4905.00000 0.37068
4910.00000 0.39105
4915.00000 0.41075
4920.00000 0.43035
4925.00000 0.4494
4930.00000 0.46797
4935.00000 0.4861
4940.00000 0.5035
4945.00000 0.52025
4950.00000 0.53647
4955.00000 0.55204
4960.00000 0.56701
4965.00000 0.58133
4970.00000 0.59504
4975.00000 0.60829
4980.00000 0.62087
4985.00000 0.63282
4990.00000 0.64458
4995.00000 0.65561
5000.00000 0.66614
5005.00000 0.67623
5010.00000 0.68579
5015.00000 0.69497
5020.00000 0.70363
5025.00000 0.71185
5030.00000 0.71981
5035.00000 0.72733
5040.00000 0.73448
5045.00000 0.74134
5050.00000 0.74785
5055.00000 0.75418
5060.00000 0.75987
5065.00000 0.76542
5070.00000 0.77064
5075.00000 0.77569
5080.00000 0.78066
5085.00000 0.78524
5090.00000 0.78934
5095.00000 0.79345
5100.00000 0.79745
5105.00000 0.80144
5110.00000 0.80464
5115.00000 0.80822
5120.00000 0.81151
5125.00000 0.81439
5130.00000 0.81709
5135.00000 0.81986
5140.00000 0.82238
5145.00000 0.82507
5150.00000 0.82733
5155.00000 0.82967
5160.00000 0.83189
5165.00000 0.8337
5170.00000 0.83567
5175.00000 0.83742
5180.00000 0.83904
5185.00000 0.84062
5190.00000 0.84209
5195.00000 0.84343
5200.00000 0.8447
5205.00000 0.84611
5210.00000 0.84719
5215.00000 0.84826
5220.00000 0.84929
5225.00000 0.85006
5230.00000 0.85121
5235.00000 0.85179
5240.00000 0.85271
5245.00000 0.85341
5250.00000 0.85413
5255.00000 0.85456
5260.00000 0.85481
5265.00000 0.85539
5270.00000 0.85571
5275.00000 0.85605
5280.00000 0.85652
5290.00000 0.85687
5305.00000 0.85709
5315.00000 0.85724
5325.00000 0.85705
5330.00000 0.85685
5340.00000 0.85644
5345.00000 0.8559
5350.00000 0.85575
5355.00000 0.85526
5360.00000 0.85496
5365.00000 0.85429
5370.00000 0.85387
5375.00000 0.85332
5380.00000 0.85266
5385.00000 0.85219
5390.00000 0.85153
5395.00000 0.85072
5400.00000 0.85013
5405.00000 0.84924
5410.00000 0.84833
5415.00000 0.84752
5420.00000 0.84662
5425.00000 0.84592
5430.00000 0.84488
5435.00000 0.84384
5440.00000 0.843
5445.00000 0.84179
5450.00000 0.84051
5455.00000 0.83931
5460.00000 0.83819
5465.00000 0.83684
5470.00000 0.83583
5475.00000 0.83427
5480.00000 0.833
5485.00000 0.83167
5490.00000 0.83018
5495.00000 0.82866
5500.00000 0.82729
5505.00000 0.82561
5510.00000 0.82398
5515.00000 0.82231
5520.00000 0.82071
5525.00000 0.8189
5530.00000 0.81709
5535.00000 0.81541
5540.00000 0.8135
5545.00000 0.81161
5550.00000 0.80961
5555.00000 0.80769
5560.00000 0.80561
5565.00000 0.80363
5570.00000 0.80143
5575.00000 0.79925
5580.00000 0.79695
5585.00000 0.79484
5590.00000 0.79253
5595.00000 0.79004
5600.00000 0.78777
5605.00000 0.78563
5610.00000 0.78297
5615.00000 0.78061
5620.00000 0.778
5625.00000 0.77543
5630.00000 0.77284
5635.00000 0.77028
5640.00000 0.7674
5645.00000 0.76476
5650.00000 0.76184
5655.00000 0.75906
5660.00000 0.75613
5665.00000 0.75309
5670.00000 0.74989
5675.00000 0.7471
5680.00000 0.74411
5685.00000 0.74091
5690.00000 0.7377
5695.00000 0.7346
5700.00000 0.7313
5705.00000 0.72794
5710.00000 0.72455
5715.00000 0.7214
5720.00000 0.7179
5725.00000 0.71432
5730.00000 0.71085
5735.00000 0.70742
5740.00000 0.7039
5745.00000 0.70017
5750.00000 0.69651
5755.00000 0.69282
5760.00000 0.689
5765.00000 0.68513
5770.00000 0.68145
5775.00000 0.67761
5780.00000 0.67377
5785.00000 0.66973
5790.00000 0.66565
5795.00000 0.66168
5800.00000 0.6576
5805.00000 0.65354
5810.00000 0.64934
5815.00000 0.64522
5820.00000 0.64098
5825.00000 0.6369
5830.00000 0.63265
5835.00000 0.62829
5840.00000 0.6241
5845.00000 0.61964
5850.00000 0.61516
5855.00000 0.61095
5860.00000 0.60633
5865.00000 0.60188
5870.00000 0.59751
5875.00000 0.59284
5880.00000 0.58823
5885.00000 0.5835
5890.00000 0.57877
5895.00000 0.57425
5900.00000 0.56966
5905.00000 0.56493
5910.00000 0.56017
5915.00000 0.55535
5920.00000 0.55058
5925.00000 0.54566
5930.00000 0.54091
5935.00000 0.53612
5940.00000 0.53143
5945.00000 0.52649
5950.00000 0.52149
5955.00000 0.51655
5960.00000 0.5117
5965.00000 0.50669
5970.00000 0.50167
5975.00000 0.49665
5980.00000 0.49157
5985.00000 0.48648
5990.00000 0.4815
5995.00000 0.47658
6000.00000 0.47145
6005.00000 0.46643
6010.00000 0.46124
6015.00000 0.45622
6020.00000 0.45104
6025.00000 0.44599
6030.00000 0.44103
6035.00000 0.43607
6040.00000 0.43101
6045.00000 0.42612
6050.00000 0.42089
6055.00000 0.41594
6060.00000 0.41091
6065.00000 0.40588
6070.00000 0.40081
6075.00000 0.3958
6080.00000 0.39081
6085.00000 0.38572
6090.00000 0.38081
6095.00000 0.37573
6100.00000 0.37065
6105.00000 0.36571
6110.00000 0.36077
6115.00000 0.35591
6120.00000 0.35095
6125.00000 0.34611
6130.00000 0.34125
6135.00000 0.3363
6140.00000 0.33144
6145.00000 0.32669
6150.00000 0.32194
6155.00000 0.31729
6160.00000 0.31253
6165.00000 0.30779
6170.00000 0.30306
6175.00000 0.29839
6180.00000 0.29372
6185.00000 0.28912
6190.00000 0.28456
6195.00000 0.27995
6200.00000 0.27535
6205.00000 0.27087
6210.00000 0.26643
6215.00000 0.26198
6220.00000 0.25758
6225.00000 0.25325
6230.00000 0.24884
6235.00000 0.24444
6240.00000 0.24016
6245.00000 0.23596
6250.00000 0.2318
6255.00000 0.22777
6260.00000 0.22381
6265.00000 0.21973
6270.00000 0.21569
6275.00000 0.21167
6280.00000 0.20774
6285.00000 0.20381
6290.00000 0.19995
6295.00000 0.19607
6300.00000 0.19226
6305.00000 0.1885
6310.00000 0.18481
6315.00000 0.18113
6320.00000 0.1775
6325.00000 0.17392
6330.00000 0.17033
6335.00000 0.16684
6340.00000 0.16343
6345.00000 0.15994
6350.00000 0.15659
6355.00000 0.15324
6360.00000 0.14993
6365.00000 0.14674
6370.00000 0.14357
6375.00000 0.14049
6380.00000 0.13738
6385.00000 0.13431
6390.00000 0.13128
6395.00000 0.12829
6400.00000 0.12541
6405.00000 0.12249
6410.00000 0.11964
6415.00000 0.11684
6420.00000 0.11407
6425.00000 0.11136
6430.00000 0.10871
6435.00000 0.10607
6440.00000 0.10348
6445.00000 0.10098
6450.00000 0.0985
6455.00000 0.09597
6460.00000 0.09355
6465.00000 0.0912
6470.00000 0.08895
6475.00000 0.08674
6480.00000 0.08453
6485.00000 0.08236
6490.00000 0.0802
6495.00000 0.0781
6500.00000 0.07606
6505.00000 0.074
6510.00000 0.07204
6515.00000 0.07006
6520.00000 0.06815
6525.00000 0.06627
6530.00000 0.06447
6535.00000 0.06268
6540.00000 0.06094
6545.00000 0.05924
6550.00000 0.05757
6555.00000 0.05588
6560.00000 0.05429
6565.00000 0.05273
6570.00000 0.05119
6575.00000 0.04969
6580.00000 0.04826
6585.00000 0.04683
6590.00000 0.04546
6595.00000 0.0441
6600.00000 0.04279
6605.00000 0.04148
6610.00000 0.0402
6615.00000 0.03897
6620.00000 0.03778
6625.00000 0.0366
6630.00000 0.03547
6635.00000 0.03435
6640.00000 0.03326
6645.00000 0.0322
6650.00000 0.03116
6655.00000 0.03016
6660.00000 0.0292
6665.00000 0.02823
6670.00000 0.02729
6675.00000 0.02639
6680.00000 0.02551
6685.00000 0.02469
6690.00000 0.02388
6695.00000 0.02309
6700.00000 0.02231
6705.00000 0.02155
6710.00000 0.02082
6715.00000 0.0201
6720.00000 0.01941
6725.00000 0.01873
6730.00000 0.01808
6735.00000 0.01745
6740.00000 0.01682
6745.00000 0.01622
6750.00000 0.01564
6755.00000 0.01509
6760.00000 0.01456
6765.00000 0.01402
6770.00000 0.01352
6775.00000 0.01302
6780.00000 0.01254
6785.00000 0.01207
6790.00000 0.01163
6795.00000 0.01119
6800.00000 0.01079
6805.00000 0.01039
6810.00000 0.01
6815.00000 0.00961
6820.00000 0.00926
6825.00000 0.0089
6830.00000 0.00856
6835.00000 0.00822
6840.00000 0.00791
6845.00000 0.0076
6850.00000 0.0073
6855.00000 0.00701
6860.00000 0.00674
6865.00000 0.00648
6870.00000 0.00622
6875.00000 0.00597
6880.00000 0.00573
6885.00000 0.00549
6890.00000 0.00527
6895.00000 0.00507
6900.00000 0.00486
6905.00000 0.00466
6910.00000 0.00448
6915.00000 0.0043
6920.00000 0.00412
7612.00000 0.0
