# %ECSV 0.9
# ---
# datatype:
# - {name: wavelength, unit: Angstrom, datatype: float32}
# - {name: response, datatype: float32}
# meta: !!omap
# - {band_name: ESO1034}
# - {group_name: FORS1}
wavelength response
3168.00000 0.0
3520.00000 0.00401
3525.00000 0.00511
3530.00000 0.0064
3535.00000 0.00792
3540.00000 0.0097
3545.00000 0.01173
3550.00000 0.01408
3555.00000 0.01672
3560.00000 0.01967
3565.00000 0.02298
3570.00000 0.02661
3575.00000 0.03061
3580.00000 0.03493
3585.00000 0.03963
3590.00000 0.0447
3595.00000 0.05007
3600.00000 0.05581
3605.00000 0.06194
3610.00000 0.06833
3615.00000 0.07505
3620.00000 0.08214
3625.00000 0.08942
3630.00000 0.09708
3635.00000 0.10485
3640.00000 0.11285
3645.00000 0.12115
3650.00000 0.12969
3655.00000 0.13827
3660.00000 0.14699
3665.00000 0.15573
3670.00000 0.16469
3675.00000 0.17362
3680.00000 0.18268
3685.00000 0.19182
3690.00000 0.20091
3695.00000 0.21
3700.00000 0.21919
3705.00000 0.22841
3710.00000 0.23764
3715.00000 0.24684
3720.00000 0.256
3725.00000 0.26519
3730.00000 0.27431
3735.00000 0.28338
3740.00000 0.29252
3745.00000 0.30173
3750.00000 0.31093
3755.00000 0.32014
3760.00000 0.32909
3765.00000 0.33804
3770.00000 0.34714
3775.00000 0.35597
3780.00000 0.3649
3785.00000 0.37381
3790.00000 0.38254
3795.00000 0.39118
3800.00000 0.39982
3805.00000 0.40823
3810.00000 0.41669
3815.00000 0.42502
3820.00000 0.43308
3825.00000 0.44112
3830.00000 0.44884
3835.00000 0.45669
3840.00000 0.46414
3845.00000 0.47167
3850.00000 0.47869
3855.00000 0.48572
3860.00000 0.49252
3865.00000 0.4994
3870.00000 0.50578
3875.00000 0.51224
3880.00000 0.51834
3885.00000 0.52434
3890.00000 0.53009
3895.00000 0.53557
3900.00000 0.54108
3905.00000 0.54649
3910.00000 0.55148
3915.00000 0.5564
3920.00000 0.56119
3925.00000 0.56592
3930.00000 0.57019
3935.00000 0.5745
3940.00000 0.57884
3945.00000 0.5827
3950.00000 0.58654
3955.00000 0.59037
3960.00000 0.59382
3965.00000 0.5974
3970.00000 0.60076
3975.00000 0.60371
3980.00000 0.60687
3985.00000 0.6098
3990.00000 0.61261
3995.00000 0.61516
4000.00000 0.61789
4005.00000 0.62048
4010.00000 0.62267
4015.00000 0.6251
4020.00000 0.62725
4025.00000 0.62936
4030.00000 0.63147
4035.00000 0.63333
4040.00000 0.63517
4045.00000 0.63712
4050.00000 0.63894
4055.00000 0.64048
4060.00000 0.6424
4065.00000 0.64402
4070.00000 0.64543
4075.00000 0.64714
4080.00000 0.6486
4085.00000 0.65001
4090.00000 0.65129
4095.00000 0.65251
4100.00000 0.65362
4105.00000 0.65451
4110.00000 0.65532
4115.00000 0.65622
4120.00000 0.6571
4125.00000 0.65776
4130.00000 0.65861
4135.00000 0.65919
4140.00000 0.65967
4145.00000 0.66014
4150.00000 0.6608
4155.00000 0.6612
4160.00000 0.66197
4165.00000 0.66246
4170.00000 0.66301
4175.00000 0.66358
4180.00000 0.66414
4185.00000 0.66458
4190.00000 0.66505
4195.00000 0.66554
4200.00000 0.66575
4210.00000 0.66609
4215.00000 0.66599
4220.00000 0.66573
4225.00000 0.66534
4230.00000 0.66476
4235.00000 0.66406
4240.00000 0.66317
4245.00000 0.6624
4250.00000 0.66153
4255.00000 0.66059
4260.00000 0.6596
4265.00000 0.65864
4270.00000 0.65773
4275.00000 0.65676
4280.00000 0.65604
4285.00000 0.65523
4290.00000 0.65434
4295.00000 0.65333
4300.00000 0.65235
4305.00000 0.65118
4310.00000 0.64985
4315.00000 0.6486
4320.00000 0.64709
4325.00000 0.6457
4330.00000 0.64426
4335.00000 0.64257
4340.00000 0.64104
4345.00000 0.63928
4350.00000 0.6377
4355.00000 0.63622
4360.00000 0.63453
4365.00000 0.63288
4370.00000 0.63119
4375.00000 0.62962
4380.00000 0.62786
4385.00000 0.6263
4390.00000 0.62456
4395.00000 0.62286
4400.00000 0.62104
4405.00000 0.61932
4410.00000 0.61757
4415.00000 0.61549
4420.00000 0.61363
4425.00000 0.6116
4430.00000 0.60932
4435.00000 0.60704
4440.00000 0.60472
4445.00000 0.60218
4450.00000 0.59941
4455.00000 0.59675
4460.00000 0.59353
4465.00000 0.5904
4470.00000 0.58724
4475.00000 0.58383
4480.00000 0.58051
4485.00000 0.57691
4490.00000 0.57342
4495.00000 0.56973
4500.00000 0.56607
4505.00000 0.56266
4510.00000 0.5591
4515.00000 0.55583
4520.00000 0.55235
4525.00000 0.54906
4530.00000 0.5457
4535.00000 0.54225
4540.00000 0.539
4545.00000 0.5355
4550.00000 0.53186
4555.00000 0.5283
4560.00000 0.52453
4565.00000 0.52058
4570.00000 0.51646
4575.00000 0.5122
4580.00000 0.50793
4585.00000 0.50326
4590.00000 0.49866
4595.00000 0.49382
4600.00000 0.48885
4605.00000 0.48377
4610.00000 0.47858
4615.00000 0.47312
4620.00000 0.46767
4625.00000 0.46181
4630.00000 0.45595
4635.00000 0.44998
4640.00000 0.44361
4645.00000 0.43704
4650.00000 0.43025
4655.00000 0.42331
4660.00000 0.41608
4665.00000 0.40861
4670.00000 0.40092
4675.00000 0.39315
4680.00000 0.38521
4685.00000 0.37697
4690.00000 0.36875
4695.00000 0.36052
4700.00000 0.35196
4705.00000 0.34352
4710.00000 0.33516
4715.00000 0.32661
4720.00000 0.3183
4725.00000 0.30995
4730.00000 0.30176
4735.00000 0.29348
4740.00000 0.28559
4745.00000 0.27753
4750.00000 0.26972
4755.00000 0.26198
4760.00000 0.25414
4765.00000 0.24648
4770.00000 0.23884
4775.00000 0.23131
4780.00000 0.22379
4785.00000 0.21638
4790.00000 0.20904
4795.00000 0.20179
4800.00000 0.19458
4805.00000 0.18745
4810.00000 0.18053
4815.00000 0.17368
4820.00000 0.16693
4825.00000 0.16038
4830.00000 0.1539
4835.00000 0.14766
4840.00000 0.14148
4845.00000 0.13561
4850.00000 0.12996
4855.00000 0.12432
4860.00000 0.11892
4865.00000 0.11372
4870.00000 0.10865
4875.00000 0.10388
4880.00000 0.09923
4885.00000 0.09478
4890.00000 0.09051
4895.00000 0.08635
4900.00000 0.08237
4905.00000 0.07865
4910.00000 0.07511
4915.00000 0.07168
4920.00000 0.0684
4925.00000 0.0653
4930.00000 0.06236
4935.00000 0.05958
4940.00000 0.05693
4945.00000 0.05445
4950.00000 0.05212
4955.00000 0.04989
4960.00000 0.04779
4965.00000 0.04579
4970.00000 0.04392
4975.00000 0.04213
4980.00000 0.0404
4985.00000 0.03872
4990.00000 0.03707
4995.00000 0.03548
5000.00000 0.03392
5005.00000 0.03235
5010.00000 0.03082
5015.00000 0.02926
5020.00000 0.02772
5025.00000 0.02618
5030.00000 0.02468
5035.00000 0.0232
5040.00000 0.02175
5045.00000 0.02036
5050.00000 0.01901
5055.00000 0.01769
5060.00000 0.01648
5065.00000 0.01533
5070.00000 0.01424
5075.00000 0.01324
5080.00000 0.01231
5085.00000 0.01144
5090.00000 0.01063
5095.00000 0.00989
5100.00000 0.00922
5105.00000 0.00858
5110.00000 0.00797
5115.00000 0.00744
5120.00000 0.00692
5125.00000 0.00643
5130.00000 0.006
5135.00000 0.00559
5140.00000 0.00519
5145.00000 0.00481
5150.00000 0.00445
5155.00000 0.00412
5670.50000 0.0
