# %ECSV 0.9
# ---
# datatype:
# - {name: wavelength, unit: Angstrom, datatype: float32}
# - {name: response, datatype: float32}
# meta: !!omap
# - {band_name: ESO1075}
# - {group_name: FORS2}
wavelength response
4297.50000 0.0
4775.00000 0.00524
4780.00000 0.00729
4785.00000 0.00996
4790.00000 0.01336
4795.00000 0.01758
4800.00000 0.0228
4805.00000 0.02913
4810.00000 0.0365
4815.00000 0.04521
4820.00000 0.05513
4825.00000 0.0664
4830.00000 0.07911
4835.00000 0.09303
4840.00000 0.1083
4845.00000 0.1246
4850.00000 0.1419
4855.00000 0.16045
4860.00000 0.17971
4865.00000 0.19978
4870.00000 0.22069
4875.00000 0.24174
4880.00000 0.26332
4885.00000 0.28504
4890.00000 0.30696
4895.00000 0.32915
4900.00000 0.35103
4905.00000 0.37263
4910.00000 0.39384
4915.00000 0.41451
4920.00000 0.43491
4925.00000 0.4549
4930.00000 0.47437
4935.00000 0.49352
4940.00000 0.51176
4945.00000 0.5295
4950.00000 0.54642
4955.00000 0.56263
4960.00000 0.57817
4965.00000 0.5933
4970.00000 0.60774
4975.00000 0.62156
4980.00000 0.63481
4985.00000 0.64755
4990.00000 0.65987
4995.00000 0.67157
5000.00000 0.68251
5005.00000 0.69321
5010.00000 0.70317
5015.00000 0.71282
5020.00000 0.722
5025.00000 0.73079
5030.00000 0.7389
5035.00000 0.74675
5040.00000 0.75423
5045.00000 0.76152
5050.00000 0.76813
5055.00000 0.77463
5060.00000 0.78079
5065.00000 0.78662
5070.00000 0.79218
5075.00000 0.79722
5080.00000 0.80208
5085.00000 0.80714
5090.00000 0.81149
5095.00000 0.81576
5100.00000 0.8197
5105.00000 0.82376
5110.00000 0.82752
5115.00000 0.83085
5120.00000 0.83408
5125.00000 0.8372
5130.00000 0.84021
5135.00000 0.8428
5140.00000 0.84562
5145.00000 0.8478
5150.00000 0.8503
5155.00000 0.85239
5160.00000 0.85453
5165.00000 0.85633
5170.00000 0.85839
5175.00000 0.86006
5180.00000 0.86162
5185.00000 0.86291
5190.00000 0.86489
5195.00000 0.86602
5200.00000 0.86702
5205.00000 0.86837
5210.00000 0.86944
5215.00000 0.87019
5220.00000 0.8713
5225.00000 0.872
5230.00000 0.87277
5235.00000 0.87359
5240.00000 0.87426
5245.00000 0.8747
5250.00000 0.87513
5260.00000 0.8759
5265.00000 0.87626
5275.00000 0.87658
5285.00000 0.8769
5290.00000 0.87676
5300.00000 0.87661
5310.00000 0.87626
5315.00000 0.87558
5320.00000 0.87542
5325.00000 0.87524
5330.00000 0.87471
5335.00000 0.87393
5340.00000 0.87355
5345.00000 0.87305
5350.00000 0.8723
5355.00000 0.87164
5360.00000 0.87091
5365.00000 0.87032
5370.00000 0.86953
5375.00000 0.86857
5380.00000 0.86762
5385.00000 0.86665
5390.00000 0.86604
5395.00000 0.86467
5400.00000 0.8635
5405.00000 0.86268
5410.00000 0.86134
5415.00000 0.85999
5420.00000 0.85875
5425.00000 0.85743
5430.00000 0.85605
5435.00000 0.85475
5440.00000 0.85329
5445.00000 0.85173
5450.00000 0.85026
5455.00000 0.84871
5460.00000 0.84707
5465.00000 0.84537
5470.00000 0.84354
5475.00000 0.84184
5480.00000 0.84022
5485.00000 0.8381
5490.00000 0.83593
5495.00000 0.8344
5500.00000 0.83235
5505.00000 0.83026
5510.00000 0.82824
5515.00000 0.826
5520.00000 0.82367
5525.00000 0.82174
5530.00000 0.81934
5535.00000 0.8169
5540.00000 0.81467
5545.00000 0.81219
5550.00000 0.80959
5555.00000 0.80699
5560.00000 0.80454
5565.00000 0.80187
5570.00000 0.79928
5575.00000 0.79644
5580.00000 0.79353
5585.00000 0.79098
5590.00000 0.78808
5595.00000 0.78507
5600.00000 0.78211
5605.00000 0.77914
5610.00000 0.77631
5615.00000 0.77314
5620.00000 0.76988
5625.00000 0.76676
5630.00000 0.7636
5635.00000 0.7602
5640.00000 0.75665
5645.00000 0.75341
5650.00000 0.74994
5655.00000 0.74651
5660.00000 0.74282
5665.00000 0.73913
5670.00000 0.73546
5675.00000 0.73177
5680.00000 0.728
5685.00000 0.72425
5690.00000 0.72024
5695.00000 0.71661
5700.00000 0.71258
5705.00000 0.70831
5710.00000 0.70453
5715.00000 0.70059
5720.00000 0.69654
5725.00000 0.69238
5730.00000 0.68818
5735.00000 0.68399
5740.00000 0.67965
5745.00000 0.67543
5750.00000 0.6709
5755.00000 0.66653
5760.00000 0.66218
5765.00000 0.65749
5770.00000 0.65306
5775.00000 0.64851
5780.00000 0.64399
5785.00000 0.63947
5790.00000 0.63448
5795.00000 0.62979
5800.00000 0.62504
5805.00000 0.62033
5810.00000 0.61537
5815.00000 0.61064
5820.00000 0.60574
5825.00000 0.60097
5830.00000 0.59618
5835.00000 0.59114
5840.00000 0.58627
5845.00000 0.58115
5850.00000 0.57618
5855.00000 0.57106
5860.00000 0.56594
5865.00000 0.56072
5870.00000 0.55579
5875.00000 0.55064
5880.00000 0.54544
5885.00000 0.54022
5890.00000 0.53495
5895.00000 0.5297
5900.00000 0.52442
5905.00000 0.51914
5910.00000 0.51393
5915.00000 0.50868
5920.00000 0.50312
5925.00000 0.49771
5930.00000 0.49259
5935.00000 0.48728
5940.00000 0.48196
5945.00000 0.47651
5950.00000 0.47115
5955.00000 0.46578
5960.00000 0.4604
5965.00000 0.45489
5970.00000 0.44945
5975.00000 0.44415
5980.00000 0.43866
5985.00000 0.43323
5990.00000 0.42784
5995.00000 0.42252
6000.00000 0.41704
6005.00000 0.41174
6010.00000 0.40619
6015.00000 0.40083
6020.00000 0.39529
6025.00000 0.38991
6030.00000 0.38459
6035.00000 0.37936
6040.00000 0.37417
6045.00000 0.36903
6050.00000 0.36376
6055.00000 0.35849
6060.00000 0.3533
6065.00000 0.3481
6070.00000 0.34284
6075.00000 0.33763
6080.00000 0.33249
6085.00000 0.32741
6090.00000 0.32226
6095.00000 0.31718
6100.00000 0.31207
6105.00000 0.30707
6110.00000 0.30216
6115.00000 0.29714
6120.00000 0.29217
6125.00000 0.2874
6130.00000 0.28257
6135.00000 0.27771
6140.00000 0.27285
6145.00000 0.26813
6150.00000 0.26352
6155.00000 0.25888
6160.00000 0.25427
6165.00000 0.24967
6170.00000 0.24508
6175.00000 0.24053
6180.00000 0.23603
6185.00000 0.2316
6190.00000 0.22721
6195.00000 0.22286
6200.00000 0.21861
6205.00000 0.2143
6210.00000 0.21005
6215.00000 0.20595
6220.00000 0.20187
6225.00000 0.19771
6230.00000 0.19371
6235.00000 0.18953
6240.00000 0.18555
6245.00000 0.18168
6250.00000 0.17789
6255.00000 0.17421
6260.00000 0.17064
6265.00000 0.16692
6270.00000 0.16331
6275.00000 0.15968
6280.00000 0.15614
6285.00000 0.15265
6290.00000 0.14918
6295.00000 0.14573
6300.00000 0.14238
6305.00000 0.13908
6310.00000 0.13584
6315.00000 0.13263
6320.00000 0.12947
6325.00000 0.12637
6330.00000 0.12331
6335.00000 0.12026
6340.00000 0.11731
6345.00000 0.11438
6350.00000 0.11155
6355.00000 0.10876
6360.00000 0.10596
6365.00000 0.10328
6370.00000 0.10061
6375.00000 0.09804
6380.00000 0.09549
6385.00000 0.09299
6390.00000 0.09051
6395.00000 0.08808
6400.00000 0.08567
6405.00000 0.08336
6410.00000 0.08107
6415.00000 0.07883
6420.00000 0.07662
6425.00000 0.07444
6430.00000 0.07235
6435.00000 0.0703
6440.00000 0.06828
6445.00000 0.0663
6450.00000 0.06435
6455.00000 0.06244
6460.00000 0.06057
6465.00000 0.05878
6470.00000 0.05707
6475.00000 0.05544
6480.00000 0.05376
6485.00000 0.05215
6490.00000 0.05054
6495.00000 0.04897
6500.00000 0.04745
6505.00000 0.04597
6510.00000 0.04451
6515.00000 0.04308
6520.00000 0.04171
6525.00000 0.04038
6530.00000 0.03906
6535.00000 0.03777
6540.00000 0.03656
6545.00000 0.03534
6550.00000 0.03417
6555.00000 0.03302
6560.00000 0.03189
6565.00000 0.03082
6570.00000 0.02978
6575.00000 0.02873
6580.00000 0.02777
6585.00000 0.0268
6590.00000 0.02589
6595.00000 0.02498
6600.00000 0.02411
6605.00000 0.02325
6610.00000 0.02241
6615.00000 0.0216
6620.00000 0.02082
6625.00000 0.02007
6630.00000 0.01932
6635.00000 0.01862
6640.00000 0.01792
6645.00000 0.01726
6650.00000 0.01662
6655.00000 0.01598
6660.00000 0.01539
6665.00000 0.01478
6670.00000 0.01421
6675.00000 0.01367
6680.00000 0.01314
6685.00000 0.01264
6690.00000 0.01215
6695.00000 0.01169
6700.00000 0.01123
6705.00000 0.01078
6710.00000 0.01035
6715.00000 0.00994
6720.00000 0.00954
6725.00000 0.00915
6730.00000 0.00877
6735.00000 0.00841
6740.00000 0.00807
6745.00000 0.00774
6750.00000 0.00741
6755.00000 0.0071
6760.00000 0.00681
6765.00000 0.00652
6770.00000 0.00624
6775.00000 0.00597
6780.00000 0.00572
6785.00000 0.00547
6790.00000 0.00523
6795.00000 0.00501
6800.00000 0.0048
6805.00000 0.00459
6810.00000 0.00439
6815.00000 0.0042
6820.00000 0.00401
7502.00000 0.0
