# %ECSV 0.9
# ---
# datatype:
# - {name: wavelength, unit: Angstrom, datatype: float32}
# - {name: response, datatype: float32}
# meta: !!omap
# - {band_name: I}
# - {group_name: VIMOS}
wavelength response
6400.90820 0.0
7112.12012 0.00106
7119.22998 0.001475
7126.33984 0.00195
7133.45020 0.002471
7140.56982 0.003309
7147.68018 0.004329
7154.79004 0.005507
7161.89990 0.007031
7169.00977 0.008779
7176.12012 0.011053
7183.24023 0.013751
7190.35010 0.016604
7197.45996 0.019724
7204.56982 0.023472
7211.68018 0.026193
7218.79004 0.031576
7225.89990 0.038076
7233.02002 0.044539
7240.12988 0.050966
7247.24023 0.0578
7254.35010 0.064353
7261.45996 0.070549
7268.56982 0.076468
7275.68994 0.082068
7282.79980 0.087421
7289.91016 0.092503
7297.02002 0.097267
7304.12988 0.101881
7311.24023 0.106189
7318.35010 0.110308
7325.47021 0.114203
7332.58008 0.117852
7339.68994 0.121345
7346.79980 0.124638
7353.91016 0.12771
7361.02002 0.13064
7368.12988 0.133404
7375.25000 0.136199
7382.35986 0.139008
7389.47021 0.141574
7396.58008 0.144004
7403.68994 0.146389
7410.79980 0.14855
7417.91992 0.150636
7425.02979 0.152602
7432.14014 0.154453
7439.25000 0.15615
7446.35986 0.15779
7453.47021 0.159333
7460.58008 0.160733
7467.70020 0.162091
7474.81006 0.163366
7481.91992 0.164512
7489.02979 0.165629
7496.14014 0.166725
7503.25000 0.167592
7510.37012 0.168558
7517.47998 0.169347
7524.58984 0.170139
7531.70020 0.170867
7538.81006 0.171545
7545.91992 0.172116
7553.02979 0.172694
7560.14990 0.173225
7567.25977 0.173779
7574.37012 0.174114
7581.47998 0.174583
7588.58984 0.174898
7595.70020 0.175248
7602.81006 0.175495
7609.93018 0.175833
7617.04004 0.176031
7624.14990 0.176254
7631.25977 0.175881
7638.37012 0.175402
7645.47998 0.174848
7652.60010 0.17433
7659.70996 0.173784
7666.81982 0.17323
7673.93018 0.172595
7681.04004 0.172056
7688.14990 0.171389
7695.25977 0.170771
7702.37988 0.170077
7709.49023 0.169488
7716.60010 0.168775
7723.70996 0.168104
7730.81982 0.167426
7737.93018 0.166735
7745.04980 0.166042
7752.16016 0.165279
7759.27002 0.164625
7766.37988 0.163849
7773.49023 0.163128
7780.60010 0.162406
7787.70996 0.16167
7794.83008 0.16088
7801.93994 0.160141
7809.04980 0.15945
7816.16016 0.158707
7823.27002 0.157902
7830.37988 0.157154
7837.49023 0.156395
7844.60986 0.155592
7851.72021 0.154891
7858.83008 0.154075
7865.93994 0.153371
7873.04980 0.152561
7880.16016 0.151811
7887.27979 0.151441
7894.39014 0.150915
7901.50000 0.15054
7908.60986 0.150119
7915.72021 0.149696
7922.83008 0.149284
7929.93994 0.148811
7937.06006 0.148444
7944.16992 0.147978
7951.27979 0.147559
7958.39014 0.147199
7965.50000 0.146785
7972.60986 0.14632
7979.72998 0.145913
7986.83984 0.145553
7993.95020 0.145047
8001.06006 0.144688
8008.16992 0.144336
8015.27979 0.143828
8022.39014 0.143478
8029.50977 0.143128
8036.62012 0.142724
8043.72998 0.142277
8050.83984 0.141879
8057.95020 0.141533
8065.06006 0.141089
8072.16992 0.140694
8079.29004 0.140349
8086.39990 0.139907
8093.50977 0.139515
8100.62012 0.139172
8107.72998 0.138783
8114.83984 0.13834
8121.95996 0.137997
8129.06982 0.137561
8136.18018 0.137224
8143.29004 0.13683
8150.39990 0.136395
8157.50977 0.136058
8164.62012 0.135715
8171.74023 0.135228
8178.85010 0.13489
8185.95996 0.134546
8193.07031 0.134115
8200.17969 0.133718
8207.29004 0.133378
8214.41016 0.132988
8221.51953 0.132598
8228.62988 0.132199
8235.74023 0.131811
8242.84961 0.131418
8249.95996 0.131067
8257.07031 0.130626
8264.19043 0.130229
8271.29980 0.129874
8278.41016 0.12948
8285.51953 0.12908
8292.62988 0.128675
8299.74023 0.128272
8306.84961 0.127914
8313.96973 0.127508
8321.08008 0.127054
8328.19043 0.126692
8335.29980 0.12628
8342.41016 0.125867
8349.51953 0.125499
8356.63965 0.125038
8363.75000 0.124619
8370.86035 0.124245
8377.96973 0.123828
8385.08008 0.123405
8392.19043 0.122976
8399.29980 0.122553
8406.41992 0.12217
8413.53027 0.121739
8420.63965 0.121311
8427.75000 0.120873
8434.86035 0.120441
8441.96973 0.120004
8449.08984 0.119609
8456.20020 0.119172
8463.30957 0.11873
8470.41992 0.118282
8477.53027 0.117841
8484.63965 0.117438
8491.75000 0.116951
8498.87012 0.116546
8505.98047 0.116092
8513.08984 0.115644
8520.20020 0.115193
8527.30957 0.114783
8534.41992 0.114334
8541.53027 0.113876
8548.65039 0.113383
8555.75977 0.112971
8562.87012 0.112559
8569.98047 0.112108
8577.08984 0.111653
8584.20020 0.111196
8591.32031 0.110746
8598.42969 0.110335
8605.54004 0.109844
8612.65039 0.109435
8619.75977 0.109026
8626.87012 0.108536
8633.98047 0.108089
8641.09961 0.107685
8648.20996 0.107245
8655.32031 0.106845
8662.42969 0.106324
8669.54004 0.105928
8676.65039 0.105531
8683.76953 0.105103
8690.87988 0.104675
8697.99023 0.104247
8705.09961 0.103829
8712.20996 0.103407
8719.32031 0.102997
8726.42969 0.102627
8733.54980 0.102261
8740.66016 0.101775
8747.76953 0.101418
8754.87988 0.101065
8761.99023 0.100675
8769.09961 0.100292
8776.20996 0.09987
8783.33008 0.099535
8790.44043 0.099205
8797.54980 0.0988
8804.66016 0.09848
8811.76953 0.098083
8818.87988 0.097768
8826.00000 0.097422
8833.11035 0.097081
8840.21973 0.096783
8847.33008 0.096445
8854.44043 0.096077
8861.54980 0.095787
8868.66016 0.095468
8875.78027 0.095146
8882.88965 0.094825
8890.00000 0.09451
8897.11035 0.094233
8904.21973 0.093918
8911.33008 0.093566
8918.45020 0.09329
8925.55957 0.092976
8932.66992 0.092657
8939.78027 0.092374
8946.88965 0.092012
8954.00000 0.091681
8961.11035 0.091378
8968.23047 0.091036
8975.33984 0.090681
8982.45020 0.090277
8989.55957 0.089938
8996.66992 0.08958
9003.78027 0.0891
9010.90039 0.088709
9018.00977 0.0883
9025.12012 0.087793
9032.23047 0.087301
9039.33984 0.086779
9046.45020 0.086261
9053.55957 0.085673
9060.67969 0.085019
9067.79004 0.084391
9074.90039 0.083684
9082.00977 0.082932
9089.12012 0.082129
9096.23047 0.081269
9103.33984 0.080353
9110.45996 0.079372
9117.57031 0.07829
9124.67969 0.077196
9131.79004 0.076026
9138.90039 0.074676
9146.00977 0.073331
9153.12988 0.071884
9160.24023 0.070248
9167.34961 0.068591
9174.45996 0.066813
9181.57031 0.06483
9188.67969 0.062795
9195.79004 0.060598
9202.91016 0.058244
9210.01953 0.055737
9217.12988 0.053065
9224.24023 0.050209
9231.34961 0.04717
9238.45996 0.043938
9245.58008 0.038119
9252.69043 0.034614
9259.79980 0.031394
9266.91016 0.024052
9274.01953 0.020754
9281.12988 0.016336
9288.24023 0.013548
9295.36035 0.008402
9302.46973 0.006077
9309.58008 0.004625
9316.69043 0.004038
9323.79980 0.003131
9330.91016 0.002728
9338.01953 0.002722
9345.13965 0.002446
9352.25000 0.002093
9359.36035 0.001747
9366.46973 0.001295
9373.58008 0.001006
10310.93848 0.0
