# %ECSV 0.9
# ---
# datatype:
# - {name: wavelength, unit: Angstrom, datatype: float32}
# - {name: response, datatype: float32}
# meta: !!omap
# - {band_name: Z}
# - {group_name: VISTA}
wavelength response
7074.00000 0.0
7860.00000 0.0001
7870.00000 0.0001
7880.00000 0.0001
7890.00000 0.0001
7900.00000 0.0001
7910.00000 0.0001
7920.00000 0.0001
7930.00000 0.0001
7940.00000 0.0002
7950.00000 0.0002
7960.00000 0.0003
7970.00000 0.0003
7980.00000 0.0004
7990.00000 0.0006
8000.00000 0.0007
8010.00000 0.0008
8020.00000 0.001
8030.00000 0.0011
8040.00000 0.0012
8050.00000 0.0014
8060.00000 0.0015
8070.00000 0.0017
8080.00000 0.0019
8090.00000 0.0021
8100.00000 0.0025
8110.00000 0.0029
8120.00000 0.0036
8130.00000 0.0043
8140.00000 0.0055
8150.00000 0.0078
8160.00000 0.0104
8170.00000 0.014
8180.00000 0.0191
8190.00000 0.0265
8200.00000 0.0372
8210.00000 0.0524
8220.00000 0.0731
8230.00000 0.112
8240.00000 0.15
8250.00000 0.196
8260.00000 0.2521
8270.00000 0.3178
8280.00000 0.3894
8290.00000 0.4672
8300.00000 0.5481
8310.00000 0.6556
8320.00000 0.7309
8330.00000 0.7954
8340.00000 0.847
8350.00000 0.8834
8360.00000 0.9051
8370.00000 0.9149
8380.00000 0.9171
8390.00000 0.9135
8400.00000 0.9111
8410.00000 0.9092
8420.00000 0.9087
8430.00000 0.9101
8440.00000 0.9132
8450.00000 0.918
8460.00000 0.9242
8470.00000 0.9331
8480.00000 0.9386
8490.00000 0.94
8500.00000 0.9461
8510.00000 0.9459
8520.00000 0.9457
8530.00000 0.9453
8540.00000 0.9439
8550.00000 0.9429
8560.00000 0.9419
8570.00000 0.9408
8580.00000 0.9392
8590.00000 0.9387
8600.00000 0.9385
8610.00000 0.9389
8620.00000 0.9395
8630.00000 0.9403
8640.00000 0.9428
8650.00000 0.9441
8660.00000 0.9456
8670.00000 0.9469
8680.00000 0.949
8690.00000 0.9496
8700.00000 0.9498
8710.00000 0.9493
8720.00000 0.9487
8730.00000 0.9479
8740.00000 0.946
8750.00000 0.9451
8760.00000 0.9444
8770.00000 0.9436
8780.00000 0.9435
8790.00000 0.9437
8800.00000 0.9438
8810.00000 0.944
8820.00000 0.944
8830.00000 0.9438
8840.00000 0.9435
8850.00000 0.9434
8860.00000 0.9434
8870.00000 0.9438
8880.00000 0.9443
8890.00000 0.945
8900.00000 0.9458
8910.00000 0.9476
8920.00000 0.9485
8930.00000 0.9492
8940.00000 0.9501
8950.00000 0.9498
8960.00000 0.9491
8970.00000 0.9458
8980.00000 0.9436
8990.00000 0.941
9000.00000 0.9383
9010.00000 0.9333
9020.00000 0.9316
9030.00000 0.9306
9040.00000 0.9307
9050.00000 0.9316
9060.00000 0.9326
9070.00000 0.9345
9080.00000 0.9349
9090.00000 0.9348
9100.00000 0.9342
9110.00000 0.9321
9120.00000 0.931
9130.00000 0.9302
9140.00000 0.9295
9150.00000 0.9292
9160.00000 0.9288
9170.00000 0.9252
9180.00000 0.9209
9190.00000 0.9139
9200.00000 0.903
9210.00000 0.8658
9220.00000 0.8382
9230.00000 0.8039
9240.00000 0.7147
9250.00000 0.6594
9260.00000 0.5988
9270.00000 0.4702
9280.00000 0.4068
9290.00000 0.3458
9300.00000 0.2356
9310.00000 0.1893
9320.00000 0.1502
9330.00000 0.1184
9340.00000 0.0724
9350.00000 0.0561
9360.00000 0.0433
9370.00000 0.0259
9380.00000 0.0202
9390.00000 0.0158
9400.00000 0.0096
9410.00000 0.0074
9420.00000 0.0057
9430.00000 0.0043
9440.00000 0.0024
9450.00000 0.0017
9460.00000 0.0011
9470.00000 0.0
