# %ECSV 0.9
# ---
# datatype:
# - {name: wavelength, unit: Angstrom, datatype: float32}
# - {name: response, datatype: float32}
# meta: !!omap
# - {band_name: r}
# - {group_name: JPAS}
wavelength response
4801.50000 0.0
5335.00000 0.000786818
5340.00000 0.00196348
5345.00000 0.00487082
5350.00000 0.0120298
5355.00000 0.014513
5360.00000 0.0174913
5365.00000 0.0210719
5370.00000 0.0253822
5375.00000 0.030574
5380.00000 0.0368276
5385.00000 0.0443573
5390.00000 0.0534183
5395.00000 0.0643148
5400.00000 0.0774089
5405.00000 0.0862421
5410.00000 0.0960528
5415.00000 0.10694
5420.00000 0.119011
5425.00000 0.132384
5430.00000 0.14719
5435.00000 0.163567
5440.00000 0.181689
5445.00000 0.201744
5450.00000 0.223953
5455.00000 0.236092
5460.00000 0.248905
5465.00000 0.262456
5470.00000 0.276813
5475.00000 0.292041
5480.00000 0.308196
5485.00000 0.325313
5490.00000 0.343429
5495.00000 0.362558
5500.00000 0.382702
5505.00000 0.392964
5510.00000 0.403363
5515.00000 0.41386
5520.00000 0.424436
5525.00000 0.435091
5530.00000 0.44585
5535.00000 0.456742
5540.00000 0.467838
5545.00000 0.479204
5550.00000 0.490906
5555.00000 0.496661
5560.00000 0.502611
5565.00000 0.508778
5570.00000 0.51515
5575.00000 0.521692
5580.00000 0.528359
5585.00000 0.535096
5590.00000 0.54185
5595.00000 0.548576
5600.00000 0.555244
5605.00000 0.558279
5610.00000 0.561199
5615.00000 0.56403
5620.00000 0.566811
5625.00000 0.569588
5630.00000 0.572405
5635.00000 0.575294
5640.00000 0.578282
5645.00000 0.581375
5650.00000 0.584564
5655.00000 0.586408
5660.00000 0.588279
5665.00000 0.590135
5670.00000 0.591936
5675.00000 0.59365
5680.00000 0.595254
5685.00000 0.596742
5690.00000 0.598122
5695.00000 0.599415
5700.00000 0.600655
5705.00000 0.601315
5710.00000 0.602015
5715.00000 0.602775
5720.00000 0.603621
5725.00000 0.604567
5730.00000 0.605614
5735.00000 0.606762
5740.00000 0.60798
5745.00000 0.609239
5750.00000 0.610509
5755.00000 0.611246
5760.00000 0.611978
5765.00000 0.61266
5770.00000 0.613293
5775.00000 0.613885
5780.00000 0.614456
5785.00000 0.615033
5790.00000 0.615641
5795.00000 0.616308
5800.00000 0.61705
5805.00000 0.617678
5810.00000 0.618438
5815.00000 0.619264
5820.00000 0.62013
5825.00000 0.620999
5830.00000 0.62183
5835.00000 0.622588
5840.00000 0.623229
5845.00000 0.623726
5850.00000 0.624063
5855.00000 0.624249
5860.00000 0.624328
5865.00000 0.624298
5870.00000 0.624201
5875.00000 0.624087
5880.00000 0.624009
5885.00000 0.624049
5890.00000 0.624217
5895.00000 0.624542
5900.00000 0.625044
5905.00000 0.625531
5910.00000 0.626214
5915.00000 0.627031
5920.00000 0.627944
5925.00000 0.628906
5930.00000 0.629868
5935.00000 0.630802
5940.00000 0.631648
5945.00000 0.632375
5950.00000 0.632963
5955.00000 0.633545
5960.00000 0.634009
5965.00000 0.634359
5970.00000 0.634624
5975.00000 0.634838
5980.00000 0.635037
5985.00000 0.63529
5990.00000 0.63559
5995.00000 0.63596
6000.00000 0.636412
6005.00000 0.636741
6010.00000 0.637184
6015.00000 0.637696
6020.00000 0.638259
6025.00000 0.638856
6030.00000 0.639467
6035.00000 0.64008
6040.00000 0.640682
6045.00000 0.641267
6050.00000 0.641835
6055.00000 0.642392
6060.00000 0.642948
6065.00000 0.643515
6070.00000 0.644106
6075.00000 0.644728
6080.00000 0.645388
6085.00000 0.646068
6090.00000 0.646778
6095.00000 0.647504
6100.00000 0.648227
6105.00000 0.648981
6110.00000 0.649648
6115.00000 0.650236
6120.00000 0.650724
6125.00000 0.651094
6130.00000 0.651338
6135.00000 0.651429
6140.00000 0.651406
6145.00000 0.651291
6150.00000 0.651115
6155.00000 0.650912
6160.00000 0.650674
6165.00000 0.650489
6170.00000 0.650397
6175.00000 0.650429
6180.00000 0.650609
6185.00000 0.650899
6190.00000 0.651352
6195.00000 0.651959
6200.00000 0.6527
6205.00000 0.65351
6210.00000 0.654336
6215.00000 0.655188
6220.00000 0.656026
6225.00000 0.656809
6230.00000 0.657505
6235.00000 0.658044
6240.00000 0.658453
6245.00000 0.658727
6250.00000 0.658871
6255.00000 0.6589
6260.00000 0.658837
6265.00000 0.658712
6270.00000 0.658556
6275.00000 0.658399
6280.00000 0.658272
6285.00000 0.65818
6290.00000 0.658156
6295.00000 0.658208
6300.00000 0.658335
6305.00000 0.65851
6310.00000 0.658768
6315.00000 0.659055
6320.00000 0.659344
6325.00000 0.659612
6330.00000 0.659833
6335.00000 0.659985
6340.00000 0.660059
6345.00000 0.660051
6350.00000 0.659964
6355.00000 0.65981
6360.00000 0.659607
6365.00000 0.659381
6370.00000 0.659159
6375.00000 0.658969
6380.00000 0.658839
6385.00000 0.658776
6390.00000 0.658815
6395.00000 0.658966
6400.00000 0.65923
6405.00000 0.659567
6410.00000 0.659976
6415.00000 0.660449
6420.00000 0.660956
6425.00000 0.661462
6430.00000 0.661932
6435.00000 0.662308
6440.00000 0.66258
6445.00000 0.662722
6450.00000 0.662718
6455.00000 0.66256
6460.00000 0.662266
6465.00000 0.661834
6470.00000 0.661286
6475.00000 0.660651
6480.00000 0.659966
6485.00000 0.659286
6490.00000 0.658637
6495.00000 0.658055
6500.00000 0.657576
6505.00000 0.657224
6510.00000 0.657057
6515.00000 0.657055
6520.00000 0.657219
6525.00000 0.657544
6530.00000 0.658017
6535.00000 0.65858
6540.00000 0.659241
6545.00000 0.659969
6550.00000 0.660731
6555.00000 0.661492
6560.00000 0.662137
6565.00000 0.662722
6570.00000 0.663224
6575.00000 0.663624
6580.00000 0.663911
6585.00000 0.663963
6590.00000 0.663899
6595.00000 0.663725
6600.00000 0.663453
6605.00000 0.663073
6610.00000 0.662457
6615.00000 0.661794
6620.00000 0.661101
6625.00000 0.660395
6630.00000 0.659693
6635.00000 0.65887
6640.00000 0.658078
6645.00000 0.657325
6650.00000 0.656622
6655.00000 0.655973
6660.00000 0.655436
6665.00000 0.654964
6670.00000 0.654561
6675.00000 0.654229
6680.00000 0.65397
6685.00000 0.654001
6690.00000 0.654104
6695.00000 0.654276
6700.00000 0.654511
6705.00000 0.654794
6710.00000 0.655544
6715.00000 0.656325
6720.00000 0.657124
6725.00000 0.657923
6730.00000 0.658703
6735.00000 0.660014
6740.00000 0.661269
6745.00000 0.662453
6750.00000 0.66355
6755.00000 0.664553
6760.00000 0.665728
6765.00000 0.666806
6770.00000 0.667792
6775.00000 0.6687
6780.00000 0.669545
6785.00000 0.669183
6790.00000 0.668804
6795.00000 0.668431
6800.00000 0.668087
6805.00000 0.667776
6810.00000 0.664799
6815.00000 0.661895
6820.00000 0.659067
6825.00000 0.656311
6830.00000 0.653618
6835.00000 0.649019
6840.00000 0.644454
6845.00000 0.639908
6850.00000 0.635364
6855.00000 0.63081
6860.00000 0.627631
6865.00000 0.624431
6870.00000 0.621211
6875.00000 0.617974
6880.00000 0.614723
6885.00000 0.615232
6890.00000 0.615728
6895.00000 0.616203
6900.00000 0.616641
6905.00000 0.617002
6910.00000 0.619931
6915.00000 0.622746
6920.00000 0.625432
6925.00000 0.627996
6930.00000 0.630471
6935.00000 0.633563
6940.00000 0.636716
6945.00000 0.639997
6950.00000 0.643363
6955.00000 0.646514
6960.00000 0.647179
6965.00000 0.645225
6970.00000 0.637962
6975.00000 0.62166
6980.00000 0.592219
6985.00000 0.544879
6990.00000 0.48152
6995.00000 0.405923
7000.00000 0.32531
7005.00000 0.248312
7010.00000 0.182148
7015.00000 0.129566
7020.00000 0.0904736
7025.00000 0.0626816
7030.00000 0.043425
7035.00000 0.0302732
7040.00000 0.021272
7045.00000 0.0150883
7050.00000 0.0108097
7055.00000 0.00780956
7060.00000 0.00568566
7065.00000 0.00418072
7070.00000 0.00310217
7075.00000 0.00232184
7080.00000 0.00175205
7085.00000 0.00133237
7090.00000 0.00102068
7095.00000 0.000787368
7804.50000 0.0
