# %ECSV 0.9
# ---
# datatype:
# - {name: wavelength, unit: Angstrom, datatype: float32}
# - {name: response, datatype: float32}
# meta: !!omap
# - {band_name: J0400}
# - {group_name: JPAS}
wavelength response
3494.69995 0.0
3883.00000 0.0001
3884.00000 0.0001
3885.00000 0.0001
3886.00000 0.0001
3887.00000 0.0001
3888.00000 0.0001
3889.00000 0.0001
3890.00000 0.0001
3891.00000 0.0002
3892.00000 0.0002
3893.00000 0.0002
3894.00000 0.0002
3895.00000 0.0003
3896.00000 0.0003
3897.00000 0.0003
3898.00000 0.0004
3899.00000 0.0004
3900.00000 0.0005
3901.00000 0.0006
3902.00000 0.0007
3903.00000 0.0008
3904.00000 0.0009
3905.00000 0.0011
3906.00000 0.0014
3907.00000 0.0016
3908.00000 0.0018
3909.00000 0.0023
3910.00000 0.0026
3911.00000 0.0031
3912.00000 0.0037
3913.00000 0.0045
3914.00000 0.0054
3915.00000 0.0065
3916.00000 0.0079
3917.00000 0.0096
3918.00000 0.0118
3919.00000 0.0145
3920.00000 0.018
3921.00000 0.0221
3922.00000 0.0282
3923.00000 0.0348
3924.00000 0.0441
3925.00000 0.0547
3926.00000 0.0694
3927.00000 0.0875
3928.00000 0.1102
3929.00000 0.1382
3930.00000 0.1722
3931.00000 0.2149
3932.00000 0.2609
3933.00000 0.3115
3934.00000 0.3617
3935.00000 0.4177
3936.00000 0.462
3937.00000 0.5016
3938.00000 0.5292
3939.00000 0.5522
3940.00000 0.5662
3941.00000 0.5775
3942.00000 0.5821
3943.00000 0.5851
3944.00000 0.5877
3945.00000 0.588
3946.00000 0.589
3947.00000 0.5903
3948.00000 0.5918
3949.00000 0.5943
3950.00000 0.598
3951.00000 0.6006
3952.00000 0.6039
3953.00000 0.6081
3954.00000 0.6109
3955.00000 0.6143
3956.00000 0.6184
3957.00000 0.6209
3958.00000 0.6233
3959.00000 0.6253
3960.00000 0.627
3961.00000 0.6279
3962.00000 0.6291
3963.00000 0.6295
3964.00000 0.6294
3965.00000 0.6293
3966.00000 0.6293
3967.00000 0.6281
3968.00000 0.6286
3969.00000 0.6279
3970.00000 0.6267
3971.00000 0.6264
3972.00000 0.6264
3973.00000 0.6254
3974.00000 0.6251
3975.00000 0.6256
3976.00000 0.6255
3977.00000 0.6263
3978.00000 0.6263
3979.00000 0.6274
3980.00000 0.6275
3981.00000 0.6288
3982.00000 0.6306
3983.00000 0.6316
3984.00000 0.6327
3985.00000 0.6339
3986.00000 0.6356
3987.00000 0.6364
3988.00000 0.6371
3989.00000 0.6385
3990.00000 0.6408
3991.00000 0.6421
3992.00000 0.6441
3993.00000 0.644
3994.00000 0.6469
3995.00000 0.6482
3996.00000 0.6489
3997.00000 0.6512
3998.00000 0.652
3999.00000 0.6519
4000.00000 0.6541
4001.00000 0.656
4002.00000 0.6568
4003.00000 0.6564
4004.00000 0.6578
4005.00000 0.6593
4006.00000 0.6596
4007.00000 0.6602
4008.00000 0.66
4009.00000 0.6603
4010.00000 0.6612
4011.00000 0.6597
4012.00000 0.6598
4013.00000 0.6585
4014.00000 0.6574
4015.00000 0.6558
4016.00000 0.6553
4017.00000 0.6526
4018.00000 0.6508
4019.00000 0.6492
4020.00000 0.6471
4021.00000 0.6438
4022.00000 0.6413
4023.00000 0.6391
4024.00000 0.6358
4025.00000 0.6339
4026.00000 0.6321
4027.00000 0.6293
4028.00000 0.6268
4029.00000 0.6251
4030.00000 0.6231
4031.00000 0.6217
4032.00000 0.6203
4033.00000 0.6188
4034.00000 0.6186
4035.00000 0.6186
4036.00000 0.6182
4037.00000 0.6187
4038.00000 0.6199
4039.00000 0.621
4040.00000 0.6222
4041.00000 0.6237
4042.00000 0.6259
4043.00000 0.6279
4044.00000 0.6303
4045.00000 0.6331
4046.00000 0.636
4047.00000 0.6386
4048.00000 0.6414
4049.00000 0.6432
4050.00000 0.6456
4051.00000 0.6478
4052.00000 0.6503
4053.00000 0.6514
4054.00000 0.6533
4055.00000 0.6544
4056.00000 0.657
4057.00000 0.6577
4058.00000 0.6585
4059.00000 0.6602
4060.00000 0.6616
4061.00000 0.6639
4062.00000 0.6655
4063.00000 0.6681
4064.00000 0.6705
4065.00000 0.6735
4066.00000 0.6762
4067.00000 0.6773
4068.00000 0.6777
4069.00000 0.6756
4070.00000 0.6696
4071.00000 0.6599
4072.00000 0.6439
4073.00000 0.619
4074.00000 0.5853
4075.00000 0.5456
4076.00000 0.499
4077.00000 0.4492
4078.00000 0.3904
4079.00000 0.3381
4080.00000 0.284
4081.00000 0.2406
4082.00000 0.197
4083.00000 0.1634
4084.00000 0.1337
4085.00000 0.1102
4086.00000 0.0898
4087.00000 0.073
4088.00000 0.0602
4089.00000 0.0494
4090.00000 0.0412
4091.00000 0.0337
4092.00000 0.0282
4093.00000 0.0231
4094.00000 0.0194
4095.00000 0.0163
4096.00000 0.0137
4097.00000 0.0116
4098.00000 0.0099
4099.00000 0.0084
4100.00000 0.0072
4101.00000 0.0061
4102.00000 0.0053
4103.00000 0.0046
4104.00000 0.0039
4105.00000 0.0034
4106.00000 0.0029
4107.00000 0.0025
4108.00000 0.0022
4109.00000 0.0019
4110.00000 0.0017
4111.00000 0.0015
4112.00000 0.0013
4113.00000 0.0012
4114.00000 0.001
4115.00000 0.0009
4116.00000 0.0008
4117.00000 0.0007
4118.00000 0.0006
4119.00000 0.0006
4120.00000 0.0005
4121.00000 0.0004
4122.00000 0.0004
4123.00000 0.0004
4124.00000 0.0003
4125.00000 0.0003
4126.00000 0.0003
4127.00000 0.0002
4128.00000 0.0002
4129.00000 0.0002
4130.00000 0.0002
4131.00000 0.0002
4132.00000 0.0001
4133.00000 0.0001
4134.00000 0.0001
4135.00000 0.0001
4136.00000 0.0001
4137.00000 0.0001
4138.00000 0.0001
4139.00000 0.0001
4140.00000 0.0001
4141.00000 0.0001
4142.00000 0.0001
4143.00000 0.0001
4557.29980 0.0
