# %ECSV 0.9
# ---
# datatype:
# - {name: wavelength, unit: Angstrom, datatype: float32}
# - {name: response, datatype: float32}
# meta: !!omap
# - {band_name: J0810}
# - {group_name: JPAS}
wavelength response
7188.29980 0.0
7987.00000 0.0001
7988.00000 0.0001
7989.00000 0.0001
7990.00000 0.0001
7991.00000 0.0001
7992.00000 0.0001
7993.00000 0.0001
7994.00000 0.0001
7995.00000 0.0001
7996.00000 0.0001
7997.00000 0.0001
7998.00000 0.0002
7999.00000 0.0001
8000.00000 0.0003
8001.00000 0.0003
8002.00000 0.0003
8003.00000 0.0004
8004.00000 0.0004
8005.00000 0.0005
8006.00000 0.0005
8007.00000 0.0006
8008.00000 0.0007
8009.00000 0.0008
8010.00000 0.0009
8011.00000 0.0011
8012.00000 0.0012
8013.00000 0.0014
8014.00000 0.0016
8015.00000 0.0019
8016.00000 0.0022
8017.00000 0.0026
8018.00000 0.0029
8019.00000 0.0034
8020.00000 0.0039
8021.00000 0.0047
8022.00000 0.0054
8023.00000 0.0065
8024.00000 0.0079
8025.00000 0.0097
8026.00000 0.0114
8027.00000 0.0136
8028.00000 0.016
8029.00000 0.0198
8030.00000 0.0239
8031.00000 0.0286
8032.00000 0.0357
8033.00000 0.0445
8034.00000 0.055
8035.00000 0.0653
8036.00000 0.0797
8037.00000 0.0964
8038.00000 0.1207
8039.00000 0.1457
8040.00000 0.1827
8041.00000 0.2229
8042.00000 0.2815
8043.00000 0.3358
8044.00000 0.3868
8045.00000 0.4439
8046.00000 0.5109
8047.00000 0.5805
8048.00000 0.6333
8049.00000 0.6907
8050.00000 0.7418
8051.00000 0.7821
8052.00000 0.8069
8053.00000 0.8283
8054.00000 0.8403
8055.00000 0.8506
8056.00000 0.8544
8057.00000 0.8557
8058.00000 0.8551
8059.00000 0.8532
8060.00000 0.8514
8061.00000 0.85
8062.00000 0.849
8063.00000 0.8479
8064.00000 0.8481
8065.00000 0.8484
8066.00000 0.8488
8067.00000 0.8496
8068.00000 0.8515
8069.00000 0.8524
8070.00000 0.8534
8071.00000 0.8548
8072.00000 0.8555
8073.00000 0.8569
8074.00000 0.8576
8075.00000 0.8585
8076.00000 0.8591
8077.00000 0.8593
8078.00000 0.8595
8079.00000 0.8594
8080.00000 0.8593
8081.00000 0.8586
8082.00000 0.8575
8083.00000 0.8566
8084.00000 0.8553
8085.00000 0.8543
8086.00000 0.8535
8087.00000 0.8527
8088.00000 0.8518
8089.00000 0.8508
8090.00000 0.8502
8091.00000 0.8495
8092.00000 0.8489
8093.00000 0.8483
8094.00000 0.8482
8095.00000 0.8476
8096.00000 0.8468
8097.00000 0.8462
8098.00000 0.8458
8099.00000 0.8453
8100.00000 0.8446
8101.00000 0.8443
8102.00000 0.8436
8103.00000 0.8428
8104.00000 0.8422
8105.00000 0.8417
8106.00000 0.8408
8107.00000 0.8398
8108.00000 0.8393
8109.00000 0.8382
8110.00000 0.8374
8111.00000 0.8366
8112.00000 0.8353
8113.00000 0.8343
8114.00000 0.8337
8115.00000 0.8324
8116.00000 0.8315
8117.00000 0.8308
8118.00000 0.8297
8119.00000 0.829
8120.00000 0.8282
8121.00000 0.8272
8122.00000 0.8265
8123.00000 0.8257
8124.00000 0.8245
8125.00000 0.8238
8126.00000 0.8227
8127.00000 0.8219
8128.00000 0.8205
8129.00000 0.82
8130.00000 0.8188
8131.00000 0.8182
8132.00000 0.8169
8133.00000 0.8164
8134.00000 0.8154
8135.00000 0.8145
8136.00000 0.8137
8137.00000 0.8126
8138.00000 0.8119
8139.00000 0.8111
8140.00000 0.81
8141.00000 0.8091
8142.00000 0.8083
8143.00000 0.808
8144.00000 0.8073
8145.00000 0.8067
8146.00000 0.8061
8147.00000 0.8055
8148.00000 0.8043
8149.00000 0.8039
8150.00000 0.8029
8151.00000 0.8018
8152.00000 0.8009
8153.00000 0.7999
8154.00000 0.7988
8155.00000 0.7972
8156.00000 0.7963
8157.00000 0.7948
8158.00000 0.7932
8159.00000 0.7915
8160.00000 0.7896
8161.00000 0.7873
8162.00000 0.7853
8163.00000 0.7828
8164.00000 0.7812
8165.00000 0.7796
8166.00000 0.778
8167.00000 0.7769
8168.00000 0.7757
8169.00000 0.7749
8170.00000 0.7748
8171.00000 0.7748
8172.00000 0.7748
8173.00000 0.7746
8174.00000 0.7743
8175.00000 0.7725
8176.00000 0.7686
8177.00000 0.7631
8178.00000 0.7543
8179.00000 0.7387
8180.00000 0.7135
8181.00000 0.6828
8182.00000 0.6556
8183.00000 0.6166
8184.00000 0.5676
8185.00000 0.511
8186.00000 0.4637
8187.00000 0.4054
8188.00000 0.3492
8189.00000 0.2843
8190.00000 0.2468
8191.00000 0.21
8192.00000 0.1767
8193.00000 0.1415
8194.00000 0.1165
8195.00000 0.0967
8196.00000 0.0774
8197.00000 0.0606
8198.00000 0.048
8199.00000 0.0404
8200.00000 0.0337
8201.00000 0.0283
8202.00000 0.0226
8203.00000 0.0192
8204.00000 0.0162
8205.00000 0.0134
8206.00000 0.0109
8207.00000 0.0093
8208.00000 0.0081
8209.00000 0.007
8210.00000 0.006
8211.00000 0.005
8212.00000 0.0044
8213.00000 0.0037
8214.00000 0.0032
8215.00000 0.0026
8216.00000 0.0023
8217.00000 0.0021
8218.00000 0.0018
8219.00000 0.0016
8220.00000 0.0014
8221.00000 0.0012
8222.00000 0.0011
8223.00000 0.0009
8224.00000 0.0008
8225.00000 0.0007
8226.00000 0.0007
8227.00000 0.0006
8228.00000 0.0005
8229.00000 0.0005
8230.00000 0.0004
8231.00000 0.0004
8232.00000 0.0003
8233.00000 0.0003
8234.00000 0.0003
8235.00000 0.0002
8236.00000 0.0002
8237.00000 0.0002
8238.00000 0.0002
8239.00000 0.0001
8240.00000 0.0001
8241.00000 0.0001
8242.00000 0.0001
8243.00000 0.0001
8244.00000 0.0001
8245.00000 0.0001
8246.00000 0.0001
8247.00000 0.0001
8248.00000 0.0001
9072.79980 0.0
