# %ECSV 0.9
# ---
# datatype:
# - {name: wavelength, unit: Angstrom, datatype: float32}
# - {name: response, datatype: float32}
# meta: !!omap
# - {band_name: J0450}
# - {group_name: JPAS}
wavelength response
3944.69995 0.0
4383.00000 0.0001
4384.00000 0.0001
4385.00000 0.0001
4386.00000 0.0001
4387.00000 0.0001
4388.00000 0.0001
4389.00000 0.0001
4390.00000 0.0001
4391.00000 0.0001
4392.00000 0.0001
4393.00000 0.0001
4394.00000 0.0002
4395.00000 0.0002
4396.00000 0.0002
4397.00000 0.0003
4398.00000 0.0003
4399.00000 0.0003
4400.00000 0.0004
4401.00000 0.0004
4402.00000 0.0005
4403.00000 0.0005
4404.00000 0.0006
4405.00000 0.0007
4406.00000 0.0008
4407.00000 0.0009
4408.00000 0.001
4409.00000 0.0012
4410.00000 0.0013
4411.00000 0.0015
4412.00000 0.0018
4413.00000 0.0021
4414.00000 0.0025
4415.00000 0.0028
4416.00000 0.0033
4417.00000 0.0039
4418.00000 0.0046
4419.00000 0.0054
4420.00000 0.0064
4421.00000 0.0077
4422.00000 0.0092
4423.00000 0.0108
4424.00000 0.013
4425.00000 0.0158
4426.00000 0.0191
4427.00000 0.0232
4428.00000 0.028
4429.00000 0.0348
4430.00000 0.0424
4431.00000 0.0527
4432.00000 0.0647
4433.00000 0.0819
4434.00000 0.1009
4435.00000 0.1255
4436.00000 0.154
4437.00000 0.191
4438.00000 0.2337
4439.00000 0.2829
4440.00000 0.3361
4441.00000 0.3904
4442.00000 0.4497
4443.00000 0.5021
4444.00000 0.5496
4445.00000 0.586
4446.00000 0.6165
4447.00000 0.6353
4448.00000 0.6461
4449.00000 0.651
4450.00000 0.6517
4451.00000 0.6498
4452.00000 0.6458
4453.00000 0.6433
4454.00000 0.6391
4455.00000 0.6356
4456.00000 0.6337
4457.00000 0.6322
4458.00000 0.6317
4459.00000 0.6324
4460.00000 0.6336
4461.00000 0.6357
4462.00000 0.6382
4463.00000 0.6413
4464.00000 0.6444
4465.00000 0.6476
4466.00000 0.651
4467.00000 0.6529
4468.00000 0.6574
4469.00000 0.6597
4470.00000 0.6636
4471.00000 0.6658
4472.00000 0.6678
4473.00000 0.6695
4474.00000 0.6719
4475.00000 0.6733
4476.00000 0.6746
4477.00000 0.6751
4478.00000 0.6755
4479.00000 0.6756
4480.00000 0.677
4481.00000 0.6767
4482.00000 0.6769
4483.00000 0.6766
4484.00000 0.6776
4485.00000 0.6775
4486.00000 0.6774
4487.00000 0.6773
4488.00000 0.6778
4489.00000 0.6768
4490.00000 0.6772
4491.00000 0.6769
4492.00000 0.6767
4493.00000 0.6774
4494.00000 0.6773
4495.00000 0.6775
4496.00000 0.6774
4497.00000 0.6777
4498.00000 0.6777
4499.00000 0.6773
4500.00000 0.6792
4501.00000 0.6779
4502.00000 0.6785
4503.00000 0.6801
4504.00000 0.6792
4505.00000 0.6802
4506.00000 0.6802
4507.00000 0.6799
4508.00000 0.6802
4509.00000 0.6815
4510.00000 0.6815
4511.00000 0.6813
4512.00000 0.6817
4513.00000 0.6815
4514.00000 0.6823
4515.00000 0.682
4516.00000 0.6824
4517.00000 0.6831
4518.00000 0.6824
4519.00000 0.6834
4520.00000 0.6832
4521.00000 0.6833
4522.00000 0.6828
4523.00000 0.683
4524.00000 0.683
4525.00000 0.6821
4526.00000 0.6818
4527.00000 0.6824
4528.00000 0.681
4529.00000 0.6808
4530.00000 0.6793
4531.00000 0.6797
4532.00000 0.6793
4533.00000 0.6787
4534.00000 0.6785
4535.00000 0.6772
4536.00000 0.6767
4537.00000 0.6769
4538.00000 0.6763
4539.00000 0.6755
4540.00000 0.6764
4541.00000 0.6749
4542.00000 0.675
4543.00000 0.6748
4544.00000 0.6747
4545.00000 0.6735
4546.00000 0.6754
4547.00000 0.6754
4548.00000 0.6754
4549.00000 0.6756
4550.00000 0.6756
4551.00000 0.6769
4552.00000 0.6772
4553.00000 0.6769
4554.00000 0.6777
4555.00000 0.6779
4556.00000 0.6786
4557.00000 0.6787
4558.00000 0.6794
4559.00000 0.6793
4560.00000 0.6801
4561.00000 0.6799
4562.00000 0.6797
4563.00000 0.6796
4564.00000 0.6803
4565.00000 0.6791
4566.00000 0.68
4567.00000 0.6797
4568.00000 0.6787
4569.00000 0.6777
4570.00000 0.6761
4571.00000 0.6762
4572.00000 0.6726
4573.00000 0.6704
4574.00000 0.6669
4575.00000 0.6622
4576.00000 0.6556
4577.00000 0.6474
4578.00000 0.6361
4579.00000 0.6226
4580.00000 0.6041
4581.00000 0.5823
4582.00000 0.5567
4583.00000 0.5275
4584.00000 0.4963
4585.00000 0.4585
4586.00000 0.4196
4587.00000 0.378
4588.00000 0.3393
4589.00000 0.2975
4590.00000 0.2625
4591.00000 0.2268
4592.00000 0.1975
4593.00000 0.1683
4594.00000 0.1435
4595.00000 0.1228
4596.00000 0.1042
4597.00000 0.0889
4598.00000 0.0744
4599.00000 0.0635
4600.00000 0.0535
4601.00000 0.0458
4602.00000 0.0382
4603.00000 0.0328
4604.00000 0.0278
4605.00000 0.024
4606.00000 0.0206
4607.00000 0.0177
4608.00000 0.0153
4609.00000 0.0131
4610.00000 0.0114
4611.00000 0.0098
4612.00000 0.0085
4613.00000 0.0074
4614.00000 0.0065
4615.00000 0.0056
4616.00000 0.0049
4617.00000 0.0043
4618.00000 0.0038
4619.00000 0.0034
4620.00000 0.0029
4621.00000 0.0026
4622.00000 0.0023
4623.00000 0.0021
4624.00000 0.0018
4625.00000 0.0016
4626.00000 0.0015
4627.00000 0.0013
4628.00000 0.0012
4629.00000 0.001
4630.00000 0.0009
4631.00000 0.0009
4632.00000 0.0007
4633.00000 0.0007
4634.00000 0.0006
4635.00000 0.0006
4636.00000 0.0005
4637.00000 0.0005
4638.00000 0.0004
4639.00000 0.0004
4640.00000 0.0003
4641.00000 0.0003
4642.00000 0.0003
4643.00000 0.0003
4644.00000 0.0002
4645.00000 0.0002
4646.00000 0.0002
4647.00000 0.0002
4648.00000 0.0002
4649.00000 0.0002
4650.00000 0.0001
4651.00000 0.0001
4652.00000 0.0001
4653.00000 0.0001
4654.00000 0.0001
4655.00000 0.0001
4656.00000 0.0001
4657.00000 0.0001
4658.00000 0.0001
4659.00000 0.0001
4660.00000 0.0001
4661.00000 0.0001
4662.00000 0.0001
5128.20020 0.0
