# %ECSV 0.9
# ---
# datatype:
# - {name: wavelength, unit: Angstrom, datatype: float32}
# - {name: response, datatype: float32}
# meta: !!omap
# - {band_name: J0700}
# - {group_name: JPAS}
wavelength response
6190.20020 0.0
6878.00000 0.0001
6879.00000 0.0001
6880.00000 0.0001
6881.00000 0.0001
6882.00000 0.0001
6883.00000 0.0001
6884.00000 0.0001
6885.00000 0.0002
6886.00000 0.0002
6887.00000 0.0002
6888.00000 0.0003
6889.00000 0.0003
6890.00000 0.0003
6891.00000 0.0004
6892.00000 0.0004
6893.00000 0.0005
6894.00000 0.0005
6895.00000 0.0006
6896.00000 0.0007
6897.00000 0.0008
6898.00000 0.0009
6899.00000 0.001
6900.00000 0.0012
6901.00000 0.0014
6902.00000 0.0016
6903.00000 0.0018
6904.00000 0.0021
6905.00000 0.0024
6906.00000 0.0028
6907.00000 0.0032
6908.00000 0.0038
6909.00000 0.0044
6910.00000 0.0051
6911.00000 0.0061
6912.00000 0.0071
6913.00000 0.0084
6914.00000 0.01
6915.00000 0.0119
6916.00000 0.0141
6917.00000 0.017
6918.00000 0.0202
6919.00000 0.0244
6920.00000 0.0292
6921.00000 0.0358
6922.00000 0.044
6923.00000 0.054
6924.00000 0.0658
6925.00000 0.0798
6926.00000 0.0995
6927.00000 0.121
6928.00000 0.1486
6929.00000 0.1796
6930.00000 0.2205
6931.00000 0.265
6932.00000 0.3168
6933.00000 0.3719
6934.00000 0.4338
6935.00000 0.4989
6936.00000 0.5596
6937.00000 0.6189
6938.00000 0.6689
6939.00000 0.7175
6940.00000 0.7536
6941.00000 0.784
6942.00000 0.8061
6943.00000 0.8231
6944.00000 0.8331
6945.00000 0.8399
6946.00000 0.8423
6947.00000 0.8435
6948.00000 0.8444
6949.00000 0.8456
6950.00000 0.8488
6951.00000 0.8509
6952.00000 0.855
6953.00000 0.858
6954.00000 0.861
6955.00000 0.8641
6956.00000 0.8662
6957.00000 0.8681
6958.00000 0.8719
6959.00000 0.8738
6960.00000 0.8759
6961.00000 0.8793
6962.00000 0.8823
6963.00000 0.8853
6964.00000 0.8868
6965.00000 0.8878
6966.00000 0.8887
6967.00000 0.888
6968.00000 0.8891
6969.00000 0.8869
6970.00000 0.8871
6971.00000 0.8865
6972.00000 0.8853
6973.00000 0.8858
6974.00000 0.8868
6975.00000 0.8872
6976.00000 0.8895
6977.00000 0.8895
6978.00000 0.8902
6979.00000 0.8904
6980.00000 0.8901
6981.00000 0.8898
6982.00000 0.8899
6983.00000 0.8892
6984.00000 0.8902
6985.00000 0.8919
6986.00000 0.8929
6987.00000 0.8958
6988.00000 0.8983
6989.00000 0.8991
6990.00000 0.9012
6991.00000 0.9015
6992.00000 0.9025
6993.00000 0.9032
6994.00000 0.9023
6995.00000 0.9036
6996.00000 0.9051
6997.00000 0.9061
6998.00000 0.908
6999.00000 0.9082
7000.00000 0.9094
7001.00000 0.9103
7002.00000 0.9116
7003.00000 0.9112
7004.00000 0.9119
7005.00000 0.9116
7006.00000 0.9124
7007.00000 0.9127
7008.00000 0.9129
7009.00000 0.9133
7010.00000 0.9134
7011.00000 0.9139
7012.00000 0.9138
7013.00000 0.9155
7014.00000 0.915
7015.00000 0.9156
7016.00000 0.9152
7017.00000 0.9167
7018.00000 0.9158
7019.00000 0.9154
7020.00000 0.9162
7021.00000 0.9161
7022.00000 0.9168
7023.00000 0.9162
7024.00000 0.9165
7025.00000 0.9167
7026.00000 0.9162
7027.00000 0.9166
7028.00000 0.9159
7029.00000 0.9142
7030.00000 0.9148
7031.00000 0.9146
7032.00000 0.9164
7033.00000 0.9166
7034.00000 0.9168
7035.00000 0.917
7036.00000 0.9173
7037.00000 0.9179
7038.00000 0.9154
7039.00000 0.9163
7040.00000 0.9168
7041.00000 0.9169
7042.00000 0.9178
7043.00000 0.9187
7044.00000 0.9204
7045.00000 0.9203
7046.00000 0.9206
7047.00000 0.9201
7048.00000 0.9208
7049.00000 0.9199
7050.00000 0.919
7051.00000 0.9194
7052.00000 0.9188
7053.00000 0.9201
7054.00000 0.92
7055.00000 0.9197
7056.00000 0.9185
7057.00000 0.916
7058.00000 0.9142
7059.00000 0.9117
7060.00000 0.9092
7061.00000 0.9091
7062.00000 0.9092
7063.00000 0.9093
7064.00000 0.911
7065.00000 0.9124
7066.00000 0.9116
7067.00000 0.9097
7068.00000 0.9081
7069.00000 0.9026
7070.00000 0.8957
7071.00000 0.8869
7072.00000 0.8763
7073.00000 0.86
7074.00000 0.8395
7075.00000 0.8139
7076.00000 0.7809
7077.00000 0.7434
7078.00000 0.6951
7079.00000 0.6452
7080.00000 0.586
7081.00000 0.5258
7082.00000 0.4546
7083.00000 0.3967
7084.00000 0.3361
7085.00000 0.2888
7086.00000 0.2433
7087.00000 0.2064
7088.00000 0.1732
7089.00000 0.1469
7090.00000 0.1233
7091.00000 0.1025
7092.00000 0.0857
7093.00000 0.0702
7094.00000 0.0583
7095.00000 0.0474
7096.00000 0.0397
7097.00000 0.0332
7098.00000 0.0285
7099.00000 0.024
7100.00000 0.0208
7101.00000 0.0178
7102.00000 0.0154
7103.00000 0.0132
7104.00000 0.0111
7105.00000 0.0097
7106.00000 0.0081
7107.00000 0.0069
7108.00000 0.0059
7109.00000 0.0052
7110.00000 0.0045
7111.00000 0.004
7112.00000 0.0034
7113.00000 0.0031
7114.00000 0.0027
7115.00000 0.0024
7116.00000 0.0021
7117.00000 0.0018
7118.00000 0.0016
7119.00000 0.0014
7120.00000 0.0012
7121.00000 0.0011
7122.00000 0.0009
7123.00000 0.0009
7124.00000 0.0008
7125.00000 0.0007
7126.00000 0.0006
7127.00000 0.0006
7128.00000 0.0005
7129.00000 0.0005
7130.00000 0.0004
7131.00000 0.0003
7132.00000 0.0003
7133.00000 0.0003
7134.00000 0.0003
7135.00000 0.0002
7136.00000 0.0002
7137.00000 0.0002
7138.00000 0.0002
7139.00000 0.0002
7140.00000 0.0002
7141.00000 0.0001
7142.00000 0.0001
7143.00000 0.0001
7144.00000 0.0001
7145.00000 0.0001
7146.00000 0.0001
7147.00000 0.0001
7148.00000 0.0001
7149.00000 0.0001
7150.00000 0.0001
7865.00000 0.0
