# %ECSV 0.9
# ---
# datatype:
# - {name: wavelength, unit: Angstrom, datatype: float32}
# - {name: response, datatype: float32}
# meta: !!omap
# - {band_name: J0550}
# - {group_name: JPAS}
wavelength response
4829.39990 0.0
5366.00000 0.0001
5367.00000 0.0001
5368.00000 0.0001
5369.00000 0.0001
5370.00000 0.0001
5371.00000 0.0001
5372.00000 0.0001
5373.00000 0.0001
5374.00000 0.0001
5375.00000 0.0001
5376.00000 0.0002
5377.00000 0.0002
5378.00000 0.0002
5379.00000 0.0002
5380.00000 0.0003
5381.00000 0.0003
5382.00000 0.0003
5383.00000 0.0004
5384.00000 0.0004
5385.00000 0.0005
5386.00000 0.0005
5387.00000 0.0006
5388.00000 0.0007
5389.00000 0.0008
5390.00000 0.0008
5391.00000 0.001
5392.00000 0.0011
5393.00000 0.0013
5394.00000 0.0014
5395.00000 0.0017
5396.00000 0.0019
5397.00000 0.0021
5398.00000 0.0025
5399.00000 0.0029
5400.00000 0.0033
5401.00000 0.0039
5402.00000 0.0045
5403.00000 0.0052
5404.00000 0.0061
5405.00000 0.0071
5406.00000 0.0083
5407.00000 0.0097
5408.00000 0.0117
5409.00000 0.0136
5410.00000 0.0161
5411.00000 0.0191
5412.00000 0.0227
5413.00000 0.0273
5414.00000 0.0328
5415.00000 0.0391
5416.00000 0.0466
5417.00000 0.0568
5418.00000 0.0683
5419.00000 0.0833
5420.00000 0.0992
5421.00000 0.1213
5422.00000 0.1448
5423.00000 0.1727
5424.00000 0.2039
5425.00000 0.2419
5426.00000 0.2859
5427.00000 0.3319
5428.00000 0.38
5429.00000 0.4282
5430.00000 0.4808
5431.00000 0.5257
5432.00000 0.5694
5433.00000 0.6064
5434.00000 0.6421
5435.00000 0.6679
5436.00000 0.6898
5437.00000 0.706
5438.00000 0.7183
5439.00000 0.7285
5440.00000 0.7349
5441.00000 0.7397
5442.00000 0.7427
5443.00000 0.7449
5444.00000 0.7461
5445.00000 0.7472
5446.00000 0.7489
5447.00000 0.7487
5448.00000 0.7485
5449.00000 0.7489
5450.00000 0.749
5451.00000 0.7493
5452.00000 0.7492
5453.00000 0.7494
5454.00000 0.7495
5455.00000 0.7495
5456.00000 0.7496
5457.00000 0.7488
5458.00000 0.7478
5459.00000 0.7481
5460.00000 0.7472
5461.00000 0.7472
5462.00000 0.7469
5463.00000 0.746
5464.00000 0.7458
5465.00000 0.7458
5466.00000 0.7454
5467.00000 0.7457
5468.00000 0.7452
5469.00000 0.7453
5470.00000 0.7456
5471.00000 0.7458
5472.00000 0.7466
5473.00000 0.7464
5474.00000 0.747
5475.00000 0.7484
5476.00000 0.7483
5477.00000 0.7497
5478.00000 0.7503
5479.00000 0.7511
5480.00000 0.7515
5481.00000 0.7524
5482.00000 0.7537
5483.00000 0.7534
5484.00000 0.7542
5485.00000 0.7552
5486.00000 0.7555
5487.00000 0.7561
5488.00000 0.7559
5489.00000 0.7574
5490.00000 0.757
5491.00000 0.7583
5492.00000 0.758
5493.00000 0.7578
5494.00000 0.7589
5495.00000 0.7589
5496.00000 0.759
5497.00000 0.7596
5498.00000 0.7596
5499.00000 0.7595
5500.00000 0.7595
5501.00000 0.7601
5502.00000 0.7597
5503.00000 0.7599
5504.00000 0.7608
5505.00000 0.7605
5506.00000 0.7604
5507.00000 0.7603
5508.00000 0.7595
5509.00000 0.7596
5510.00000 0.7601
5511.00000 0.7603
5512.00000 0.7592
5513.00000 0.7594
5514.00000 0.7593
5515.00000 0.7591
5516.00000 0.7595
5517.00000 0.7586
5518.00000 0.7586
5519.00000 0.7581
5520.00000 0.7575
5521.00000 0.7574
5522.00000 0.7574
5523.00000 0.757
5524.00000 0.7567
5525.00000 0.7566
5526.00000 0.7563
5527.00000 0.7565
5528.00000 0.7561
5529.00000 0.756
5530.00000 0.7563
5531.00000 0.7564
5532.00000 0.7567
5533.00000 0.7565
5534.00000 0.7566
5535.00000 0.7574
5536.00000 0.7581
5537.00000 0.7584
5538.00000 0.7593
5539.00000 0.7599
5540.00000 0.7607
5541.00000 0.7612
5542.00000 0.7613
5543.00000 0.762
5544.00000 0.7631
5545.00000 0.7642
5546.00000 0.7638
5547.00000 0.765
5548.00000 0.7652
5549.00000 0.7651
5550.00000 0.7658
5551.00000 0.7654
5552.00000 0.7659
5553.00000 0.7661
5554.00000 0.7658
5555.00000 0.7659
5556.00000 0.7657
5557.00000 0.7656
5558.00000 0.7645
5559.00000 0.7637
5560.00000 0.7616
5561.00000 0.7598
5562.00000 0.7551
5563.00000 0.7503
5564.00000 0.7434
5565.00000 0.7342
5566.00000 0.7221
5567.00000 0.7059
5568.00000 0.6858
5569.00000 0.6586
5570.00000 0.6284
5571.00000 0.5928
5572.00000 0.5548
5573.00000 0.5087
5574.00000 0.4647
5575.00000 0.4158
5576.00000 0.3719
5577.00000 0.3257
5578.00000 0.2855
5579.00000 0.2449
5580.00000 0.2126
5581.00000 0.1806
5582.00000 0.1519
5583.00000 0.1292
5584.00000 0.1089
5585.00000 0.0925
5586.00000 0.0768
5587.00000 0.0653
5588.00000 0.0548
5589.00000 0.0467
5590.00000 0.0393
5591.00000 0.0336
5592.00000 0.0284
5593.00000 0.0245
5594.00000 0.0208
5595.00000 0.0178
5596.00000 0.0153
5597.00000 0.0131
5598.00000 0.0114
5599.00000 0.0097
5600.00000 0.0085
5601.00000 0.0073
5602.00000 0.0064
5603.00000 0.0056
5604.00000 0.0049
5605.00000 0.0043
5606.00000 0.0038
5607.00000 0.0033
5608.00000 0.0029
5609.00000 0.0026
5610.00000 0.0023
5611.00000 0.002
5612.00000 0.0018
5613.00000 0.0016
5614.00000 0.0014
5615.00000 0.0013
5616.00000 0.0011
5617.00000 0.001
5618.00000 0.0009
5619.00000 0.0008
5620.00000 0.0007
5621.00000 0.0006
5622.00000 0.0006
5623.00000 0.0005
5624.00000 0.0005
5625.00000 0.0004
5626.00000 0.0004
5627.00000 0.0003
5628.00000 0.0003
5629.00000 0.0003
5630.00000 0.0003
5631.00000 0.0002
5632.00000 0.0002
5633.00000 0.0002
5634.00000 0.0002
5635.00000 0.0002
5636.00000 0.0001
5637.00000 0.0001
5638.00000 0.0001
5639.00000 0.0001
5640.00000 0.0001
5641.00000 0.0001
5642.00000 0.0001
5643.00000 0.0001
5644.00000 0.0001
5645.00000 0.0001
5646.00000 0.0001
5647.00000 0.0001
6211.70020 0.0
