# %ECSV 0.9
# ---
# datatype:
# - {name: wavelength, unit: Angstrom, datatype: float32}
# - {name: response, datatype: float32}
# meta: !!omap
# - {band_name: J0890}
# - {group_name: JPAS}
wavelength response
7887.60010 0.0
8764.00000 0.0001
8765.00000 0.0
8766.00000 0.0
8767.00000 0.0
8768.00000 0.0
8769.00000 0.0
8770.00000 0.0
8771.00000 0.0
8772.00000 0.0
8773.00000 0.0
8774.00000 0.0
8775.00000 0.0
8776.00000 0.0001
8777.00000 0.0
8778.00000 0.0
8779.00000 0.0
8780.00000 0.0
8781.00000 0.0001
8782.00000 0.0001
8783.00000 0.0001
8784.00000 0.0
8785.00000 0.0001
8786.00000 0.0001
8787.00000 0.0001
8788.00000 0.0001
8789.00000 0.0001
8790.00000 0.0002
8791.00000 0.0002
8792.00000 0.0002
8793.00000 0.0002
8794.00000 0.0002
8795.00000 0.0003
8796.00000 0.0003
8797.00000 0.0003
8798.00000 0.0004
8799.00000 0.0004
8800.00000 0.0005
8801.00000 0.0005
8802.00000 0.0006
8803.00000 0.0007
8804.00000 0.0008
8805.00000 0.001
8806.00000 0.001
8807.00000 0.0013
8808.00000 0.0014
8809.00000 0.0017
8810.00000 0.0019
8811.00000 0.0021
8812.00000 0.0026
8813.00000 0.003
8814.00000 0.0036
8815.00000 0.004
8816.00000 0.0046
8817.00000 0.0055
8818.00000 0.0066
8819.00000 0.0074
8820.00000 0.009
8821.00000 0.0111
8822.00000 0.014
8823.00000 0.0163
8824.00000 0.0193
8825.00000 0.0231
8826.00000 0.0293
8827.00000 0.0345
8828.00000 0.0421
8829.00000 0.0519
8830.00000 0.0663
8831.00000 0.0819
8832.00000 0.0958
8833.00000 0.1157
8834.00000 0.1406
8835.00000 0.1733
8836.00000 0.2038
8837.00000 0.2437
8838.00000 0.2941
8839.00000 0.3591
8840.00000 0.401
8841.00000 0.4428
8842.00000 0.4892
8843.00000 0.5306
8844.00000 0.5723
8845.00000 0.5911
8846.00000 0.6188
8847.00000 0.6298
8848.00000 0.6411
8849.00000 0.6445
8850.00000 0.6441
8851.00000 0.6481
8852.00000 0.6444
8853.00000 0.6442
8854.00000 0.6389
8855.00000 0.6384
8856.00000 0.6344
8857.00000 0.6337
8858.00000 0.6344
8859.00000 0.6324
8860.00000 0.6338
8861.00000 0.6363
8862.00000 0.6366
8863.00000 0.6376
8864.00000 0.6365
8865.00000 0.6397
8866.00000 0.6395
8867.00000 0.642
8868.00000 0.6413
8869.00000 0.6453
8870.00000 0.6421
8871.00000 0.6432
8872.00000 0.6408
8873.00000 0.6432
8874.00000 0.6425
8875.00000 0.643
8876.00000 0.6415
8877.00000 0.643
8878.00000 0.641
8879.00000 0.6387
8880.00000 0.6395
8881.00000 0.6387
8882.00000 0.6364
8883.00000 0.6375
8884.00000 0.6358
8885.00000 0.6377
8886.00000 0.6361
8887.00000 0.6352
8888.00000 0.6362
8889.00000 0.6339
8890.00000 0.6347
8891.00000 0.6341
8892.00000 0.6319
8893.00000 0.6353
8894.00000 0.6329
8895.00000 0.6337
8896.00000 0.6328
8897.00000 0.6332
8898.00000 0.636
8899.00000 0.6307
8900.00000 0.6327
8901.00000 0.633
8902.00000 0.6346
8903.00000 0.6309
8904.00000 0.6304
8905.00000 0.6357
8906.00000 0.6301
8907.00000 0.6315
8908.00000 0.6274
8909.00000 0.6252
8910.00000 0.6294
8911.00000 0.6245
8912.00000 0.6275
8913.00000 0.6255
8914.00000 0.622
8915.00000 0.6216
8916.00000 0.6227
8917.00000 0.623
8918.00000 0.6202
8919.00000 0.6179
8920.00000 0.6152
8921.00000 0.6154
8922.00000 0.6146
8923.00000 0.6137
8924.00000 0.6128
8925.00000 0.6142
8926.00000 0.6144
8927.00000 0.6094
8928.00000 0.608
8929.00000 0.6055
8930.00000 0.6047
8931.00000 0.6073
8932.00000 0.6027
8933.00000 0.5995
8934.00000 0.6012
8935.00000 0.5969
8936.00000 0.5967
8937.00000 0.5962
8938.00000 0.5947
8939.00000 0.5926
8940.00000 0.5896
8941.00000 0.5902
8942.00000 0.5824
8943.00000 0.5874
8944.00000 0.582
8945.00000 0.5831
8946.00000 0.5819
8947.00000 0.5819
8948.00000 0.581
8949.00000 0.5829
8950.00000 0.5767
8951.00000 0.5747
8952.00000 0.5746
8953.00000 0.5738
8954.00000 0.572
8955.00000 0.574
8956.00000 0.5731
8957.00000 0.5742
8958.00000 0.5713
8959.00000 0.5703
8960.00000 0.5665
8961.00000 0.5664
8962.00000 0.567
8963.00000 0.565
8964.00000 0.5643
8965.00000 0.5608
8966.00000 0.5621
8967.00000 0.5555
8968.00000 0.5518
8969.00000 0.5471
8970.00000 0.5503
8971.00000 0.5463
8972.00000 0.5397
8973.00000 0.5385
8974.00000 0.5285
8975.00000 0.5228
8976.00000 0.5157
8977.00000 0.5028
8978.00000 0.4915
8979.00000 0.4746
8980.00000 0.4598
8981.00000 0.4404
8982.00000 0.4107
8983.00000 0.39
8984.00000 0.3607
8985.00000 0.3275
8986.00000 0.2929
8987.00000 0.2676
8988.00000 0.2404
8989.00000 0.211
8990.00000 0.1813
8991.00000 0.1574
8992.00000 0.137
8993.00000 0.1134
8994.00000 0.0933
8995.00000 0.0756
8996.00000 0.0655
8997.00000 0.0542
8998.00000 0.0459
8999.00000 0.0383
9000.00000 0.0325
9001.00000 0.0274
9002.00000 0.0226
9003.00000 0.0181
9004.00000 0.0156
9005.00000 0.0135
9006.00000 0.0111
9007.00000 0.0095
9008.00000 0.0081
9009.00000 0.0069
9010.00000 0.0061
9011.00000 0.0053
9012.00000 0.0042
9013.00000 0.0037
9014.00000 0.0035
9015.00000 0.0027
9016.00000 0.0024
9017.00000 0.0021
9018.00000 0.0019
9019.00000 0.0015
9020.00000 0.0016
9021.00000 0.0012
9022.00000 0.0011
9023.00000 0.0011
9024.00000 0.0009
9025.00000 0.0007
9026.00000 0.0007
9027.00000 0.0005
9028.00000 0.0005
9029.00000 0.0005
9030.00000 0.0004
9031.00000 0.0003
9032.00000 0.0004
9033.00000 0.0003
9034.00000 0.0003
9035.00000 0.0003
9036.00000 0.0003
9037.00000 0.0002
9038.00000 0.0003
9941.79980 0.0
