# %ECSV 0.9
# ---
# datatype:
# - {name: wavelength, unit: Angstrom, datatype: float32}
# - {name: response, datatype: float32}
# meta: !!omap
# - {band_name: J0440}
# - {group_name: JPAS}
wavelength response
3845.69995 0.0
4273.00000 0.0001
4274.00000 0.0001
4275.00000 0.0001
4276.00000 0.0001
4277.00000 0.0001
4278.00000 0.0001
4279.00000 0.0001
4280.00000 0.0001
4281.00000 0.0001
4282.00000 0.0001
4283.00000 0.0002
4284.00000 0.0002
4285.00000 0.0002
4286.00000 0.0002
4287.00000 0.0002
4288.00000 0.0003
4289.00000 0.0003
4290.00000 0.0004
4291.00000 0.0004
4292.00000 0.0005
4293.00000 0.0005
4294.00000 0.0006
4295.00000 0.0007
4296.00000 0.0007
4297.00000 0.0009
4298.00000 0.001
4299.00000 0.0011
4300.00000 0.0013
4301.00000 0.0015
4302.00000 0.0017
4303.00000 0.0019
4304.00000 0.0022
4305.00000 0.0026
4306.00000 0.003
4307.00000 0.0034
4308.00000 0.004
4309.00000 0.0047
4310.00000 0.0055
4311.00000 0.0063
4312.00000 0.0076
4313.00000 0.0089
4314.00000 0.0106
4315.00000 0.0125
4316.00000 0.015
4317.00000 0.0179
4318.00000 0.0215
4319.00000 0.0255
4320.00000 0.0309
4321.00000 0.0371
4322.00000 0.0451
4323.00000 0.0548
4324.00000 0.0658
4325.00000 0.0809
4326.00000 0.0976
4327.00000 0.1195
4328.00000 0.144
4329.00000 0.177
4330.00000 0.21
4331.00000 0.2518
4332.00000 0.2945
4333.00000 0.344
4334.00000 0.3943
4335.00000 0.4456
4336.00000 0.4948
4337.00000 0.5415
4338.00000 0.5858
4339.00000 0.6181
4340.00000 0.6476
4341.00000 0.6693
4342.00000 0.6877
4343.00000 0.6996
4344.00000 0.7071
4345.00000 0.7118
4346.00000 0.715
4347.00000 0.7176
4348.00000 0.7182
4349.00000 0.7184
4350.00000 0.7182
4351.00000 0.7188
4352.00000 0.7196
4353.00000 0.719
4354.00000 0.7197
4355.00000 0.7193
4356.00000 0.7204
4357.00000 0.7199
4358.00000 0.7205
4359.00000 0.7206
4360.00000 0.7201
4361.00000 0.7214
4362.00000 0.7209
4363.00000 0.7205
4364.00000 0.7209
4365.00000 0.7197
4366.00000 0.72
4367.00000 0.7197
4368.00000 0.7199
4369.00000 0.7195
4370.00000 0.7199
4371.00000 0.7191
4372.00000 0.7188
4373.00000 0.7189
4374.00000 0.7179
4375.00000 0.7188
4376.00000 0.7185
4377.00000 0.7184
4378.00000 0.7188
4379.00000 0.719
4380.00000 0.7184
4381.00000 0.7198
4382.00000 0.7199
4383.00000 0.7204
4384.00000 0.7204
4385.00000 0.7208
4386.00000 0.7214
4387.00000 0.7227
4388.00000 0.722
4389.00000 0.7219
4390.00000 0.723
4391.00000 0.7231
4392.00000 0.7242
4393.00000 0.7241
4394.00000 0.7234
4395.00000 0.7237
4396.00000 0.7241
4397.00000 0.7246
4398.00000 0.7244
4399.00000 0.7237
4400.00000 0.7247
4401.00000 0.724
4402.00000 0.7246
4403.00000 0.7245
4404.00000 0.723
4405.00000 0.7235
4406.00000 0.7228
4407.00000 0.7229
4408.00000 0.7224
4409.00000 0.7229
4410.00000 0.7231
4411.00000 0.7224
4412.00000 0.7219
4413.00000 0.7219
4414.00000 0.7216
4415.00000 0.7217
4416.00000 0.7211
4417.00000 0.7212
4418.00000 0.7209
4419.00000 0.7211
4420.00000 0.721
4421.00000 0.722
4422.00000 0.7212
4423.00000 0.7217
4424.00000 0.7207
4425.00000 0.721
4426.00000 0.7212
4427.00000 0.7209
4428.00000 0.7213
4429.00000 0.721
4430.00000 0.7216
4431.00000 0.722
4432.00000 0.722
4433.00000 0.7218
4434.00000 0.7239
4435.00000 0.7234
4436.00000 0.7242
4437.00000 0.7252
4438.00000 0.7247
4439.00000 0.7263
4440.00000 0.7274
4441.00000 0.7277
4442.00000 0.7284
4443.00000 0.7289
4444.00000 0.7292
4445.00000 0.7294
4446.00000 0.73
4447.00000 0.7319
4448.00000 0.7309
4449.00000 0.7317
4450.00000 0.7315
4451.00000 0.7321
4452.00000 0.7327
4453.00000 0.7324
4454.00000 0.7331
4455.00000 0.733
4456.00000 0.7314
4457.00000 0.7315
4458.00000 0.7313
4459.00000 0.7316
4460.00000 0.7307
4461.00000 0.7307
4462.00000 0.73
4463.00000 0.7304
4464.00000 0.7297
4465.00000 0.7287
4466.00000 0.7281
4467.00000 0.7264
4468.00000 0.7243
4469.00000 0.7193
4470.00000 0.7139
4471.00000 0.7059
4472.00000 0.6931
4473.00000 0.6788
4474.00000 0.6585
4475.00000 0.6359
4476.00000 0.6072
4477.00000 0.5732
4478.00000 0.5356
4479.00000 0.4946
4480.00000 0.4513
4481.00000 0.4041
4482.00000 0.3619
4483.00000 0.3175
4484.00000 0.2795
4485.00000 0.2369
4486.00000 0.2052
4487.00000 0.1743
4488.00000 0.1503
4489.00000 0.1272
4490.00000 0.1084
4491.00000 0.0921
4492.00000 0.078
4493.00000 0.0663
4494.00000 0.0557
4495.00000 0.0478
4496.00000 0.0405
4497.00000 0.0347
4498.00000 0.0293
4499.00000 0.0253
4500.00000 0.0216
4501.00000 0.0188
4502.00000 0.0161
4503.00000 0.014
4504.00000 0.0121
4505.00000 0.0105
4506.00000 0.0092
4507.00000 0.008
4508.00000 0.007
4509.00000 0.0061
4510.00000 0.0054
4511.00000 0.0047
4512.00000 0.0041
4513.00000 0.0036
4514.00000 0.0032
4515.00000 0.0029
4516.00000 0.0025
4517.00000 0.0022
4518.00000 0.002
4519.00000 0.0018
4520.00000 0.0016
4521.00000 0.0014
4522.00000 0.0013
4523.00000 0.0011
4524.00000 0.001
4525.00000 0.0009
4526.00000 0.0008
4527.00000 0.0008
4528.00000 0.0007
4529.00000 0.0006
4530.00000 0.0006
4531.00000 0.0005
4532.00000 0.0005
4533.00000 0.0004
4534.00000 0.0004
4535.00000 0.0003
4536.00000 0.0003
4537.00000 0.0003
4538.00000 0.0003
4539.00000 0.0002
4540.00000 0.0002
4541.00000 0.0002
4542.00000 0.0002
4543.00000 0.0002
4544.00000 0.0002
4545.00000 0.0001
4546.00000 0.0001
4547.00000 0.0001
4548.00000 0.0001
4549.00000 0.0001
4550.00000 0.0001
4551.00000 0.0001
4552.00000 0.0001
4553.00000 0.0001
4554.00000 0.0001
4555.00000 0.0001
4556.00000 0.0001
4557.00000 0.0001
5012.70020 0.0
