# %ECSV 0.9
# ---
# datatype:
# - {name: wavelength, unit: Angstrom, datatype: float32}
# - {name: response, datatype: float32}
# meta: !!omap
# - {band_name: J0420}
# - {group_name: JPAS}
wavelength response
3673.80005 0.0
4082.00000 0.0001
4083.00000 0.0001
4084.00000 0.0001
4085.00000 0.0001
4086.00000 0.0001
4087.00000 0.0001
4088.00000 0.0001
4089.00000 0.0001
4090.00000 0.0001
4091.00000 0.0002
4092.00000 0.0002
4093.00000 0.0002
4094.00000 0.0002
4095.00000 0.0003
4096.00000 0.0003
4097.00000 0.0004
4098.00000 0.0004
4099.00000 0.0004
4100.00000 0.0005
4101.00000 0.0006
4102.00000 0.0007
4103.00000 0.0008
4104.00000 0.0009
4105.00000 0.001
4106.00000 0.0012
4107.00000 0.0014
4108.00000 0.0016
4109.00000 0.0019
4110.00000 0.0022
4111.00000 0.0025
4112.00000 0.0031
4113.00000 0.0036
4114.00000 0.0043
4115.00000 0.0051
4116.00000 0.006
4117.00000 0.0073
4118.00000 0.0087
4119.00000 0.0105
4120.00000 0.0126
4121.00000 0.0155
4122.00000 0.0189
4123.00000 0.0229
4124.00000 0.0284
4125.00000 0.0347
4126.00000 0.0427
4127.00000 0.0526
4128.00000 0.0648
4129.00000 0.0805
4130.00000 0.1012
4131.00000 0.1245
4132.00000 0.1549
4133.00000 0.1873
4134.00000 0.2294
4135.00000 0.2724
4136.00000 0.3215
4137.00000 0.3713
4138.00000 0.4228
4139.00000 0.4726
4140.00000 0.5155
4141.00000 0.5526
4142.00000 0.5831
4143.00000 0.609
4144.00000 0.625
4145.00000 0.6372
4146.00000 0.6466
4147.00000 0.6519
4148.00000 0.6551
4149.00000 0.6585
4150.00000 0.6604
4151.00000 0.6625
4152.00000 0.6644
4153.00000 0.665
4154.00000 0.6663
4155.00000 0.6673
4156.00000 0.6677
4157.00000 0.67
4158.00000 0.6699
4159.00000 0.6718
4160.00000 0.6707
4161.00000 0.6707
4162.00000 0.67
4163.00000 0.6709
4164.00000 0.6707
4165.00000 0.6697
4166.00000 0.6686
4167.00000 0.669
4168.00000 0.6681
4169.00000 0.6668
4170.00000 0.6661
4171.00000 0.6663
4172.00000 0.6656
4173.00000 0.6654
4174.00000 0.6659
4175.00000 0.6646
4176.00000 0.6656
4177.00000 0.665
4178.00000 0.6671
4179.00000 0.6678
4180.00000 0.6688
4181.00000 0.6693
4182.00000 0.67
4183.00000 0.6717
4184.00000 0.6717
4185.00000 0.6735
4186.00000 0.6735
4187.00000 0.6746
4188.00000 0.6755
4189.00000 0.6751
4190.00000 0.6761
4191.00000 0.6756
4192.00000 0.6776
4193.00000 0.6765
4194.00000 0.6759
4195.00000 0.675
4196.00000 0.6738
4197.00000 0.6744
4198.00000 0.671
4199.00000 0.6711
4200.00000 0.6687
4201.00000 0.6675
4202.00000 0.6666
4203.00000 0.6646
4204.00000 0.6631
4205.00000 0.6615
4206.00000 0.6592
4207.00000 0.6579
4208.00000 0.6571
4209.00000 0.6546
4210.00000 0.6533
4211.00000 0.6529
4212.00000 0.6509
4213.00000 0.6504
4214.00000 0.6498
4215.00000 0.6478
4216.00000 0.6477
4217.00000 0.6477
4218.00000 0.6481
4219.00000 0.6466
4220.00000 0.6471
4221.00000 0.6483
4222.00000 0.648
4223.00000 0.647
4224.00000 0.6483
4225.00000 0.6485
4226.00000 0.6502
4227.00000 0.6508
4228.00000 0.6523
4229.00000 0.6527
4230.00000 0.6547
4231.00000 0.6555
4232.00000 0.6562
4233.00000 0.6567
4234.00000 0.658
4235.00000 0.6594
4236.00000 0.6618
4237.00000 0.6634
4238.00000 0.665
4239.00000 0.6651
4240.00000 0.667
4241.00000 0.6685
4242.00000 0.6703
4243.00000 0.6715
4244.00000 0.6734
4245.00000 0.6738
4246.00000 0.6762
4247.00000 0.6771
4248.00000 0.6777
4249.00000 0.678
4250.00000 0.6779
4251.00000 0.6786
4252.00000 0.6785
4253.00000 0.6787
4254.00000 0.6781
4255.00000 0.6772
4256.00000 0.6753
4257.00000 0.6752
4258.00000 0.674
4259.00000 0.6728
4260.00000 0.6726
4261.00000 0.671
4262.00000 0.67
4263.00000 0.6693
4264.00000 0.6686
4265.00000 0.6675
4266.00000 0.6682
4267.00000 0.6675
4268.00000 0.6681
4269.00000 0.6671
4270.00000 0.6659
4271.00000 0.6634
4272.00000 0.6577
4273.00000 0.6482
4274.00000 0.6367
4275.00000 0.6183
4276.00000 0.5961
4277.00000 0.5637
4278.00000 0.53
4279.00000 0.4886
4280.00000 0.4461
4281.00000 0.3994
4282.00000 0.3495
4283.00000 0.302
4284.00000 0.2601
4285.00000 0.2219
4286.00000 0.1843
4287.00000 0.1549
4288.00000 0.1279
4289.00000 0.107
4290.00000 0.0876
4291.00000 0.0729
4292.00000 0.0605
4293.00000 0.0508
4294.00000 0.0419
4295.00000 0.0352
4296.00000 0.0295
4297.00000 0.025
4298.00000 0.0211
4299.00000 0.0176
4300.00000 0.0151
4301.00000 0.0128
4302.00000 0.011
4303.00000 0.0093
4304.00000 0.008
4305.00000 0.0068
4306.00000 0.006
4307.00000 0.0052
4308.00000 0.0045
4309.00000 0.0039
4310.00000 0.0034
4311.00000 0.0029
4312.00000 0.0026
4313.00000 0.0023
4314.00000 0.002
4315.00000 0.0018
4316.00000 0.0015
4317.00000 0.0014
4318.00000 0.0012
4319.00000 0.0011
4320.00000 0.001
4321.00000 0.0009
4322.00000 0.0008
4323.00000 0.0007
4324.00000 0.0006
4325.00000 0.0005
4326.00000 0.0005
4327.00000 0.0004
4328.00000 0.0004
4329.00000 0.0004
4330.00000 0.0003
4331.00000 0.0003
4332.00000 0.0003
4333.00000 0.0002
4334.00000 0.0002
4335.00000 0.0002
4336.00000 0.0002
4337.00000 0.0002
4338.00000 0.0002
4339.00000 0.0001
4340.00000 0.0001
4341.00000 0.0001
4342.00000 0.0001
4343.00000 0.0001
4344.00000 0.0001
4345.00000 0.0001
4346.00000 0.0001
4347.00000 0.0001
4348.00000 0.0001
4349.00000 0.0001
4350.00000 0.0001
4785.00000 0.0
