# %ECSV 0.9
# ---
# datatype:
# - {name: wavelength, unit: Angstrom, datatype: float32}
# - {name: response, datatype: float32}
# meta: !!omap
# - {band_name: J0610}
# - {group_name: JPAS}
wavelength response
5382.00000 0.0
5980.00000 0.0001
5981.00000 0.0001
5982.00000 0.0001
5983.00000 0.0001
5984.00000 0.0001
5985.00000 0.0001
5986.00000 0.0001
5987.00000 0.0001
5988.00000 0.0001
5989.00000 0.0001
5990.00000 0.0001
5991.00000 0.0002
5992.00000 0.0002
5993.00000 0.0002
5994.00000 0.0002
5995.00000 0.0003
5996.00000 0.0003
5997.00000 0.0003
5998.00000 0.0004
5999.00000 0.0004
6000.00000 0.0005
6001.00000 0.0005
6002.00000 0.0006
6003.00000 0.0007
6004.00000 0.0008
6005.00000 0.0009
6006.00000 0.001
6007.00000 0.0011
6008.00000 0.0012
6009.00000 0.0014
6010.00000 0.0016
6011.00000 0.0019
6012.00000 0.0021
6013.00000 0.0025
6014.00000 0.0028
6015.00000 0.0033
6016.00000 0.0038
6017.00000 0.0044
6018.00000 0.0051
6019.00000 0.0059
6020.00000 0.0069
6021.00000 0.0081
6022.00000 0.0095
6023.00000 0.0112
6024.00000 0.0133
6025.00000 0.0157
6026.00000 0.0187
6027.00000 0.0223
6028.00000 0.0268
6029.00000 0.032
6030.00000 0.0384
6031.00000 0.0459
6032.00000 0.0554
6033.00000 0.0673
6034.00000 0.0815
6035.00000 0.0989
6036.00000 0.1191
6037.00000 0.146
6038.00000 0.1755
6039.00000 0.2127
6040.00000 0.2527
6041.00000 0.3031
6042.00000 0.3535
6043.00000 0.4107
6044.00000 0.4664
6045.00000 0.5266
6046.00000 0.5873
6047.00000 0.6387
6048.00000 0.6877
6049.00000 0.7264
6050.00000 0.7621
6051.00000 0.7866
6052.00000 0.8058
6053.00000 0.8173
6054.00000 0.8269
6055.00000 0.8314
6056.00000 0.8353
6057.00000 0.8365
6058.00000 0.8374
6059.00000 0.8358
6060.00000 0.8344
6061.00000 0.8339
6062.00000 0.8335
6063.00000 0.8328
6064.00000 0.8338
6065.00000 0.8345
6066.00000 0.8348
6067.00000 0.8354
6068.00000 0.8351
6069.00000 0.835
6070.00000 0.8345
6071.00000 0.8355
6072.00000 0.8371
6073.00000 0.8386
6074.00000 0.8396
6075.00000 0.8396
6076.00000 0.8397
6077.00000 0.8389
6078.00000 0.8382
6079.00000 0.839
6080.00000 0.84
6081.00000 0.8407
6082.00000 0.8418
6083.00000 0.8414
6084.00000 0.8411
6085.00000 0.8411
6086.00000 0.8408
6087.00000 0.8408
6088.00000 0.8417
6089.00000 0.8429
6090.00000 0.8438
6091.00000 0.8448
6092.00000 0.8448
6093.00000 0.8445
6094.00000 0.844
6095.00000 0.845
6096.00000 0.8454
6097.00000 0.8462
6098.00000 0.8472
6099.00000 0.848
6100.00000 0.8482
6101.00000 0.8481
6102.00000 0.8489
6103.00000 0.848
6104.00000 0.8487
6105.00000 0.8491
6106.00000 0.8497
6107.00000 0.8505
6108.00000 0.8504
6109.00000 0.8509
6110.00000 0.8512
6111.00000 0.851
6112.00000 0.8505
6113.00000 0.8502
6114.00000 0.8509
6115.00000 0.8514
6116.00000 0.8512
6117.00000 0.8521
6118.00000 0.852
6119.00000 0.8519
6120.00000 0.8513
6121.00000 0.8508
6122.00000 0.8507
6123.00000 0.8508
6124.00000 0.8498
6125.00000 0.8498
6126.00000 0.8498
6127.00000 0.8491
6128.00000 0.8486
6129.00000 0.8479
6130.00000 0.8465
6131.00000 0.8455
6132.00000 0.845
6133.00000 0.8444
6134.00000 0.8438
6135.00000 0.8432
6136.00000 0.8424
6137.00000 0.8415
6138.00000 0.8404
6139.00000 0.8396
6140.00000 0.839
6141.00000 0.8381
6142.00000 0.8387
6143.00000 0.8381
6144.00000 0.8382
6145.00000 0.8389
6146.00000 0.8392
6147.00000 0.8388
6148.00000 0.8396
6149.00000 0.8402
6150.00000 0.8414
6151.00000 0.8426
6152.00000 0.8443
6153.00000 0.8462
6154.00000 0.8469
6155.00000 0.8481
6156.00000 0.8494
6157.00000 0.8505
6158.00000 0.8519
6159.00000 0.854
6160.00000 0.8554
6161.00000 0.8566
6162.00000 0.8571
6163.00000 0.8573
6164.00000 0.8576
6165.00000 0.8578
6166.00000 0.8583
6167.00000 0.8585
6168.00000 0.8587
6169.00000 0.8592
6170.00000 0.8593
6171.00000 0.8578
6172.00000 0.8582
6173.00000 0.8587
6174.00000 0.8583
6175.00000 0.8587
6176.00000 0.8591
6177.00000 0.8586
6178.00000 0.8572
6179.00000 0.8549
6180.00000 0.8495
6181.00000 0.8421
6182.00000 0.8308
6183.00000 0.8154
6184.00000 0.7941
6185.00000 0.7667
6186.00000 0.7314
6187.00000 0.6916
6188.00000 0.6416
6189.00000 0.5874
6190.00000 0.5321
6191.00000 0.4728
6192.00000 0.4171
6193.00000 0.3557
6194.00000 0.3062
6195.00000 0.2575
6196.00000 0.2194
6197.00000 0.182
6198.00000 0.1526
6199.00000 0.1269
6200.00000 0.1063
6201.00000 0.0884
6202.00000 0.0734
6203.00000 0.062
6204.00000 0.0518
6205.00000 0.0436
6206.00000 0.0361
6207.00000 0.0305
6208.00000 0.0257
6209.00000 0.0219
6210.00000 0.0185
6211.00000 0.0159
6212.00000 0.0136
6213.00000 0.0117
6214.00000 0.0101
6215.00000 0.0087
6216.00000 0.0075
6217.00000 0.0065
6218.00000 0.0057
6219.00000 0.0049
6220.00000 0.0043
6221.00000 0.0037
6222.00000 0.0033
6223.00000 0.0029
6224.00000 0.0026
6225.00000 0.0022
6226.00000 0.002
6227.00000 0.0018
6228.00000 0.0016
6229.00000 0.0014
6230.00000 0.0012
6231.00000 0.0011
6232.00000 0.001
6233.00000 0.0009
6234.00000 0.0008
6235.00000 0.0007
6236.00000 0.0006
6237.00000 0.0006
6238.00000 0.0005
6239.00000 0.0005
6240.00000 0.0004
6241.00000 0.0004
6242.00000 0.0003
6243.00000 0.0003
6244.00000 0.0003
6245.00000 0.0003
6246.00000 0.0002
6247.00000 0.0002
6248.00000 0.0002
6249.00000 0.0002
6250.00000 0.0002
6251.00000 0.0001
6252.00000 0.0001
6253.00000 0.0001
6254.00000 0.0001
6255.00000 0.0001
6256.00000 0.0001
6257.00000 0.0001
6258.00000 0.0001
6259.00000 0.0001
6260.00000 0.0001
6261.00000 0.0001
6887.10010 0.0
