# %ECSV 0.9
# ---
# datatype:
# - {name: wavelength, unit: Angstrom, datatype: float32}
# - {name: response, datatype: float32}
# meta: !!omap
# - {band_name: gSDSS}
# - {group_name: JPLUS}
wavelength response
3132.00000 0.0
3480.00000 5e-06
3485.00000 4.9e-06
3490.00000 4.9e-06
3495.00000 5.1e-06
3500.00000 5.4e-06
3505.00000 5.8e-06
3510.00000 6.2e-06
3515.00000 6.6e-06
3520.00000 6.9e-06
3525.00000 7.1e-06
3530.00000 7e-06
3535.00000 6.7e-06
3540.00000 6.4e-06
3545.00000 6.2e-06
3550.00000 6e-06
3555.00000 6e-06
3560.00000 6.2e-06
3565.00000 6.4e-06
3570.00000 6.8e-06
3575.00000 7.3e-06
3580.00000 7.8e-06
3585.00000 8.2e-06
3590.00000 8.5e-06
3595.00000 8.5e-06
3600.00000 8.4e-06
3605.00000 8e-06
3610.00000 7.6e-06
3615.00000 7.3e-06
3620.00000 7.1e-06
3625.00000 7e-06
3630.00000 7e-06
3635.00000 7.1e-06
3640.00000 7.3e-06
3645.00000 7.6e-06
3650.00000 7.8e-06
3655.00000 7.9e-06
3660.00000 7.9e-06
3665.00000 7.7e-06
3670.00000 7.2e-06
3675.00000 6.7e-06
3680.00000 6.2e-06
3685.00000 5.7e-06
3690.00000 5.3e-06
3695.00000 5e-06
3700.00000 4.8e-06
3705.00000 4.6e-06
3710.00000 4.6e-06
3715.00000 4.6e-06
3720.00000 4.7e-06
3725.00000 4.9e-06
3730.00000 5.2e-06
3735.00000 5.5e-06
3740.00000 6e-06
3745.00000 6.4e-06
3750.00000 6.9e-06
3755.00000 7.5e-06
3760.00000 8e-06
3765.00000 8.5e-06
3770.00000 8.9e-06
3775.00000 9.2e-06
3780.00000 9.4e-06
3785.00000 9.6e-06
3790.00000 9.7e-06
3795.00000 9.8e-06
3800.00000 9.9e-06
3805.00000 9.8e-06
3810.00000 9.8e-06
3815.00000 9.7e-06
3820.00000 9.6e-06
3825.00000 1.34e-05
3830.00000 1.87e-05
3835.00000 2.6e-05
3840.00000 3.61e-05
3845.00000 5.02e-05
3850.00000 6.97e-05
3855.00000 0.0001278
3860.00000 0.0002341
3865.00000 0.0004286
3870.00000 0.0007841
3875.00000 0.0016584
3880.00000 0.0035008
3885.00000 0.0073731
3890.00000 0.0154872
3895.00000 0.0199788
3900.00000 0.0257225
3905.00000 0.0341234
3910.00000 0.0451752
3915.00000 0.059695
3920.00000 0.0787567
3925.00000 0.103774
3930.00000 0.136611
3935.00000 0.169942
3940.00000 0.211343
3945.00000 0.244594
3950.00000 0.283096
3955.00000 0.32003
3960.00000 0.361776
3965.00000 0.395515
3970.00000 0.432322
3975.00000 0.465725
3980.00000 0.501514
3985.00000 0.522205
3990.00000 0.543526
3995.00000 0.560172
4000.00000 0.577131
4005.00000 0.588643
4010.00000 0.600278
4015.00000 0.609209
4020.00000 0.618263
4025.00000 0.627478
4030.00000 0.636883
4035.00000 0.643484
4040.00000 0.650238
4045.00000 0.657148
4050.00000 0.664208
4055.00000 0.669288
4060.00000 0.674462
4065.00000 0.679714
4070.00000 0.685025
4075.00000 0.690376
4080.00000 0.695744
4085.00000 0.701107
4090.00000 0.706441
4095.00000 0.71172
4100.00000 0.716922
4105.00000 0.719731
4110.00000 0.722417
4115.00000 0.724976
4120.00000 0.727418
4125.00000 0.729763
4130.00000 0.732039
4135.00000 0.734283
4140.00000 0.736532
4145.00000 0.74012
4150.00000 0.744654
4155.00000 0.74843
4160.00000 0.752317
4165.00000 0.75631
4170.00000 0.760389
4175.00000 0.76452
4180.00000 0.768658
4185.00000 0.772749
4190.00000 0.776741
4195.00000 0.780585
4200.00000 0.784246
4205.00000 0.787137
4210.00000 0.789824
4215.00000 0.792332
4220.00000 0.794708
4225.00000 0.797017
4230.00000 0.799335
4235.00000 0.801745
4240.00000 0.804325
4245.00000 0.807143
4250.00000 0.810247
4255.00000 0.813169
4260.00000 0.816392
4265.00000 0.819883
4270.00000 0.823578
4275.00000 0.82739
4280.00000 0.831214
4285.00000 0.834938
4290.00000 0.838451
4295.00000 0.841657
4300.00000 0.844482
4305.00000 0.846744
4310.00000 0.848582
4315.00000 0.850034
4320.00000 0.851173
4325.00000 0.852107
4330.00000 0.852962
4335.00000 0.853019
4340.00000 0.851985
4345.00000 0.851271
4350.00000 0.85097
4355.00000 0.851226
4360.00000 0.851988
4365.00000 0.8533
4370.00000 0.855062
4375.00000 0.857194
4380.00000 0.859583
4385.00000 0.862099
4390.00000 0.864599
4395.00000 0.866939
4400.00000 0.868988
4405.00000 0.870721
4410.00000 0.871979
4415.00000 0.872727
4420.00000 0.872972
4425.00000 0.87276
4430.00000 0.872176
4435.00000 0.871332
4440.00000 0.87036
4445.00000 0.869398
4450.00000 0.868581
4455.00000 0.867811
4460.00000 0.867402
4465.00000 0.86742
4470.00000 0.867898
4475.00000 0.868831
4480.00000 0.87018
4485.00000 0.871876
4490.00000 0.87382
4495.00000 0.875897
4500.00000 0.87798
4505.00000 0.879948
4510.00000 0.881679
4515.00000 0.883076
4520.00000 0.884067
4525.00000 0.884616
4530.00000 0.884731
4535.00000 0.884444
4540.00000 0.883819
4545.00000 0.882943
4550.00000 0.881922
4555.00000 0.880947
4560.00000 0.880053
4565.00000 0.879345
4570.00000 0.878912
4575.00000 0.878819
4580.00000 0.879107
4585.00000 0.879789
4590.00000 0.880851
4595.00000 0.88225
4600.00000 0.883921
4605.00000 0.885766
4610.00000 0.887703
4615.00000 0.88963
4620.00000 0.891447
4625.00000 0.893064
4630.00000 0.894408
4635.00000 0.895427
4640.00000 0.896094
4645.00000 0.896412
4650.00000 0.896409
4655.00000 0.896145
4660.00000 0.895686
4665.00000 0.895121
4670.00000 0.894542
4675.00000 0.894042
4680.00000 0.893711
4685.00000 0.893621
4690.00000 0.89383
4695.00000 0.894374
4700.00000 0.895267
4705.00000 0.896361
4710.00000 0.89776
4715.00000 0.899412
4720.00000 0.90124
4725.00000 0.90317
4730.00000 0.905118
4735.00000 0.906998
4740.00000 0.908732
4745.00000 0.910249
4750.00000 0.911499
4755.00000 0.912525
4760.00000 0.913239
4765.00000 0.913651
4770.00000 0.913795
4775.00000 0.91372
4780.00000 0.913491
4785.00000 0.913181
4790.00000 0.912869
4795.00000 0.912628
4800.00000 0.912527
4805.00000 0.912321
4810.00000 0.912352
4815.00000 0.912644
4820.00000 0.913198
4825.00000 0.914
4830.00000 0.915014
4835.00000 0.916188
4840.00000 0.917459
4845.00000 0.918752
4850.00000 0.91999
4855.00000 0.921026
4860.00000 0.92186
4865.00000 0.922435
4870.00000 0.922708
4875.00000 0.922656
4880.00000 0.922276
4885.00000 0.921588
4890.00000 0.920631
4895.00000 0.919461
4900.00000 0.918149
4905.00000 0.917082
4910.00000 0.916041
4915.00000 0.9151
4920.00000 0.914334
4925.00000 0.913807
4930.00000 0.913571
4935.00000 0.913661
4940.00000 0.914093
4945.00000 0.914866
4950.00000 0.915956
4955.00000 0.917023
4960.00000 0.918312
4965.00000 0.919753
4970.00000 0.921269
4975.00000 0.922778
4980.00000 0.924195
4985.00000 0.925443
4990.00000 0.926453
4995.00000 0.927171
5000.00000 0.927559
5005.00000 0.927729
5010.00000 0.927554
5015.00000 0.927056
5020.00000 0.926277
5025.00000 0.925273
5030.00000 0.924114
5035.00000 0.922875
5040.00000 0.921638
5045.00000 0.920479
5050.00000 0.91947
5055.00000 0.918505
5060.00000 0.917804
5065.00000 0.9174
5070.00000 0.917314
5075.00000 0.917548
5080.00000 0.918088
5085.00000 0.918908
5090.00000 0.919966
5095.00000 0.921211
5100.00000 0.922578
5105.00000 0.923871
5110.00000 0.925169
5115.00000 0.926416
5120.00000 0.927558
5125.00000 0.928554
5130.00000 0.929372
5135.00000 0.929991
5140.00000 0.930404
5145.00000 0.930613
5150.00000 0.930633
5155.00000 0.930412
5160.00000 0.930052
5165.00000 0.92958
5170.00000 0.929029
5175.00000 0.928424
5180.00000 0.927791
5185.00000 0.927146
5190.00000 0.926499
5195.00000 0.925856
5200.00000 0.925214
5205.00000 0.924459
5210.00000 0.923692
5215.00000 0.922905
5220.00000 0.922092
5225.00000 0.921252
5230.00000 0.920389
5235.00000 0.919519
5240.00000 0.91866
5245.00000 0.917843
5250.00000 0.917102
5255.00000 0.916337
5260.00000 0.915729
5265.00000 0.915315
5270.00000 0.915125
5275.00000 0.915179
5280.00000 0.91548
5285.00000 0.916012
5290.00000 0.916732
5295.00000 0.917589
5300.00000 0.918504
5305.00000 0.918961
5310.00000 0.919273
5315.00000 0.919329
5320.00000 0.919017
5325.00000 0.918244
5330.00000 0.91694
5335.00000 0.915068
5340.00000 0.912636
5345.00000 0.9097
5350.00000 0.906362
5355.00000 0.902928
5360.00000 0.899418
5365.00000 0.896036
5370.00000 0.892992
5375.00000 0.890482
5380.00000 0.888668
5385.00000 0.887662
5390.00000 0.887504
5395.00000 0.888148
5400.00000 0.889452
5405.00000 0.890449
5410.00000 0.891538
5415.00000 0.892334
5420.00000 0.892443
5425.00000 0.891524
5430.00000 0.889376
5435.00000 0.886009
5440.00000 0.881708
5445.00000 0.877049
5450.00000 0.872861
5455.00000 0.870012
5460.00000 0.869431
5465.00000 0.871402
5470.00000 0.87496
5475.00000 0.876695
5480.00000 0.869395
5485.00000 0.841644
5490.00000 0.780854
5495.00000 0.681387
5500.00000 0.552589
5505.00000 0.416578
5510.00000 0.296216
5515.00000 0.202852
5520.00000 0.136495
5525.00000 0.0915862
5530.00000 0.0618378
5535.00000 0.0422158
5540.00000 0.0292026
5545.00000 0.0204818
5550.00000 0.0145626
5555.00000 0.010487
5560.00000 0.0076461
5565.00000 0.0056398
5570.00000 0.0042054
5575.00000 0.0031677
5580.00000 0.0024088
5585.00000 0.0018481
5590.00000 0.0014299
5595.00000 0.0011149
5600.00000 0.0008758
5605.00000 0.0006924
5610.00000 0.0005509
5615.00000 0.0004411
5620.00000 0.0003553
5625.00000 0.0002878
5630.00000 0.0002344
5635.00000 0.0001919
5640.00000 0.0001579
5645.00000 0.0001305
5650.00000 0.0001083
5655.00000 9.03e-05
5660.00000 7.56e-05
5665.00000 6.35e-05
5670.00000 5.36e-05
5675.00000 4.54e-05
5680.00000 3.86e-05
5685.00000 3.29e-05
5690.00000 2.81e-05
5695.00000 2.42e-05
5700.00000 2.08e-05
5705.00000 1.8e-05
5710.00000 1.56e-05
5715.00000 1.35e-05
5720.00000 1.18e-05
5725.00000 1.03e-05
5730.00000 9e-06
5735.00000 7.9e-06
5740.00000 7e-06
5745.00000 6.2e-06
5750.00000 5.4e-06
5755.00000 4.8e-06
5760.00000 4.3e-06
5765.00000 3.8e-06
5770.00000 3.4e-06
5775.00000 3e-06
5780.00000 2.7e-06
5785.00000 2.4e-06
5790.00000 2.2e-06
5795.00000 2e-06
5800.00000 1.8e-06
5805.00000 1.6e-06
5810.00000 1.5e-06
5815.00000 1.3e-06
5820.00000 1.2e-06
5825.00000 1.1e-06
5830.00000 1e-06
5835.00000 9e-07
5840.00000 8e-07
5845.00000 8e-07
5850.00000 7e-07
5855.00000 7e-07
5860.00000 6e-07
6446.00000 0.0
