# %ECSV 0.9
# ---
# datatype:
# - {name: wavelength, unit: Angstrom, datatype: float32}
# - {name: response, datatype: float32}
# meta: !!omap
# - {band_name: ESO1041}
# - {group_name: FORS1}
wavelength response
5350.50000 0.0
5945.00000 0.0045
5950.00000 0.00589
5955.00000 0.00766
5960.00000 0.00984
5965.00000 0.01254
5970.00000 0.01583
5975.00000 0.01979
5980.00000 0.02451
5985.00000 0.03008
5990.00000 0.03653
5995.00000 0.04394
6000.00000 0.05246
6005.00000 0.06203
6010.00000 0.07288
6015.00000 0.08476
6020.00000 0.09797
6025.00000 0.11243
6030.00000 0.1277
6035.00000 0.14388
6040.00000 0.16141
6045.00000 0.17984
6050.00000 0.19954
6055.00000 0.21974
6060.00000 0.24081
6065.00000 0.26257
6070.00000 0.28478
6075.00000 0.30764
6080.00000 0.33062
6085.00000 0.35358
6090.00000 0.37686
6095.00000 0.39954
6100.00000 0.42253
6105.00000 0.44499
6110.00000 0.4667
6115.00000 0.48792
6120.00000 0.50879
6125.00000 0.52855
6130.00000 0.54781
6135.00000 0.56554
6140.00000 0.58314
6145.00000 0.59957
6150.00000 0.61486
6155.00000 0.62921
6160.00000 0.64266
6165.00000 0.65529
6170.00000 0.66714
6175.00000 0.67751
6180.00000 0.68762
6185.00000 0.6969
6190.00000 0.70527
6195.00000 0.713
6200.00000 0.72018
6205.00000 0.7269
6210.00000 0.7332
6215.00000 0.73909
6220.00000 0.74458
6225.00000 0.75016
6230.00000 0.75532
6235.00000 0.76037
6240.00000 0.76554
6245.00000 0.77066
6250.00000 0.77549
6255.00000 0.78058
6260.00000 0.78574
6265.00000 0.79101
6270.00000 0.79652
6275.00000 0.80209
6280.00000 0.80779
6285.00000 0.81378
6290.00000 0.82001
6295.00000 0.82627
6300.00000 0.83253
6305.00000 0.83921
6310.00000 0.84569
6315.00000 0.85242
6320.00000 0.85917
6325.00000 0.86586
6330.00000 0.87264
6335.00000 0.87928
6340.00000 0.88578
6345.00000 0.89214
6350.00000 0.89838
6355.00000 0.90431
6360.00000 0.90998
6365.00000 0.91534
6370.00000 0.92047
6375.00000 0.92502
6380.00000 0.92945
6385.00000 0.93308
6390.00000 0.93678
6395.00000 0.93987
6400.00000 0.94269
6405.00000 0.94502
6410.00000 0.94713
6415.00000 0.94865
6420.00000 0.94974
6425.00000 0.95071
6430.00000 0.95149
6435.00000 0.95184
6440.00000 0.95134
6450.00000 0.95153
6455.00000 0.9513
6460.00000 0.95062
6465.00000 0.95012
6470.00000 0.94955
6475.00000 0.94922
6480.00000 0.9485
6485.00000 0.94795
6490.00000 0.94725
6495.00000 0.94709
6500.00000 0.94678
6510.00000 0.94613
6515.00000 0.94555
6530.00000 0.94524
6540.00000 0.94482
6545.00000 0.94434
6550.00000 0.94404
6555.00000 0.94358
6560.00000 0.9431
6565.00000 0.94231
6570.00000 0.94134
6575.00000 0.94047
6580.00000 0.93902
6585.00000 0.93754
6590.00000 0.93568
6595.00000 0.93366
6600.00000 0.93127
6605.00000 0.92845
6610.00000 0.92553
6615.00000 0.92202
6620.00000 0.91907
6625.00000 0.91489
6630.00000 0.91065
6635.00000 0.90614
6640.00000 0.90144
6645.00000 0.89631
6650.00000 0.89124
6655.00000 0.88528
6660.00000 0.87955
6665.00000 0.87333
6670.00000 0.8669
6675.00000 0.86014
6680.00000 0.85336
6685.00000 0.8466
6690.00000 0.8394
6695.00000 0.8322
6700.00000 0.82466
6705.00000 0.81725
6710.00000 0.8091
6715.00000 0.8011
6720.00000 0.79295
6725.00000 0.78491
6730.00000 0.77651
6735.00000 0.76815
6740.00000 0.75949
6745.00000 0.75117
6750.00000 0.74211
6755.00000 0.73374
6760.00000 0.72468
6765.00000 0.71617
6770.00000 0.70763
6775.00000 0.69879
6780.00000 0.68985
6785.00000 0.68127
6790.00000 0.67272
6795.00000 0.66439
6800.00000 0.65597
6805.00000 0.64776
6810.00000 0.63974
6815.00000 0.63153
6820.00000 0.62375
6825.00000 0.6158
6830.00000 0.60836
6835.00000 0.60101
6840.00000 0.59354
6845.00000 0.58629
6850.00000 0.57916
6855.00000 0.57208
6860.00000 0.5652
6865.00000 0.55822
6870.00000 0.55092
6875.00000 0.54368
6880.00000 0.53615
6885.00000 0.52825
6890.00000 0.52013
6895.00000 0.51188
6900.00000 0.50306
6905.00000 0.49344
6910.00000 0.4832
6915.00000 0.47247
6920.00000 0.46074
6925.00000 0.44832
6930.00000 0.43472
6935.00000 0.42031
6940.00000 0.40559
6945.00000 0.38974
6950.00000 0.37332
6955.00000 0.3566
6960.00000 0.33916
6965.00000 0.3217
6970.00000 0.30398
6975.00000 0.28638
6980.00000 0.26927
6985.00000 0.25223
6990.00000 0.23574
6995.00000 0.21989
7000.00000 0.20442
7005.00000 0.18993
7010.00000 0.17615
7015.00000 0.16325
7020.00000 0.15133
7025.00000 0.14
7030.00000 0.12937
7035.00000 0.11955
7040.00000 0.11048
7045.00000 0.10216
7050.00000 0.09447
7055.00000 0.08737
7060.00000 0.08097
7065.00000 0.07497
7070.00000 0.06952
7075.00000 0.06462
7080.00000 0.06008
7085.00000 0.05593
7090.00000 0.05216
7095.00000 0.04865
7100.00000 0.04547
7105.00000 0.04251
7110.00000 0.03986
7115.00000 0.03747
7120.00000 0.03527
7125.00000 0.03324
7130.00000 0.03133
7135.00000 0.02958
7140.00000 0.028
7145.00000 0.02651
7150.00000 0.02516
7155.00000 0.02389
7160.00000 0.02273
7165.00000 0.02165
7170.00000 0.02068
7175.00000 0.01979
7180.00000 0.01895
7185.00000 0.01816
7190.00000 0.01742
7195.00000 0.01678
7200.00000 0.01616
7205.00000 0.01558
7210.00000 0.01506
7215.00000 0.01458
7220.00000 0.01411
7225.00000 0.0137
7230.00000 0.01332
7235.00000 0.01297
7240.00000 0.01263
7245.00000 0.01233
7250.00000 0.01205
7255.00000 0.01178
7260.00000 0.01155
7265.00000 0.01135
7270.00000 0.01114
7275.00000 0.01097
7280.00000 0.01079
7285.00000 0.01066
7290.00000 0.01052
7295.00000 0.0104
7300.00000 0.0103
7310.00000 0.01011
7320.00000 0.00998
7335.00000 0.00987
7355.00000 0.00977
7390.00000 0.00967
7405.00000 0.00955
7415.00000 0.00941
7425.00000 0.00922
7430.00000 0.00909
7435.00000 0.00895
7440.00000 0.00879
7445.00000 0.00861
7450.00000 0.00843
7455.00000 0.00822
7460.00000 0.008
7465.00000 0.00777
7470.00000 0.00753
7475.00000 0.00728
7480.00000 0.00702
7485.00000 0.00678
7490.00000 0.00649
7495.00000 0.00624
7500.00000 0.00598
7505.00000 0.00571
7510.00000 0.00546
7515.00000 0.00521
7520.00000 0.00495
7525.00000 0.00473
7530.00000 0.0045
7535.00000 0.00428
7540.00000 0.00407
8294.00000 0.0
