# %ECSV 0.9
# ---
# datatype:
# - {name: wavelength, unit: Angstrom, datatype: float32}
# - {name: response, datatype: float32}
# meta: !!omap
# - {band_name: L}
# - {group_name: ISAAC}
wavelength response
30601.80078 0.0
34002.00000 0.004
34014.00000 0.0042
34025.00000 0.0042
34037.00000 0.0042
34048.00000 0.0042
34060.00000 0.0044
34072.00000 0.0046
34083.00000 0.0047
34095.00000 0.0048
34106.00000 0.0048
34118.00000 0.0049
34130.00000 0.0052
34141.00000 0.0055
34153.00000 0.006
34165.00000 0.0067
34176.00000 0.0073
34188.00000 0.008
34200.00000 0.0085
34211.00000 0.0089
34223.00000 0.0093
34235.00000 0.0096
34247.00000 0.0101
34258.00000 0.0105
34270.00000 0.0109
34282.00000 0.0114
34294.00000 0.0122
34305.00000 0.0133
34317.00000 0.0146
34329.00000 0.0161
34341.00000 0.0174
34352.00000 0.0185
34364.00000 0.0195
34376.00000 0.0206
34388.00000 0.022
34400.00000 0.0236
34412.00000 0.0254
34423.00000 0.0275
34435.00000 0.0298
34447.00000 0.0321
34459.00000 0.0344
34471.00000 0.0368
34483.00000 0.0396
34495.00000 0.0427
34507.00000 0.0465
34518.00000 0.0506
34530.00000 0.0549
34542.00000 0.0593
34554.00000 0.064
34566.00000 0.069
34578.00000 0.0746
34590.00000 0.0806
34602.00000 0.0873
34614.00000 0.0945
34626.00000 0.1025
34638.00000 0.1111
34650.00000 0.1204
34662.00000 0.1303
34674.00000 0.1413
34686.00000 0.1534
34698.00000 0.1668
34710.00000 0.1811
34722.00000 0.1963
34734.00000 0.2127
34746.00000 0.2305
34758.00000 0.2501
34771.00000 0.2711
34783.00000 0.2932
34795.00000 0.316
34807.00000 0.34
34819.00000 0.3651
34831.00000 0.3916
34843.00000 0.4191
34855.00000 0.4473
34868.00000 0.4765
34880.00000 0.5069
34892.00000 0.5379
34904.00000 0.5688
34916.00000 0.5991
34928.00000 0.6283
34941.00000 0.6574
34953.00000 0.6863
34965.00000 0.714
34977.00000 0.7397
34990.00000 0.7632
35002.00000 0.7846
35014.00000 0.8049
35026.00000 0.8241
35039.00000 0.8407
35051.00000 0.8546
35063.00000 0.8664
35075.00000 0.877
35088.00000 0.8867
35100.00000 0.895
35112.00000 0.9007
35125.00000 0.9047
35137.00000 0.9079
35149.00000 0.9109
35162.00000 0.9139
35174.00000 0.916
35186.00000 0.9163
35199.00000 0.916
35211.00000 0.9161
35224.00000 0.9162
35236.00000 0.9161
35249.00000 0.9151
35261.00000 0.913
35273.00000 0.9112
35286.00000 0.9102
35298.00000 0.9091
35311.00000 0.9076
35323.00000 0.9056
35336.00000 0.9037
35348.00000 0.9029
35361.00000 0.9028
35373.00000 0.9024
35386.00000 0.9014
35398.00000 0.9007
35411.00000 0.9006
35423.00000 0.9015
35436.00000 0.9028
35448.00000 0.9032
35461.00000 0.9032
35474.00000 0.9036
35486.00000 0.9045
35499.00000 0.9059
35511.00000 0.9068
35524.00000 0.9069
35537.00000 0.9071
35549.00000 0.9084
35562.00000 0.9102
35575.00000 0.9118
35587.00000 0.9126
35600.00000 0.9126
35613.00000 0.9131
35625.00000 0.9149
35638.00000 0.9167
35651.00000 0.918
35663.00000 0.9187
35676.00000 0.9194
35689.00000 0.921
35702.00000 0.9233
35714.00000 0.925
35727.00000 0.9258
35740.00000 0.9263
35753.00000 0.9272
35765.00000 0.929
35778.00000 0.931
35791.00000 0.9318
35804.00000 0.9321
35817.00000 0.9328
35829.00000 0.9342
35842.00000 0.9361
35855.00000 0.9374
35868.00000 0.9374
35881.00000 0.9372
35894.00000 0.9379
35907.00000 0.939
35920.00000 0.9399
35932.00000 0.94
35945.00000 0.9391
35958.00000 0.939
35971.00000 0.9403
35984.00000 0.9419
35997.00000 0.9429
36010.00000 0.9429
36023.00000 0.9423
36036.00000 0.9424
36049.00000 0.9434
36062.00000 0.9439
36075.00000 0.9438
36088.00000 0.9435
36101.00000 0.9435
36114.00000 0.9445
36127.00000 0.9457
36140.00000 0.9459
36153.00000 0.9452
36166.00000 0.9447
36179.00000 0.9447
36193.00000 0.9453
36206.00000 0.9457
36219.00000 0.9451
36232.00000 0.9446
36245.00000 0.945
36258.00000 0.946
36271.00000 0.947
36284.00000 0.947
36298.00000 0.946
36311.00000 0.9454
36324.00000 0.946
36337.00000 0.947
36350.00000 0.9474
36364.00000 0.9471
36377.00000 0.9465
36390.00000 0.9465
36403.00000 0.9473
36417.00000 0.9475
36430.00000 0.9471
36443.00000 0.9465
36456.00000 0.9464
36470.00000 0.9474
36483.00000 0.9487
36496.00000 0.9488
36510.00000 0.9479
36523.00000 0.947
36536.00000 0.9468
36550.00000 0.9474
36563.00000 0.948
36576.00000 0.9476
36590.00000 0.9472
36603.00000 0.9475
36617.00000 0.9481
36630.00000 0.9486
36643.00000 0.9482
36657.00000 0.9469
36670.00000 0.946
36684.00000 0.9461
36697.00000 0.9466
36711.00000 0.9467
36724.00000 0.9462
36738.00000 0.9454
36751.00000 0.9455
36765.00000 0.9461
36778.00000 0.9461
36792.00000 0.9452
36805.00000 0.9439
36819.00000 0.943
36832.00000 0.9432
36846.00000 0.9438
36860.00000 0.9433
36873.00000 0.9421
36887.00000 0.9412
36900.00000 0.9411
36914.00000 0.9418
36928.00000 0.9422
36941.00000 0.9413
36955.00000 0.9402
36969.00000 0.9399
36982.00000 0.94
36996.00000 0.9402
37010.00000 0.9395
37023.00000 0.9378
37037.00000 0.9366
37051.00000 0.9366
37064.00000 0.9371
37078.00000 0.9373
37092.00000 0.9366
37106.00000 0.9354
37120.00000 0.9348
37133.00000 0.9348
37147.00000 0.9344
37161.00000 0.9335
37175.00000 0.9326
37189.00000 0.9321
37202.00000 0.9329
37216.00000 0.9339
37230.00000 0.9338
37244.00000 0.9328
37258.00000 0.932
37272.00000 0.932
37286.00000 0.9329
37300.00000 0.9337
37313.00000 0.9332
37327.00000 0.9325
37341.00000 0.9323
37355.00000 0.9328
37369.00000 0.9336
37383.00000 0.9337
37397.00000 0.933
37411.00000 0.9328
37425.00000 0.9336
37439.00000 0.9347
37453.00000 0.9354
37467.00000 0.9351
37481.00000 0.9344
37495.00000 0.9346
37509.00000 0.9358
37523.00000 0.937
37538.00000 0.9376
37552.00000 0.9376
37566.00000 0.9376
37580.00000 0.9382
37594.00000 0.9392
37608.00000 0.9394
37622.00000 0.9393
37636.00000 0.9396
37651.00000 0.9405
37665.00000 0.9419
37679.00000 0.943
37693.00000 0.9427
37707.00000 0.9423
37722.00000 0.9426
37736.00000 0.9438
37750.00000 0.9452
37764.00000 0.946
37779.00000 0.9457
37793.00000 0.9457
37807.00000 0.9465
37821.00000 0.9476
37836.00000 0.9485
37850.00000 0.9488
37864.00000 0.9488
37879.00000 0.9497
37893.00000 0.9513
37908.00000 0.9523
37922.00000 0.9522
37936.00000 0.9514
37951.00000 0.9507
37965.00000 0.9511
37979.00000 0.9522
37994.00000 0.9527
38008.00000 0.9526
38023.00000 0.9524
38037.00000 0.9528
38052.00000 0.9542
38066.00000 0.9553
38081.00000 0.9554
38095.00000 0.9549
38110.00000 0.9547
38124.00000 0.9549
38139.00000 0.9552
38153.00000 0.9551
38168.00000 0.9543
38183.00000 0.9539
38197.00000 0.9543
38212.00000 0.9548
38226.00000 0.9549
38241.00000 0.9541
38256.00000 0.9528
38270.00000 0.9522
38285.00000 0.9524
38300.00000 0.9524
38314.00000 0.9516
38329.00000 0.9503
38344.00000 0.949
38358.00000 0.9488
38373.00000 0.9491
38388.00000 0.9488
38402.00000 0.9479
38417.00000 0.9466
38432.00000 0.9457
38447.00000 0.9452
38462.00000 0.9448
38476.00000 0.9437
38491.00000 0.9426
38506.00000 0.942
38521.00000 0.9417
38536.00000 0.9414
38551.00000 0.9403
38565.00000 0.9384
38580.00000 0.9369
38595.00000 0.9363
38610.00000 0.9361
38625.00000 0.9356
38640.00000 0.9344
38655.00000 0.9328
38670.00000 0.9319
38685.00000 0.9318
38700.00000 0.9315
38715.00000 0.9308
38730.00000 0.9296
38745.00000 0.9285
38760.00000 0.9282
38775.00000 0.9283
38790.00000 0.9277
38805.00000 0.9265
38820.00000 0.9254
38835.00000 0.9246
38850.00000 0.9245
38865.00000 0.9243
38880.00000 0.9233
38895.00000 0.9222
38911.00000 0.9217
38926.00000 0.9217
38941.00000 0.9219
38956.00000 0.9218
38971.00000 0.921
38986.00000 0.9206
39002.00000 0.9209
39017.00000 0.9214
39032.00000 0.9216
39047.00000 0.9212
39062.00000 0.9205
39078.00000 0.9208
39093.00000 0.9219
39108.00000 0.9229
39124.00000 0.9234
39139.00000 0.9233
39154.00000 0.9233
39170.00000 0.9242
39185.00000 0.9255
39200.00000 0.9263
39216.00000 0.9268
39231.00000 0.9272
39246.00000 0.9279
39262.00000 0.9292
39277.00000 0.9303
39293.00000 0.9306
39308.00000 0.9308
39324.00000 0.9314
39339.00000 0.9325
39355.00000 0.9336
39370.00000 0.9342
39386.00000 0.9341
39401.00000 0.9343
39417.00000 0.9353
39432.00000 0.9366
39448.00000 0.9376
39463.00000 0.938
39479.00000 0.9379
39494.00000 0.9383
39510.00000 0.9393
39526.00000 0.9399
39541.00000 0.9401
39557.00000 0.9399
39573.00000 0.9398
39588.00000 0.9405
39604.00000 0.9414
39620.00000 0.9416
39635.00000 0.941
39651.00000 0.9402
39667.00000 0.9397
39683.00000 0.9398
39698.00000 0.9396
39714.00000 0.9384
39730.00000 0.937
39746.00000 0.9362
39761.00000 0.9358
39777.00000 0.9359
39793.00000 0.9354
39809.00000 0.9341
39825.00000 0.933
39841.00000 0.9325
39857.00000 0.9321
39872.00000 0.9316
39888.00000 0.9304
39904.00000 0.9286
39920.00000 0.9273
39936.00000 0.9268
39952.00000 0.9263
39968.00000 0.9256
39984.00000 0.9246
40000.00000 0.9239
40016.00000 0.9239
40032.00000 0.9243
40048.00000 0.9241
40064.00000 0.9235
40080.00000 0.923
40096.00000 0.923
40112.00000 0.9239
40128.00000 0.9249
40145.00000 0.9253
40161.00000 0.9255
40177.00000 0.9261
40193.00000 0.9273
40209.00000 0.9288
40225.00000 0.93
40241.00000 0.9306
40258.00000 0.9313
40274.00000 0.9322
40290.00000 0.9328
40306.00000 0.9326
40323.00000 0.9311
40339.00000 0.9285
40355.00000 0.9255
40371.00000 0.9222
40388.00000 0.9177
40404.00000 0.9115
40420.00000 0.9032
40437.00000 0.8931
40453.00000 0.8815
40469.00000 0.868
40486.00000 0.8517
40502.00000 0.8327
40519.00000 0.8114
40535.00000 0.7881
40552.00000 0.7627
40568.00000 0.735
40584.00000 0.7046
40601.00000 0.6726
40617.00000 0.6395
40634.00000 0.6058
40650.00000 0.5716
40667.00000 0.537
40683.00000 0.5021
40700.00000 0.4679
40717.00000 0.4348
40733.00000 0.4027
40750.00000 0.3718
40766.00000 0.342
40783.00000 0.3138
40800.00000 0.2874
40816.00000 0.263
40833.00000 0.2403
40850.00000 0.2191
40866.00000 0.1995
40883.00000 0.1816
40900.00000 0.1653
40917.00000 0.1505
40933.00000 0.1369
40950.00000 0.1243
40967.00000 0.113
40984.00000 0.1027
41000.00000 0.0936
41017.00000 0.0852
41034.00000 0.0776
41051.00000 0.0706
41068.00000 0.0643
41085.00000 0.0587
41102.00000 0.0535
41118.00000 0.0489
41135.00000 0.0446
41152.00000 0.0407
41169.00000 0.0374
41186.00000 0.0344
41203.00000 0.0317
41220.00000 0.0291
41237.00000 0.0266
41254.00000 0.0243
41271.00000 0.0222
41288.00000 0.0204
41305.00000 0.0187
41322.00000 0.0173
41339.00000 0.016
41356.00000 0.0148
41374.00000 0.0137
41391.00000 0.0126
41408.00000 0.0116
41425.00000 0.0106
41442.00000 0.0098
41459.00000 0.0092
41477.00000 0.0086
41494.00000 0.0082
41511.00000 0.0077
41528.00000 0.0072
41545.00000 0.0067
41563.00000 0.0063
41580.00000 0.0058
41597.00000 0.0053
41615.00000 0.0048
41632.00000 0.0044
45795.19922 0.0
