# %ECSV 0.9
# ---
# datatype:
# - {name: wavelength, unit: Angstrom, datatype: float32}
# - {name: response, datatype: float32}
# meta: !!omap
# - {band_name: Ks}
# - {group_name: ISAAC}
wavelength response
17632.80078 0.0
19592.00000 0.0042
19596.00000 0.0046
19600.00000 0.0049
19604.00000 0.005
19608.00000 0.005
19612.00000 0.0049
19616.00000 0.0049
19619.00000 0.0047
19623.00000 0.0043
19627.00000 0.0038
19631.00000 0.0033
19635.00000 0.0029
19639.00000 0.0028
19643.00000 0.0031
19646.00000 0.0039
19650.00000 0.0051
19654.00000 0.0062
19658.00000 0.0068
19662.00000 0.0066
19666.00000 0.0057
19670.00000 0.0046
19673.00000 0.0039
19677.00000 0.0036
19681.00000 0.0036
19685.00000 0.0037
19689.00000 0.0038
19693.00000 0.0041
19697.00000 0.0045
19701.00000 0.005
19704.00000 0.0056
19708.00000 0.006
19712.00000 0.0063
19716.00000 0.0065
19720.00000 0.0067
19724.00000 0.0068
19728.00000 0.0068
19732.00000 0.0069
19736.00000 0.0072
19739.00000 0.0077
19743.00000 0.0081
19747.00000 0.0082
19751.00000 0.0078
19755.00000 0.0074
19759.00000 0.0073
19763.00000 0.0077
19767.00000 0.0082
19771.00000 0.0087
19775.00000 0.0087
19778.00000 0.0086
19782.00000 0.0085
19786.00000 0.0086
19790.00000 0.0088
19794.00000 0.0088
19798.00000 0.0088
19802.00000 0.0087
19806.00000 0.0088
19810.00000 0.0093
19814.00000 0.0099
19818.00000 0.0107
19822.00000 0.0116
19826.00000 0.0126
19829.00000 0.0135
19833.00000 0.0143
19837.00000 0.0148
19841.00000 0.0151
19845.00000 0.0154
19849.00000 0.016
19853.00000 0.0166
19857.00000 0.0173
19861.00000 0.018
19865.00000 0.0187
19869.00000 0.0193
19873.00000 0.0198
19877.00000 0.0201
19881.00000 0.0202
19885.00000 0.0202
19889.00000 0.0203
19893.00000 0.0207
19897.00000 0.0213
19900.00000 0.022
19904.00000 0.0227
19908.00000 0.0235
19912.00000 0.0245
19916.00000 0.0256
19920.00000 0.0267
19924.00000 0.0276
19928.00000 0.0285
19932.00000 0.0295
19936.00000 0.0307
19940.00000 0.0319
19944.00000 0.0331
19948.00000 0.034
19952.00000 0.0349
19956.00000 0.0357
19960.00000 0.0369
19964.00000 0.0382
19968.00000 0.0396
19972.00000 0.0411
19976.00000 0.0427
19980.00000 0.0446
19984.00000 0.0468
19988.00000 0.049
19992.00000 0.0509
19996.00000 0.0525
20000.00000 0.054
20004.00000 0.0555
20008.00000 0.0573
20012.00000 0.0592
20016.00000 0.0611
20020.00000 0.063
20024.00000 0.0651
20028.00000 0.0676
20032.00000 0.0704
20036.00000 0.0735
20040.00000 0.0765
20044.00000 0.0795
20048.00000 0.0824
20052.00000 0.0854
20056.00000 0.0885
20060.00000 0.0916
20064.00000 0.0949
20068.00000 0.0984
20072.00000 0.1019
20076.00000 0.1056
20080.00000 0.1094
20084.00000 0.1135
20088.00000 0.1181
20092.00000 0.1233
20096.00000 0.1287
20101.00000 0.134
20105.00000 0.139
20109.00000 0.1437
20113.00000 0.1486
20117.00000 0.1542
20121.00000 0.1604
20125.00000 0.1668
20129.00000 0.1733
20133.00000 0.1796
20137.00000 0.1861
20141.00000 0.1929
20145.00000 0.1999
20149.00000 0.2071
20153.00000 0.2146
20157.00000 0.2226
20161.00000 0.2311
20165.00000 0.2399
20169.00000 0.2486
20173.00000 0.257
20178.00000 0.2653
20182.00000 0.2738
20186.00000 0.283
20190.00000 0.2927
20194.00000 0.3023
20198.00000 0.3118
20202.00000 0.3212
20206.00000 0.3307
20210.00000 0.3408
20214.00000 0.3511
20218.00000 0.3615
20222.00000 0.3721
20227.00000 0.3828
20231.00000 0.3935
20235.00000 0.404
20239.00000 0.4144
20243.00000 0.4248
20247.00000 0.4356
20251.00000 0.4471
20255.00000 0.4586
20259.00000 0.4699
20263.00000 0.4807
20268.00000 0.4912
20272.00000 0.502
20276.00000 0.5131
20280.00000 0.5241
20284.00000 0.5347
20288.00000 0.545
20292.00000 0.5551
20296.00000 0.5652
20300.00000 0.575
20305.00000 0.584
20309.00000 0.5925
20313.00000 0.6009
20317.00000 0.6096
20321.00000 0.6184
20325.00000 0.6269
20329.00000 0.6346
20333.00000 0.642
20338.00000 0.6497
20342.00000 0.6575
20346.00000 0.665
20350.00000 0.6717
20354.00000 0.6775
20358.00000 0.683
20362.00000 0.6887
20367.00000 0.6944
20371.00000 0.6999
20375.00000 0.7049
20379.00000 0.7095
20383.00000 0.7144
20387.00000 0.7197
20392.00000 0.7247
20396.00000 0.7291
20400.00000 0.733
20404.00000 0.7367
20408.00000 0.7406
20412.00000 0.7443
20416.00000 0.7473
20421.00000 0.7497
20425.00000 0.7523
20429.00000 0.755
20433.00000 0.7579
20437.00000 0.7604
20442.00000 0.7618
20446.00000 0.7631
20450.00000 0.7649
20454.00000 0.7673
20458.00000 0.7701
20462.00000 0.7725
20467.00000 0.7742
20471.00000 0.7758
20475.00000 0.7776
20479.00000 0.7794
20483.00000 0.7808
20488.00000 0.7818
20492.00000 0.7827
20496.00000 0.784
20500.00000 0.786
20504.00000 0.7878
20509.00000 0.7891
20513.00000 0.7901
20517.00000 0.791
20521.00000 0.7924
20525.00000 0.7938
20530.00000 0.7945
20534.00000 0.7947
20538.00000 0.795
20542.00000 0.7958
20547.00000 0.7974
20551.00000 0.7991
20555.00000 0.8004
20559.00000 0.8013
20563.00000 0.8025
20568.00000 0.8039
20572.00000 0.8052
20576.00000 0.8063
20580.00000 0.8069
20585.00000 0.8077
20589.00000 0.809
20593.00000 0.8104
20597.00000 0.8114
20602.00000 0.812
20606.00000 0.8123
20610.00000 0.813
20614.00000 0.8141
20619.00000 0.815
20623.00000 0.8155
20627.00000 0.8159
20631.00000 0.8164
20636.00000 0.8176
20640.00000 0.8191
20644.00000 0.8203
20648.00000 0.8213
20653.00000 0.8227
20657.00000 0.8241
20661.00000 0.8255
20665.00000 0.8264
20670.00000 0.8264
20674.00000 0.8265
20678.00000 0.8276
20683.00000 0.8296
20687.00000 0.8319
20691.00000 0.8335
20695.00000 0.8342
20700.00000 0.8348
20704.00000 0.836
20708.00000 0.8375
20713.00000 0.8389
20717.00000 0.8399
20721.00000 0.8406
20725.00000 0.8419
20730.00000 0.8436
20734.00000 0.8449
20738.00000 0.8454
20743.00000 0.8453
20747.00000 0.8452
20751.00000 0.846
20756.00000 0.8475
20760.00000 0.8488
20764.00000 0.8498
20768.00000 0.8506
20773.00000 0.8512
20777.00000 0.8519
20781.00000 0.8524
20786.00000 0.8524
20790.00000 0.8525
20794.00000 0.8531
20799.00000 0.8541
20803.00000 0.8551
20807.00000 0.8554
20812.00000 0.8551
20816.00000 0.8552
20820.00000 0.8561
20825.00000 0.8576
20829.00000 0.8589
20833.00000 0.8597
20838.00000 0.8598
20842.00000 0.8601
20846.00000 0.8609
20851.00000 0.8614
20855.00000 0.8615
20859.00000 0.8613
20864.00000 0.8612
20868.00000 0.8616
20872.00000 0.8623
20877.00000 0.8625
20881.00000 0.8623
20886.00000 0.8621
20890.00000 0.8622
20894.00000 0.8628
20899.00000 0.8632
20903.00000 0.863
20907.00000 0.8625
20912.00000 0.8626
20916.00000 0.8631
20921.00000 0.8641
20925.00000 0.8648
20929.00000 0.8647
20934.00000 0.8645
20938.00000 0.8645
20942.00000 0.8647
20947.00000 0.8648
20951.00000 0.8648
20956.00000 0.8647
20960.00000 0.8651
20964.00000 0.8658
20969.00000 0.8663
20973.00000 0.8662
20978.00000 0.8659
20982.00000 0.8657
20986.00000 0.8659
20991.00000 0.8662
20995.00000 0.8658
21000.00000 0.8649
21004.00000 0.8642
21008.00000 0.8641
21013.00000 0.8649
21017.00000 0.8657
21022.00000 0.8659
21026.00000 0.8659
21030.00000 0.866
21035.00000 0.8663
21039.00000 0.8666
21044.00000 0.8663
21048.00000 0.8653
21053.00000 0.8645
21057.00000 0.8646
21061.00000 0.865
21066.00000 0.8652
21070.00000 0.8648
21075.00000 0.8638
21079.00000 0.8633
21084.00000 0.8636
21088.00000 0.8638
21093.00000 0.8637
21097.00000 0.863
21101.00000 0.8623
21106.00000 0.8624
21110.00000 0.8631
21115.00000 0.8636
21119.00000 0.8636
21124.00000 0.8631
21128.00000 0.8626
21133.00000 0.8627
21137.00000 0.863
21142.00000 0.863
21146.00000 0.8629
21151.00000 0.8629
21155.00000 0.863
21160.00000 0.8631
21164.00000 0.863
21169.00000 0.8624
21173.00000 0.8619
21177.00000 0.8619
21182.00000 0.8621
21186.00000 0.8621
21191.00000 0.8619
21195.00000 0.8613
21200.00000 0.8612
21204.00000 0.8615
21209.00000 0.8617
21213.00000 0.8616
21218.00000 0.8613
21222.00000 0.861
21227.00000 0.8613
21231.00000 0.8619
21236.00000 0.8622
21240.00000 0.8622
21245.00000 0.8623
21249.00000 0.8626
21254.00000 0.8634
21259.00000 0.8639
21263.00000 0.8638
21268.00000 0.8632
21272.00000 0.8626
21277.00000 0.8623
21281.00000 0.8623
21286.00000 0.8622
21290.00000 0.862
21295.00000 0.8623
21299.00000 0.8631
21304.00000 0.8639
21308.00000 0.8645
21313.00000 0.8646
21317.00000 0.8643
21322.00000 0.8645
21327.00000 0.8651
21331.00000 0.8655
21336.00000 0.8655
21340.00000 0.8651
21345.00000 0.8648
21349.00000 0.8653
21354.00000 0.8662
21358.00000 0.8669
21363.00000 0.8673
21368.00000 0.8675
21372.00000 0.868
21377.00000 0.8689
21381.00000 0.8698
21386.00000 0.87
21390.00000 0.87
21395.00000 0.8702
21400.00000 0.8707
21404.00000 0.8715
21409.00000 0.8719
21413.00000 0.8718
21418.00000 0.8718
21422.00000 0.8719
21427.00000 0.872
21432.00000 0.8717
21436.00000 0.8708
21441.00000 0.8698
21445.00000 0.8696
21450.00000 0.8704
21455.00000 0.8716
21459.00000 0.8728
21464.00000 0.8734
21468.00000 0.8738
21473.00000 0.8744
21478.00000 0.8751
21482.00000 0.8754
21487.00000 0.8753
21492.00000 0.8752
21496.00000 0.8753
21501.00000 0.876
21505.00000 0.8767
21510.00000 0.8769
21515.00000 0.8768
21519.00000 0.8769
21524.00000 0.8774
21529.00000 0.8781
21533.00000 0.8786
21538.00000 0.8786
21542.00000 0.8787
21547.00000 0.8792
21552.00000 0.8797
21556.00000 0.8801
21561.00000 0.8801
21566.00000 0.8798
21570.00000 0.8801
21575.00000 0.8809
21580.00000 0.8815
21584.00000 0.8817
21589.00000 0.8814
21594.00000 0.8809
21598.00000 0.8808
21603.00000 0.8811
21608.00000 0.8811
21612.00000 0.881
21617.00000 0.8808
21622.00000 0.8807
21626.00000 0.8812
21631.00000 0.8816
21636.00000 0.8814
21640.00000 0.881
21645.00000 0.8807
21650.00000 0.8806
21654.00000 0.8808
21659.00000 0.8808
21664.00000 0.8806
21668.00000 0.8806
21673.00000 0.881
21678.00000 0.8814
21683.00000 0.8816
21687.00000 0.8812
21692.00000 0.8805
21697.00000 0.8801
21701.00000 0.8801
21706.00000 0.88
21711.00000 0.8795
21716.00000 0.8788
21720.00000 0.8782
21725.00000 0.8784
21730.00000 0.879
21734.00000 0.8791
21739.00000 0.8786
21744.00000 0.8777
21749.00000 0.8768
21753.00000 0.8765
21758.00000 0.8764
21763.00000 0.8761
21768.00000 0.8758
21772.00000 0.8757
21777.00000 0.8758
21782.00000 0.8758
21786.00000 0.8754
21791.00000 0.8744
21796.00000 0.8736
21801.00000 0.8733
21805.00000 0.8734
21810.00000 0.8736
21815.00000 0.8735
21820.00000 0.8732
21825.00000 0.8731
21829.00000 0.8731
21834.00000 0.8727
21839.00000 0.8718
21844.00000 0.8705
21848.00000 0.8693
21853.00000 0.8688
21858.00000 0.8688
21863.00000 0.8684
21867.00000 0.8676
21872.00000 0.8667
21877.00000 0.866
21882.00000 0.8657
21887.00000 0.8653
21891.00000 0.8644
21896.00000 0.8632
21901.00000 0.8625
21906.00000 0.8621
21911.00000 0.8621
21915.00000 0.8617
21920.00000 0.8608
21925.00000 0.86
21930.00000 0.8595
21935.00000 0.8594
21939.00000 0.8593
21944.00000 0.8588
21949.00000 0.8579
21954.00000 0.8572
21959.00000 0.8568
21964.00000 0.8561
21968.00000 0.855
21973.00000 0.8537
21978.00000 0.8526
21983.00000 0.8524
21988.00000 0.8529
21993.00000 0.8533
21997.00000 0.8533
22002.00000 0.8533
22007.00000 0.8536
22012.00000 0.8542
22017.00000 0.8547
22022.00000 0.8544
22026.00000 0.8535
22031.00000 0.8526
22036.00000 0.852
22041.00000 0.8518
22046.00000 0.8515
22051.00000 0.8508
22056.00000 0.8503
22060.00000 0.8503
22065.00000 0.8506
22070.00000 0.8508
22075.00000 0.8506
22080.00000 0.8502
22085.00000 0.8501
22090.00000 0.8504
22095.00000 0.8505
22099.00000 0.8502
22104.00000 0.8496
22109.00000 0.8492
22114.00000 0.8499
22119.00000 0.8512
22124.00000 0.8523
22129.00000 0.8529
22134.00000 0.8528
22139.00000 0.8527
22143.00000 0.853
22148.00000 0.8535
22153.00000 0.8538
22158.00000 0.8543
22163.00000 0.855
22168.00000 0.8561
22173.00000 0.8571
22178.00000 0.8576
22183.00000 0.8573
22188.00000 0.8571
22193.00000 0.8574
22198.00000 0.8581
22202.00000 0.8589
22207.00000 0.8591
22212.00000 0.859
22217.00000 0.8594
22222.00000 0.8605
22227.00000 0.8617
22232.00000 0.8626
22237.00000 0.8628
22242.00000 0.8628
22247.00000 0.8634
22252.00000 0.8645
22257.00000 0.8655
22262.00000 0.8664
22267.00000 0.8671
22272.00000 0.8679
22277.00000 0.8691
22282.00000 0.8701
22287.00000 0.8704
22292.00000 0.8703
22297.00000 0.8704
22302.00000 0.8707
22306.00000 0.8713
22311.00000 0.8717
22316.00000 0.8714
22321.00000 0.8714
22326.00000 0.872
22331.00000 0.873
22336.00000 0.8739
22341.00000 0.8741
22346.00000 0.8739
22351.00000 0.874
22356.00000 0.8747
22361.00000 0.8751
22366.00000 0.8748
22371.00000 0.8736
22376.00000 0.8722
22381.00000 0.8717
22386.00000 0.8721
22391.00000 0.8725
22396.00000 0.8727
22401.00000 0.8726
22406.00000 0.8725
22411.00000 0.8729
22416.00000 0.8731
22422.00000 0.8725
22427.00000 0.8715
22432.00000 0.8706
22437.00000 0.8703
22442.00000 0.8705
22447.00000 0.8705
22452.00000 0.8696
22457.00000 0.8687
22462.00000 0.8683
22467.00000 0.8684
22472.00000 0.8685
22477.00000 0.868
22482.00000 0.8668
22487.00000 0.8661
22492.00000 0.8662
22497.00000 0.8666
22502.00000 0.8669
22507.00000 0.8665
22512.00000 0.8657
22517.00000 0.8655
22523.00000 0.8657
22528.00000 0.8657
22533.00000 0.8652
22538.00000 0.8641
22543.00000 0.8632
22548.00000 0.8632
22553.00000 0.8635
22558.00000 0.8635
22563.00000 0.863
22568.00000 0.8623
22573.00000 0.8619
22578.00000 0.8621
22584.00000 0.8624
22589.00000 0.8622
22594.00000 0.8621
22599.00000 0.8624
22604.00000 0.8631
22609.00000 0.8639
22614.00000 0.8641
22619.00000 0.8636
22624.00000 0.8634
22630.00000 0.8635
22635.00000 0.8639
22640.00000 0.8643
22645.00000 0.8643
22650.00000 0.8643
22655.00000 0.865
22660.00000 0.8662
22665.00000 0.8672
22671.00000 0.8678
22676.00000 0.8682
22681.00000 0.8687
22686.00000 0.8698
22691.00000 0.8708
22696.00000 0.8708
22701.00000 0.8704
22707.00000 0.87
22712.00000 0.8702
22717.00000 0.8712
22722.00000 0.8718
22727.00000 0.8716
22732.00000 0.8711
22738.00000 0.8708
22743.00000 0.8706
22748.00000 0.8703
22753.00000 0.869
22758.00000 0.8667
22763.00000 0.8645
22769.00000 0.8628
22774.00000 0.8614
22779.00000 0.8598
22784.00000 0.8571
22789.00000 0.8539
22795.00000 0.8508
22800.00000 0.8478
22805.00000 0.8441
22810.00000 0.8395
22815.00000 0.8337
22821.00000 0.8276
22826.00000 0.8218
22831.00000 0.8159
22836.00000 0.8092
22841.00000 0.8015
22847.00000 0.793
22852.00000 0.7842
22857.00000 0.7756
22862.00000 0.7666
22868.00000 0.7568
22873.00000 0.7465
22878.00000 0.7359
22883.00000 0.725
22889.00000 0.7137
22894.00000 0.7016
22899.00000 0.6887
22904.00000 0.6757
22910.00000 0.663
22915.00000 0.6502
22920.00000 0.6371
22925.00000 0.6235
22931.00000 0.6094
22936.00000 0.5956
22941.00000 0.5817
22946.00000 0.5675
22952.00000 0.553
22957.00000 0.5385
22962.00000 0.5243
22967.00000 0.5107
22973.00000 0.4973
22978.00000 0.4836
22983.00000 0.4696
22989.00000 0.4557
22994.00000 0.4422
22999.00000 0.4294
23004.00000 0.4167
23010.00000 0.4035
23015.00000 0.3901
23020.00000 0.3769
23026.00000 0.3641
23031.00000 0.3521
23036.00000 0.3407
23041.00000 0.3295
23047.00000 0.3188
23052.00000 0.3083
23057.00000 0.2978
23063.00000 0.2875
23068.00000 0.2772
23073.00000 0.2671
23079.00000 0.2575
23084.00000 0.2483
23089.00000 0.2393
23095.00000 0.2305
23100.00000 0.2219
23105.00000 0.2137
23111.00000 0.2059
23116.00000 0.1984
23121.00000 0.1912
23127.00000 0.1841
23132.00000 0.1773
23137.00000 0.1706
23143.00000 0.1642
23148.00000 0.1578
23154.00000 0.1514
23159.00000 0.1451
23164.00000 0.1389
23170.00000 0.133
23175.00000 0.1276
23180.00000 0.1226
23186.00000 0.118
23191.00000 0.1136
23196.00000 0.1093
23202.00000 0.105
23207.00000 0.1009
23213.00000 0.0969
23218.00000 0.0932
23223.00000 0.0896
23229.00000 0.0859
23234.00000 0.0824
23240.00000 0.079
23245.00000 0.0761
23250.00000 0.0734
23256.00000 0.0706
23261.00000 0.0676
23267.00000 0.0644
23272.00000 0.0612
23277.00000 0.0583
23283.00000 0.0557
23288.00000 0.0533
23294.00000 0.0509
23299.00000 0.0485
23305.00000 0.0463
23310.00000 0.0445
23315.00000 0.0429
23321.00000 0.0415
23326.00000 0.0401
23332.00000 0.0387
23337.00000 0.0372
23343.00000 0.0356
23348.00000 0.034
23354.00000 0.0322
23359.00000 0.0304
23364.00000 0.0288
23370.00000 0.0275
23375.00000 0.0265
23381.00000 0.0255
23386.00000 0.0244
23392.00000 0.0233
23397.00000 0.0222
23403.00000 0.0211
23408.00000 0.0201
23414.00000 0.0191
23419.00000 0.0183
23425.00000 0.0178
23430.00000 0.0174
23436.00000 0.0171
23441.00000 0.0167
23447.00000 0.0158
23452.00000 0.0149
23458.00000 0.014
23463.00000 0.0134
23469.00000 0.0131
23474.00000 0.0128
23480.00000 0.0124
23485.00000 0.0117
23491.00000 0.011
23496.00000 0.0104
23502.00000 0.0099
23507.00000 0.0095
23513.00000 0.0092
23518.00000 0.0088
23524.00000 0.0086
23529.00000 0.0085
23535.00000 0.0085
23540.00000 0.0084
23546.00000 0.0081
23552.00000 0.0075
23557.00000 0.0068
23563.00000 0.0061
23568.00000 0.0056
23574.00000 0.0053
23579.00000 0.0051
23585.00000 0.0052
23590.00000 0.0052
23596.00000 0.0054
23602.00000 0.0054
23607.00000 0.0054
23613.00000 0.0052
23618.00000 0.0049
23624.00000 0.0046
23629.00000 0.0042
25991.90039 0.0
