# %ECSV 0.9
# ---
# datatype:
# - {name: wavelength, unit: Angstrom, datatype: float32}
# - {name: response, datatype: float32}
# meta: !!omap
# - {band_name: z}
# - {group_name: VIMOS}
wavelength response
7303.35596 0.0
8114.83984 0.00106
8121.95996 0.001247
8129.06982 0.001435
8136.18018 0.001625
8143.29004 0.001915
8150.39990 0.001952
8157.50977 0.002248
8164.62012 0.002374
8171.74023 0.002678
8178.85010 0.003171
8185.95996 0.003608
8193.07031 0.004311
8200.17969 0.004616
8207.29004 0.00487
8214.41016 0.005208
8221.51953 0.00611
8228.62988 0.007115
8235.74023 0.008179
8242.84961 0.009261
8249.95996 0.009939
8257.07031 0.010461
8264.19043 0.011457
8271.29980 0.012516
8278.41016 0.014098
8285.51953 0.016136
8292.62988 0.018258
8299.74023 0.019998
8306.84961 0.02148
8313.96973 0.023031
8321.08008 0.024094
8328.19043 0.025805
8335.29980 0.028402
8342.41016 0.031439
8349.51953 0.034414
8356.63965 0.037254
8363.75000 0.039081
8370.86035 0.040697
8377.96973 0.042408
8385.08008 0.044854
8392.19043 0.046689
8399.29980 0.048647
8406.41992 0.051868
8413.53027 0.056364
8420.63965 0.059791
8427.75000 0.062598
8434.86035 0.062554
8441.96973 0.061993
8449.08984 0.062628
8456.20020 0.065953
8463.30957 0.070902
8470.41992 0.076312
8477.53027 0.078931
8484.63965 0.079105
8491.75000 0.078424
8498.87012 0.077303
8505.98047 0.076951
8513.08984 0.077342
8520.20020 0.082111
8527.30957 0.086956
8534.41992 0.092796
8541.53027 0.093168
8548.65039 0.089266
8555.75977 0.086845
8562.87012 0.08672
8569.98047 0.087001
8577.08984 0.089288
8584.20020 0.094526
8591.32031 0.098755
8598.42969 0.104045
8605.54004 0.106584
8612.65039 0.104972
8619.75977 0.101013
8626.87012 0.096011
8633.98047 0.092467
8641.09961 0.091595
8648.20996 0.094421
8655.32031 0.098356
8662.42969 0.103687
8669.54004 0.108728
8676.65039 0.110329
8683.76953 0.107228
8690.87988 0.100438
8697.99023 0.094658
8705.09961 0.09339
8712.20996 0.095205
8719.32031 0.097225
8726.42969 0.102693
8733.54980 0.107772
8740.66016 0.109458
8747.76953 0.107245
8754.87988 0.099599
8761.99023 0.093484
8769.09961 0.090244
8776.20996 0.093604
8783.33008 0.099785
8790.44043 0.10626
8797.54980 0.110196
8804.66016 0.110066
8811.76953 0.106069
8818.87988 0.100365
8826.00000 0.095026
8833.11035 0.093605
8840.21973 0.09507
8847.33008 0.099911
8854.44043 0.10266
8861.54980 0.102874
8868.66016 0.099657
8875.78027 0.098014
8882.88965 0.096648
8890.00000 0.096982
8897.11035 0.0987
8904.21973 0.101089
8911.33008 0.103049
8918.45020 0.10381
8925.55957 0.099889
8932.66992 0.09347
8939.78027 0.087872
8946.88965 0.085718
8954.00000 0.086917
8961.11035 0.091689
8968.23047 0.096968
8975.33984 0.101326
8982.45020 0.10114
8989.55957 0.098097
8996.66992 0.093451
9003.78027 0.08755
9010.90039 0.083454
9018.00977 0.084543
9025.12012 0.088706
9032.23047 0.091918
9039.33984 0.092865
9046.45020 0.093004
9053.55957 0.09169
9060.67969 0.089173
9067.79004 0.086975
9074.90039 0.084075
9082.00977 0.084915
9089.12012 0.086907
9096.23047 0.088375
9103.33984 0.087228
9110.45996 0.086029
9117.57031 0.084769
9124.67969 0.083763
9131.79004 0.083112
9138.90039 0.0818
9146.00977 0.08244
9153.12988 0.083463
9160.24023 0.084906
9167.34961 0.085197
9174.45996 0.084526
9181.57031 0.084791
9188.67969 0.080652
9195.79004 0.076606
9202.91016 0.07335
9210.01953 0.072503
9217.12988 0.074035
9224.24023 0.07792
9231.34961 0.080174
9238.45996 0.081077
9245.58008 0.079133
9252.69043 0.076087
9259.79980 0.072194
9266.91016 0.07042
9274.01953 0.071065
9281.12988 0.074159
9288.24023 0.076237
9295.36035 0.076039
9302.46973 0.0746
9309.58008 0.071561
9316.69043 0.066969
9323.79980 0.06266
9330.91016 0.06029
9338.01953 0.062758
9345.13965 0.067007
9352.25000 0.06998
9359.36035 0.070468
9366.46973 0.071562
9373.58008 0.07259
9380.69043 0.071873
9387.80957 0.067365
9394.91992 0.06182
9402.03027 0.057725
9409.13965 0.057685
9416.25000 0.05915
9423.36035 0.061319
9430.46973 0.064126
9437.58984 0.065585
9444.70020 0.064527
9451.80957 0.060982
9458.91992 0.055963
9466.03027 0.052718
9473.13965 0.051604
9480.25977 0.052927
9487.37012 0.05547
9494.48047 0.057194
9501.58984 0.058447
9508.70020 0.059708
9515.80957 0.058285
9522.91992 0.052155
9530.04004 0.045975
9537.15039 0.042304
9544.25977 0.043042
9551.37012 0.047949
9558.48047 0.052916
9565.58984 0.055789
9572.70020 0.056855
9579.82031 0.054713
9586.92969 0.050894
9594.04004 0.045048
9601.15039 0.039276
9608.25977 0.037084
9615.37012 0.037972
9622.49023 0.04186
9629.59961 0.046498
9636.70996 0.050637
9643.82031 0.051231
9650.92969 0.048459
9658.04004 0.043997
9665.15039 0.038428
9672.26953 0.033843
9679.37988 0.031901
9686.49023 0.032899
9693.59961 0.035546
9700.70996 0.037795
9707.82031 0.03961
9714.94043 0.040918
9722.04980 0.041213
9729.16016 0.038886
9736.26953 0.0356
9743.37988 0.033417
9750.49023 0.032317
9757.59961 0.032146
9764.71973 0.032435
9771.83008 0.032727
9778.94043 0.033092
9786.04980 0.032585
9793.16016 0.032761
9800.26953 0.032853
9807.37988 0.031381
9814.50000 0.030767
9821.61035 0.030074
9828.71973 0.028907
9835.83008 0.027968
9842.94043 0.02663
9850.04980 0.026014
9857.16992 0.026291
9864.28027 0.026062
9871.38965 0.025706
9878.50000 0.025056
9885.61035 0.024563
9892.71973 0.024229
9899.83008 0.02412
9906.95020 0.02445
9914.05957 0.024273
9921.16992 0.023441
9928.28027 0.022719
9935.38965 0.021504
9942.50000 0.020301
9949.62012 0.019611
9956.73047 0.019694
9963.83984 0.019314
9970.95020 0.018992
9978.05957 0.018866
9985.16992 0.019266
9992.28027 0.019512
9999.40039 0.019101
10006.50000 0.018553
10013.59961 0.017441
10020.70020 0.016852
10027.79980 0.015474
10035.00000 0.01405
10042.09961 0.013817
10049.20020 0.013187
10056.29980 0.013311
10063.40039 0.013211
10070.50000 0.013462
10077.59961 0.013324
10084.70020 0.01331
10091.79980 0.013364
10099.00000 0.012705
11108.90039 0.0
