# %ECSV 0.9
# ---
# datatype:
# - {name: wavelength, unit: Angstrom, datatype: float32}
# - {name: response, datatype: float32}
# meta: !!omap
# - {band_name: B87}
# - {group_name: VISIR}
wavelength response
71100.00000 0.0
79000.00000 0.02
79100.00000 0.021
79200.00000 0.021
79300.00000 0.022
79400.00000 0.023
79500.00000 0.024
79600.00000 0.026
79700.00000 0.028
79790.00000 0.03
79900.00000 0.033
80000.00000 0.035
80090.00000 0.039
80200.00000 0.042
80300.00000 0.046
80410.00000 0.051
80500.00000 0.056
80600.00000 0.061
80700.00000 0.067
80800.00000 0.074
80900.00000 0.08
81000.00000 0.088
81100.00000 0.097
81200.00000 0.106
81300.00000 0.116
81400.00000 0.126
81490.00000 0.136
81600.00000 0.147
81700.00000 0.157
81790.00000 0.169
81900.00000 0.18
82000.00000 0.192
82110.00000 0.204
82200.00000 0.217
82300.00000 0.229
82400.00000 0.242
82500.00000 0.255
82600.00000 0.268
82700.00000 0.28
82800.00000 0.294
82900.00000 0.307
83000.00000 0.321
83100.00000 0.335
83190.00000 0.348
83300.00000 0.362
83400.00000 0.376
83510.00000 0.389
83600.00000 0.403
83700.00000 0.416
83810.00000 0.428
83900.00000 0.441
84000.00000 0.454
84100.00000 0.467
84200.00000 0.479
84300.00000 0.492
84400.00000 0.504
84500.00000 0.517
84600.00000 0.529
84700.00000 0.542
84800.00000 0.555
84890.00000 0.568
85000.00000 0.58
85100.00000 0.592
85210.00000 0.604
85300.00000 0.616
85400.00000 0.629
85500.00000 0.641
85600.00000 0.653
85700.00000 0.664
85800.00000 0.675
85900.00000 0.686
86000.00000 0.697
86100.00000 0.707
86200.00000 0.719
86290.00000 0.73
86400.00000 0.741
86500.00000 0.752
86590.00000 0.761
86700.00000 0.764
86800.00000 0.765
86910.00000 0.764
87000.00000 0.762
87100.00000 0.762
87200.00000 0.765
87300.00000 0.774
87400.00000 0.784
87500.00000 0.796
87600.00000 0.808
87700.00000 0.82
87800.00000 0.832
87900.00000 0.844
87990.00000 0.855
88100.00000 0.865
88200.00000 0.876
88310.00000 0.884
88400.00000 0.893
88500.00000 0.902
88610.00000 0.912
88700.00000 0.926
88800.00000 0.942
88900.00000 0.957
89000.00000 0.973
89100.00000 0.985
89200.00000 0.993
89300.00000 0.996
89400.00000 0.997
89500.00000 0.996
89600.00000 0.992
89690.00000 0.989
89800.00000 0.985
89900.00000 0.98
90010.00000 0.976
90100.00000 0.971
90200.00000 0.965
90310.00000 0.96
90400.00000 0.955
90500.00000 0.949
90600.00000 0.944
90700.00000 0.938
90800.00000 0.932
90900.00000 0.926
91000.00000 0.92
91100.00000 0.913
91200.00000 0.907
91300.00000 0.902
91390.00000 0.896
91500.00000 0.89
91600.00000 0.885
91710.00000 0.88
91800.00000 0.875
91900.00000 0.87
92000.00000 0.866
92100.00000 0.86
92200.00000 0.855
92300.00000 0.849
92400.00000 0.842
92500.00000 0.833
92600.00000 0.823
92700.00000 0.812
92790.00000 0.798
92900.00000 0.783
93000.00000 0.765
93090.00000 0.745
93200.00000 0.722
93300.00000 0.697
93410.00000 0.671
93500.00000 0.643
93600.00000 0.613
93700.00000 0.582
93800.00000 0.551
93900.00000 0.517
94000.00000 0.485
94100.00000 0.451
94200.00000 0.418
94300.00000 0.384
94400.00000 0.352
94490.00000 0.319
94600.00000 0.289
94700.00000 0.26
94810.00000 0.234
94900.00000 0.21
95000.00000 0.188
95110.00000 0.169
95200.00000 0.151
95300.00000 0.136
95400.00000 0.122
95500.00000 0.11
95600.00000 0.099
95700.00000 0.09
95800.00000 0.081
95900.00000 0.073
96000.00000 0.067
96100.00000 0.062
96190.00000 0.056
96300.00000 0.052
96400.00000 0.048
96510.00000 0.044
96600.00000 0.041
96700.00000 0.038
96800.00000 0.036
96900.00000 0.034
97000.00000 0.031
97100.00000 0.029
97200.00000 0.027
97300.00000 0.025
97400.00000 0.024
97500.00000 0.023
97600.00000 0.021
97700.00000 0.02
97800.00000 0.018
97890.00000 0.017
98000.00000 0.016
107800.00000 0.0
