# %ECSV 0.9
# ---
# datatype:
# - {name: wavelength, unit: Angstrom, datatype: float32}
# - {name: response, datatype: float32}
# meta: !!omap
# - {band_name: H}
# - {group_name: VISTA}
wavelength response
12861.00000 0.0
14290.00000 0.000558
14300.00000 0.000821
14310.00000 0.001479
14320.00000 0.000924
14330.00000 0.002295
14340.00000 0.001479
14350.00000 0.001562
14360.00000 0.001779
14370.00000 0.002277
14380.00000 0.002401
14390.00000 0.003021
14400.00000 0.003063
14410.00000 0.002793
14420.00000 0.002633
14430.00000 0.002436
14440.00000 0.002887
14450.00000 0.003666
14460.00000 0.004107
14470.00000 0.004528
14480.00000 0.004152
14490.00000 0.002479
14500.00000 0.004827
14510.00000 0.005627
14520.00000 0.005117
14530.00000 0.004975
14540.00000 0.003983
14550.00000 0.006724
14560.00000 0.00678
14570.00000 0.007285
14580.00000 0.007516
14590.00000 0.008875
14600.00000 0.009238
14610.00000 0.010095
14620.00000 0.009817
14630.00000 0.009654
14640.00000 0.010953
14650.00000 0.01266
14660.00000 0.014414
14670.00000 0.014773
14680.00000 0.016973
14690.00000 0.017678
14700.00000 0.020131
14710.00000 0.022561
14720.00000 0.023878
14730.00000 0.026577
14740.00000 0.030127
14750.00000 0.032411
14760.00000 0.035526
14770.00000 0.039811
14780.00000 0.043953
14790.00000 0.049686
14800.00000 0.055056
14810.00000 0.061373
14820.00000 0.069916
14830.00000 0.0784
14840.00000 0.087439
14850.00000 0.099695
14860.00000 0.10968
14870.00000 0.12463
14880.00000 0.14109
14890.00000 0.15799
14900.00000 0.17716
14910.00000 0.19896
14920.00000 0.22416
14930.00000 0.25005
14940.00000 0.27944
14950.00000 0.31005
14960.00000 0.34452
14970.00000 0.38114
14980.00000 0.42283
14990.00000 0.46176
15000.00000 0.5009
15010.00000 0.54648
15020.00000 0.5862
15030.00000 0.62634
15040.00000 0.67102
15050.00000 0.70873
15060.00000 0.74088
15070.00000 0.77872
15080.00000 0.80688
15090.00000 0.82564
15100.00000 0.85481
15110.00000 0.87195
15120.00000 0.88138
15130.00000 0.89587
15140.00000 0.90441
15150.00000 0.90197
15160.00000 0.90561
15170.00000 0.90827
15180.00000 0.90047
15190.00000 0.89721
15200.00000 0.89753
15210.00000 0.8858
15220.00000 0.87951
15230.00000 0.87856
15240.00000 0.86825
15250.00000 0.86066
15260.00000 0.8619
15270.00000 0.85249
15280.00000 0.84634
15290.00000 0.84821
15300.00000 0.84104
15310.00000 0.83732
15320.00000 0.84269
15330.00000 0.83686
15340.00000 0.8354
15350.00000 0.84153
15360.00000 0.83694
15370.00000 0.83948
15380.00000 0.84631
15390.00000 0.84246
15400.00000 0.84904
15410.00000 0.8555
15420.00000 0.85374
15430.00000 0.86279
15440.00000 0.86696
15450.00000 0.86664
15460.00000 0.87765
15470.00000 0.87986
15480.00000 0.88115
15490.00000 0.89269
15500.00000 0.89263
15510.00000 0.89503
15520.00000 0.90527
15530.00000 0.90294
15540.00000 0.90764
15550.00000 0.91534
15560.00000 0.91153
15570.00000 0.91706
15580.00000 0.92232
15590.00000 0.91603
15600.00000 0.92402
15610.00000 0.92638
15620.00000 0.92038
15630.00000 0.92723
15640.00000 0.92414
15650.00000 0.92224
15660.00000 0.92844
15670.00000 0.92242
15680.00000 0.92308
15690.00000 0.92687
15700.00000 0.92006
15710.00000 0.92441
15720.00000 0.92356
15730.00000 0.91912
15740.00000 0.92483
15750.00000 0.92018
15760.00000 0.91942
15770.00000 0.92329
15780.00000 0.91796
15790.00000 0.92167
15800.00000 0.92039
15810.00000 0.91845
15820.00000 0.92367
15830.00000 0.918
15840.00000 0.92097
15850.00000 0.92131
15860.00000 0.91744
15870.00000 0.92249
15880.00000 0.91726
15890.00000 0.91854
15900.00000 0.91991
15910.00000 0.91425
15920.00000 0.92173
15930.00000 0.91814
15940.00000 0.91523
15950.00000 0.91918
15960.00000 0.91276
15970.00000 0.91631
15980.00000 0.91504
15990.00000 0.91176
16000.00000 0.91654
16010.00000 0.91028
16020.00000 0.91176
16030.00000 0.91232
16040.00000 0.90813
16050.00000 0.91235
16060.00000 0.90592
16070.00000 0.90791
16080.00000 0.90935
16090.00000 0.90384
16100.00000 0.90727
16110.00000 0.9027
16120.00000 0.90479
16130.00000 0.90452
16140.00000 0.90124
16150.00000 0.90484
16160.00000 0.89952
16170.00000 0.90365
16180.00000 0.90255
16190.00000 0.89996
16200.00000 0.90367
16210.00000 0.89919
16220.00000 0.90302
16230.00000 0.90029
16240.00000 0.90246
16250.00000 0.90248
16260.00000 0.90058
16270.00000 0.90607
16280.00000 0.90095
16290.00000 0.90569
16300.00000 0.90386
16310.00000 0.90327
16320.00000 0.90627
16330.00000 0.90315
16340.00000 0.90861
16350.00000 0.90413
16360.00000 0.90709
16370.00000 0.90765
16380.00000 0.90497
16390.00000 0.91065
16400.00000 0.90507
16410.00000 0.91299
16420.00000 0.91086
16430.00000 0.90807
16440.00000 0.91249
16450.00000 0.90839
16460.00000 0.91465
16470.00000 0.90983
16480.00000 0.91445
16490.00000 0.91408
16500.00000 0.91298
16510.00000 0.91778
16520.00000 0.91286
16530.00000 0.91952
16540.00000 0.9136
16550.00000 0.91895
16560.00000 0.91691
16570.00000 0.91864
16580.00000 0.92108
16590.00000 0.91835
16600.00000 0.92535
16610.00000 0.91986
16620.00000 0.92733
16630.00000 0.92149
16640.00000 0.92725
16650.00000 0.92524
16660.00000 0.92777
16670.00000 0.93049
16680.00000 0.92675
16690.00000 0.93572
16700.00000 0.92733
16710.00000 0.93562
16720.00000 0.9313
16730.00000 0.93851
16740.00000 0.93594
16750.00000 0.93668
16760.00000 0.94214
16770.00000 0.9373
16780.00000 0.94448
16790.00000 0.93755
16800.00000 0.94601
16810.00000 0.9402
16820.00000 0.9457
16830.00000 0.94435
16840.00000 0.94372
16850.00000 0.94785
16860.00000 0.94306
16870.00000 0.94999
16880.00000 0.94382
16890.00000 0.95465
16900.00000 0.94369
16910.00000 0.95048
16920.00000 0.94502
16930.00000 0.95045
16940.00000 0.9478
16950.00000 0.94702
16960.00000 0.95003
16970.00000 0.94661
16980.00000 0.95156
16990.00000 0.94611
17000.00000 0.9521
17010.00000 0.94523
17020.00000 0.9514
17030.00000 0.94391
17040.00000 0.95232
17050.00000 0.94474
17060.00000 0.95104
17070.00000 0.94572
17080.00000 0.94982
17090.00000 0.94778
17100.00000 0.94784
17110.00000 0.94956
17120.00000 0.94732
17130.00000 0.95
17140.00000 0.94527
17150.00000 0.95128
17160.00000 0.94558
17170.00000 0.95154
17180.00000 0.94409
17190.00000 0.95129
17200.00000 0.9443
17210.00000 0.94916
17220.00000 0.94431
17230.00000 0.94754
17240.00000 0.94533
17250.00000 0.94584
17260.00000 0.94539
17270.00000 0.94367
17280.00000 0.94468
17290.00000 0.94137
17300.00000 0.94423
17310.00000 0.94024
17320.00000 0.94536
17330.00000 0.93711
17340.00000 0.94096
17350.00000 0.93422
17360.00000 0.94181
17370.00000 0.93264
17380.00000 0.93762
17390.00000 0.93054
17400.00000 0.93324
17410.00000 0.92811
17420.00000 0.92982
17430.00000 0.92383
17440.00000 0.92659
17450.00000 0.92091
17460.00000 0.9235
17470.00000 0.91735
17480.00000 0.91945
17490.00000 0.91345
17500.00000 0.91664
17510.00000 0.90918
17520.00000 0.91125
17530.00000 0.90542
17540.00000 0.90686
17550.00000 0.90203
17560.00000 0.90358
17570.00000 0.8975
17580.00000 0.89846
17590.00000 0.89355
17600.00000 0.8936
17610.00000 0.88793
17620.00000 0.8874
17630.00000 0.8818
17640.00000 0.87964
17650.00000 0.87456
17660.00000 0.87231
17670.00000 0.86601
17680.00000 0.86233
17690.00000 0.85413
17700.00000 0.85106
17710.00000 0.84177
17720.00000 0.8352
17730.00000 0.82676
17740.00000 0.81773
17750.00000 0.80648
17760.00000 0.79512
17770.00000 0.78128
17780.00000 0.76878
17790.00000 0.75221
17800.00000 0.73753
17810.00000 0.71905
17820.00000 0.69805
17830.00000 0.67708
17840.00000 0.65469
17850.00000 0.63133
17860.00000 0.60804
17870.00000 0.58449
17880.00000 0.55694
17890.00000 0.53135
17900.00000 0.50514
17910.00000 0.47667
17920.00000 0.45044
17930.00000 0.42228
17940.00000 0.39493
17950.00000 0.36995
17960.00000 0.34415
17970.00000 0.32213
17980.00000 0.29685
17990.00000 0.27648
18000.00000 0.2549
18010.00000 0.23518
18020.00000 0.21627
18030.00000 0.19944
18040.00000 0.18208
18050.00000 0.16846
18060.00000 0.15348
18070.00000 0.14157
18080.00000 0.13067
18090.00000 0.11966
18100.00000 0.11048
18110.00000 0.10054
18120.00000 0.092229
18130.00000 0.084464
18140.00000 0.079523
18150.00000 0.072897
18160.00000 0.066755
18170.00000 0.061063
18180.00000 0.055639
18190.00000 0.050554
18200.00000 0.04718
18210.00000 0.042827
18220.00000 0.038582
18230.00000 0.037087
18240.00000 0.033558
18250.00000 0.030698
18260.00000 0.028302
18270.00000 0.026804
18280.00000 0.025557
18290.00000 0.023581
18300.00000 0.021339
18310.00000 0.018867
18320.00000 0.018091
18330.00000 0.018694
18340.00000 0.015903
18350.00000 0.014968
18360.00000 0.01449
18370.00000 0.012759
18380.00000 0.011616
18390.00000 0.010433
18400.00000 0.009995
18410.00000 0.010292
18420.00000 0.009889
18430.00000 0.008268
18440.00000 0.007483
18450.00000 0.007963
18460.00000 0.008404
18470.00000 0.007333
18480.00000 0.00631
18490.00000 0.006155
18500.00000 0.005962
18510.00000 0.005038
18520.00000 0.004815
18530.00000 0.004381
18540.00000 0.004089
18550.00000 0.004315
18560.00000 0.004607
18570.00000 0.004119
18580.00000 0.002454
18590.00000 0.002147
18600.00000 0.003187
18610.00000 0.002705
18620.00000 0.002308
18630.00000 0.002605
18640.00000 0.002144
18650.00000 0.002537
18660.00000 0.002327
18670.00000 0.0
18680.00000 0.000609
18690.00000 0.003088
18700.00000 0.002907
18710.00000 0.001935
18720.00000 0.001577
18730.00000 0.001578
18740.00000 0.001518
18750.00000 0.001135
18760.00000 0.000778
18770.00000 0.001753
18780.00000 0.002779
18790.00000 0.002146
18800.00000 0.001036
18810.00000 0.001162
18820.00000 0.001009
18830.00000 0.000113
18840.00000 0.00086
18850.00000 0.001011
18860.00000 0.000646
18870.00000 0.000677
18880.00000 0.001023
20768.00000 0.0
