# %ECSV 0.9
# ---
# datatype:
# - {name: wavelength, unit: Angstrom, datatype: float32}
# - {name: response, datatype: float32}
# meta: !!omap
# - {band_name: J}
# - {group_name: VISTA}
wavelength response
10044.00000 0.0
11160.00000 5.2e-05
11170.00000 0.000605
11180.00000 0.001158
11190.00000 0.000773
11200.00000 0.000387
11210.00000 0.000203
11220.00000 1.9e-05
11230.00000 0.000587
11240.00000 0.001154
11250.00000 0.001327
11260.00000 0.001499
11270.00000 0.001584
11280.00000 0.001668
11290.00000 0.001789
11300.00000 0.00191
11310.00000 0.00253
11320.00000 0.003149
11330.00000 0.003267
11340.00000 0.003385
11350.00000 0.003614
11360.00000 0.003842
11370.00000 0.004572
11380.00000 0.005301
11390.00000 0.006286
11400.00000 0.00727
11410.00000 0.007339
11420.00000 0.007408
11430.00000 0.009365
11440.00000 0.011322
11450.00000 0.01257
11460.00000 0.013818
11470.00000 0.016103
11480.00000 0.018388
11490.00000 0.021589
11500.00000 0.02479
11510.00000 0.029972
11520.00000 0.035154
11530.00000 0.042034
11540.00000 0.048914
11550.00000 0.058487
11560.00000 0.068059
11570.00000 0.08306
11580.00000 0.098061
11590.00000 0.121571
11600.00000 0.14508
11610.00000 0.179855
11620.00000 0.21463
11630.00000 0.263295
11640.00000 0.31196
11650.00000 0.373305
11660.00000 0.43465
11670.00000 0.499745
11680.00000 0.56484
11690.00000 0.619145
11700.00000 0.67345
11710.00000 0.70659
11720.00000 0.73973
11730.00000 0.7517
11740.00000 0.76367
11750.00000 0.762805
11760.00000 0.76194
11770.00000 0.755635
11780.00000 0.74933
11790.00000 0.74303
11800.00000 0.73673
11810.00000 0.731525
11820.00000 0.72632
11830.00000 0.72407
11840.00000 0.72182
11850.00000 0.72157
11860.00000 0.72132
11870.00000 0.723845
11880.00000 0.72637
11890.00000 0.73095
11900.00000 0.73553
11910.00000 0.74078
11920.00000 0.74603
11930.00000 0.752375
11940.00000 0.75872
11950.00000 0.7654
11960.00000 0.77208
11970.00000 0.77824
11980.00000 0.7844
11990.00000 0.790285
12000.00000 0.79617
12010.00000 0.801835
12020.00000 0.8075
12030.00000 0.81142
12040.00000 0.81534
12050.00000 0.818805
12060.00000 0.82227
12070.00000 0.82525
12080.00000 0.82823
12090.00000 0.83045
12100.00000 0.83267
12110.00000 0.83376
12120.00000 0.83485
12130.00000 0.836225
12140.00000 0.8376
12150.00000 0.838025
12160.00000 0.83845
12170.00000 0.839515
12180.00000 0.84058
12190.00000 0.84156
12200.00000 0.84254
12210.00000 0.84346
12220.00000 0.84438
12230.00000 0.84532
12240.00000 0.84626
12250.00000 0.847285
12260.00000 0.84831
12270.00000 0.849675
12280.00000 0.85104
12290.00000 0.853525
12300.00000 0.85601
12310.00000 0.857575
12320.00000 0.85914
12330.00000 0.861095
12340.00000 0.86305
12350.00000 0.864405
12360.00000 0.86576
12370.00000 0.86764
12380.00000 0.86952
12390.00000 0.87048
12400.00000 0.87144
12410.00000 0.87196
12420.00000 0.87248
12430.00000 0.8723
12440.00000 0.87212
12450.00000 0.871505
12460.00000 0.87089
12470.00000 0.869145
12480.00000 0.8674
12490.00000 0.865495
12500.00000 0.86359
12510.00000 0.860435
12520.00000 0.85728
12530.00000 0.852715
12540.00000 0.84815
12550.00000 0.84287
12560.00000 0.83759
12570.00000 0.831755
12580.00000 0.82592
12590.00000 0.821515
12600.00000 0.81711
12610.00000 0.81398
12620.00000 0.81085
12630.00000 0.80669
12640.00000 0.80253
12650.00000 0.797115
12660.00000 0.7917
12670.00000 0.786295
12680.00000 0.78089
12690.00000 0.777815
12700.00000 0.77474
12710.00000 0.773535
12720.00000 0.77233
12730.00000 0.771535
12740.00000 0.77074
12750.00000 0.768935
12760.00000 0.76713
12770.00000 0.764295
12780.00000 0.76146
12790.00000 0.761495
12800.00000 0.76153
12810.00000 0.765285
12820.00000 0.76904
12830.00000 0.77317
12840.00000 0.7773
12850.00000 0.778835
12860.00000 0.78037
12870.00000 0.78051
12880.00000 0.78065
12890.00000 0.785095
12900.00000 0.78954
12910.00000 0.797735
12920.00000 0.80593
12930.00000 0.810315
12940.00000 0.8147
12950.00000 0.81431
12960.00000 0.81392
12970.00000 0.82008
12980.00000 0.82624
12990.00000 0.834985
13000.00000 0.84373
13010.00000 0.845245
13020.00000 0.84676
13030.00000 0.847565
13040.00000 0.84837
13050.00000 0.857065
13060.00000 0.86576
13070.00000 0.86982
13080.00000 0.87388
13090.00000 0.87003
13100.00000 0.86618
13110.00000 0.87093
13120.00000 0.87568
13130.00000 0.88108
13140.00000 0.88648
13150.00000 0.88072
13160.00000 0.87496
13170.00000 0.871795
13180.00000 0.86863
13190.00000 0.87215
13200.00000 0.87567
13210.00000 0.8666
13220.00000 0.85753
13230.00000 0.84327
13240.00000 0.82901
13250.00000 0.82189
13260.00000 0.81477
13270.00000 0.796405
13280.00000 0.77804
13290.00000 0.7506
13300.00000 0.72316
13310.00000 0.70066
13320.00000 0.67816
13330.00000 0.643025
13340.00000 0.60789
13350.00000 0.57023
13360.00000 0.53257
13370.00000 0.50049
13380.00000 0.46841
13390.00000 0.42961
13400.00000 0.39081
13410.00000 0.359215
13420.00000 0.32762
13430.00000 0.297835
13440.00000 0.26805
13450.00000 0.241005
13460.00000 0.21396
13470.00000 0.19326
13480.00000 0.17256
13490.00000 0.15449
13500.00000 0.13642
13510.00000 0.12298
13520.00000 0.10954
13530.00000 0.098259
13540.00000 0.086977
13550.00000 0.076828
13560.00000 0.066679
13570.00000 0.060518
13580.00000 0.054356
13590.00000 0.048431
13600.00000 0.042506
13610.00000 0.038406
13620.00000 0.034306
13630.00000 0.031117
13640.00000 0.027927
13650.00000 0.024583
13660.00000 0.021238
13670.00000 0.019923
13680.00000 0.018608
13690.00000 0.016907
13700.00000 0.015205
13710.00000 0.013721
13720.00000 0.012237
13730.00000 0.011117
13740.00000 0.009997
13750.00000 0.009402
13760.00000 0.008807
13770.00000 0.008361
13780.00000 0.007915
13790.00000 0.006782
13800.00000 0.005648
13810.00000 0.004777
13820.00000 0.003905
13830.00000 0.003706
13840.00000 0.003506
13850.00000 0.004279
13860.00000 0.005052
13870.00000 0.00368
13880.00000 0.002308
13890.00000 0.002172
13900.00000 0.002036
13910.00000 0.002079
13920.00000 0.002121
13930.00000 0.001948
13940.00000 0.001774
13950.00000 0.001471
13960.00000 0.001168
13970.00000 0.001059
13980.00000 0.00095
13990.00000 0.001084
14000.00000 0.001218
14010.00000 0.001293
14020.00000 0.001368
14030.00000 0.001374
14040.00000 0.001379
14050.00000 0.001077
14060.00000 0.000775
14070.00000 0.0005
14080.00000 0.000225
15488.00000 0.0
