# %ECSV 0.9
# ---
# datatype:
# - {name: wavelength, unit: Angstrom, datatype: float32}
# - {name: response, datatype: float32}
# meta: !!omap
# - {band_name: Johnson_V}
# - {group_name: Circ}
wavelength response
4311.00000 0.0
4790.00000 4e-05
4792.00000 5e-05
4794.00000 5e-05
4796.00000 6e-05
4798.00000 8e-05
4800.00000 0.0001
4802.00000 0.00013
4804.00000 0.00016
4806.00000 0.00019
4808.00000 0.00024
4810.00000 0.0003
4812.00000 0.00038
4814.00000 0.00047
4816.00000 0.00058
4818.00000 0.00071
4820.00000 0.00086
4822.00000 0.00105
4824.00000 0.00128
4826.00000 0.00155
4828.00000 0.00186
4830.00000 0.00223
4832.00000 0.00266
4834.00000 0.00315
4836.00000 0.00372
4838.00000 0.00443
4840.00000 0.00521
4842.00000 0.00608
4844.00000 0.0071
4846.00000 0.00824
4848.00000 0.00952
4850.00000 0.01099
4852.00000 0.01266
4854.00000 0.01444
4856.00000 0.01643
4858.00000 0.01859
4860.00000 0.02106
4862.00000 0.02359
4864.00000 0.02661
4866.00000 0.02969
4868.00000 0.0331
4870.00000 0.03671
4872.00000 0.04056
4874.00000 0.04479
4876.00000 0.04927
4878.00000 0.05421
4880.00000 0.05923
4882.00000 0.06458
4884.00000 0.07005
4886.00000 0.07585
4888.00000 0.08191
4890.00000 0.08837
4892.00000 0.09519
4894.00000 0.102
4896.00000 0.10913
4898.00000 0.11642
4900.00000 0.12395
4902.00000 0.13174
4904.00000 0.14003
4906.00000 0.14826
4908.00000 0.15672
4910.00000 0.16523
4912.00000 0.17389
4914.00000 0.18254
4916.00000 0.19162
4918.00000 0.20064
4920.00000 0.20984
4922.00000 0.21912
4924.00000 0.22839
4926.00000 0.23784
4928.00000 0.24738
4930.00000 0.25712
4932.00000 0.26673
4934.00000 0.27615
4936.00000 0.28541
4938.00000 0.29486
4940.00000 0.30399
4942.00000 0.31368
4944.00000 0.32298
4946.00000 0.33245
4948.00000 0.34167
4950.00000 0.35054
4952.00000 0.35939
4954.00000 0.36814
4956.00000 0.3773
4958.00000 0.38571
4960.00000 0.39419
4962.00000 0.40241
4964.00000 0.4106
4966.00000 0.41851
4968.00000 0.42662
4970.00000 0.43456
4972.00000 0.44199
4974.00000 0.44955
4976.00000 0.45673
4978.00000 0.46392
4980.00000 0.47059
4982.00000 0.47794
4984.00000 0.48413
4986.00000 0.4908
4988.00000 0.49693
4990.00000 0.50326
4992.00000 0.50898
4994.00000 0.5153
4996.00000 0.52112
4998.00000 0.52661
5000.00000 0.53231
5002.00000 0.53733
5004.00000 0.54271
5006.00000 0.54775
5008.00000 0.55269
5010.00000 0.55786
5012.00000 0.5625
5014.00000 0.56704
5016.00000 0.57141
5018.00000 0.57562
5020.00000 0.5798
5022.00000 0.58393
5024.00000 0.58811
5026.00000 0.59185
5028.00000 0.59594
5030.00000 0.59973
5032.00000 0.60279
5034.00000 0.60641
5036.00000 0.60991
5038.00000 0.61329
5040.00000 0.61623
5042.00000 0.61959
5044.00000 0.6223
5046.00000 0.62504
5048.00000 0.62811
5050.00000 0.631
5052.00000 0.63347
5054.00000 0.6362
5056.00000 0.63851
5058.00000 0.64092
5060.00000 0.64356
5062.00000 0.64556
5064.00000 0.64781
5066.00000 0.64991
5068.00000 0.65187
5070.00000 0.65379
5072.00000 0.6557
5074.00000 0.65792
5076.00000 0.65938
5078.00000 0.66103
5080.00000 0.66287
5082.00000 0.66428
5084.00000 0.66597
5086.00000 0.66764
5088.00000 0.66926
5090.00000 0.67056
5092.00000 0.67183
5094.00000 0.67339
5096.00000 0.67431
5098.00000 0.67551
5100.00000 0.67659
5102.00000 0.67788
5104.00000 0.67906
5106.00000 0.68002
5108.00000 0.68121
5110.00000 0.68216
5112.00000 0.68297
5114.00000 0.68376
5116.00000 0.68489
5118.00000 0.68554
5120.00000 0.68628
5122.00000 0.68722
5124.00000 0.68766
5126.00000 0.68855
5128.00000 0.68913
5130.00000 0.68986
5132.00000 0.69057
5134.00000 0.69119
5136.00000 0.69137
5138.00000 0.69201
5140.00000 0.69289
5142.00000 0.69345
5144.00000 0.69389
5146.00000 0.69422
5148.00000 0.69478
5150.00000 0.69529
5152.00000 0.69553
5154.00000 0.69607
5156.00000 0.69677
5158.00000 0.69676
5160.00000 0.69707
5162.00000 0.69761
5164.00000 0.69799
5166.00000 0.69818
5168.00000 0.69874
5170.00000 0.69859
5172.00000 0.69912
5174.00000 0.69924
5176.00000 0.69952
5178.00000 0.69974
5180.00000 0.70014
5182.00000 0.69989
5184.00000 0.70018
5186.00000 0.70048
5188.00000 0.70055
5190.00000 0.70071
5192.00000 0.70079
5194.00000 0.7006
5196.00000 0.70079
5198.00000 0.70101
5200.00000 0.70117
5202.00000 0.70104
5204.00000 0.70106
5206.00000 0.70099
5208.00000 0.70145
5210.00000 0.70113
5212.00000 0.70108
5214.00000 0.70106
5216.00000 0.70073
5218.00000 0.7008
5220.00000 0.70095
5222.00000 0.70103
5224.00000 0.70091
5226.00000 0.70117
5228.00000 0.70092
5230.00000 0.70045
5232.00000 0.70062
5234.00000 0.70054
5236.00000 0.70034
5238.00000 0.70036
5240.00000 0.70002
5242.00000 0.69999
5244.00000 0.7001
5246.00000 0.69995
5248.00000 0.69968
5250.00000 0.69954
5252.00000 0.69943
5254.00000 0.69922
5256.00000 0.69889
5258.00000 0.69876
5260.00000 0.69882
5262.00000 0.69817
5264.00000 0.69817
5266.00000 0.6981
5268.00000 0.69767
5270.00000 0.69735
5272.00000 0.69737
5274.00000 0.69733
5276.00000 0.69663
5278.00000 0.69677
5280.00000 0.69641
5282.00000 0.69573
5284.00000 0.69605
5286.00000 0.69556
5288.00000 0.69511
5290.00000 0.69492
5292.00000 0.69442
5294.00000 0.69428
5296.00000 0.69387
5298.00000 0.69358
5300.00000 0.6928
5302.00000 0.6929
5304.00000 0.69236
5306.00000 0.69212
5308.00000 0.69159
5310.00000 0.69136
5312.00000 0.691
5314.00000 0.69046
5316.00000 0.69044
5318.00000 0.68958
5320.00000 0.68945
5322.00000 0.6887
5324.00000 0.68841
5326.00000 0.68781
5328.00000 0.68722
5330.00000 0.68676
5332.00000 0.68665
5334.00000 0.68625
5336.00000 0.6853
5338.00000 0.68482
5340.00000 0.68458
5342.00000 0.684
5344.00000 0.68322
5346.00000 0.68269
5348.00000 0.68245
5350.00000 0.68208
5352.00000 0.68163
5354.00000 0.68117
5356.00000 0.68051
5358.00000 0.68006
5360.00000 0.67956
5362.00000 0.67893
5364.00000 0.67854
5366.00000 0.67763
5368.00000 0.67727
5370.00000 0.67692
5372.00000 0.67654
5374.00000 0.67586
5376.00000 0.67515
5378.00000 0.67441
5380.00000 0.67407
5382.00000 0.67348
5384.00000 0.67309
5386.00000 0.67237
5388.00000 0.67145
5390.00000 0.67104
5392.00000 0.67061
5394.00000 0.66984
5396.00000 0.66922
5398.00000 0.66872
5400.00000 0.66832
5402.00000 0.66764
5404.00000 0.66717
5406.00000 0.66614
5408.00000 0.66542
5410.00000 0.66532
5412.00000 0.66436
5414.00000 0.66362
5416.00000 0.66309
5418.00000 0.66267
5420.00000 0.66171
5422.00000 0.66128
5424.00000 0.66033
5426.00000 0.65957
5428.00000 0.65887
5430.00000 0.65844
5432.00000 0.65758
5434.00000 0.65675
5436.00000 0.65648
5438.00000 0.65518
5440.00000 0.65424
5442.00000 0.65387
5444.00000 0.65301
5446.00000 0.6525
5448.00000 0.65133
5450.00000 0.65085
5452.00000 0.64996
5454.00000 0.64906
5456.00000 0.64811
5458.00000 0.64732
5460.00000 0.64653
5462.00000 0.64559
5464.00000 0.64482
5466.00000 0.64381
5468.00000 0.64319
5470.00000 0.64229
5472.00000 0.64094
5474.00000 0.64049
5476.00000 0.63935
5478.00000 0.63805
5480.00000 0.63716
5482.00000 0.63596
5484.00000 0.63541
5486.00000 0.63452
5488.00000 0.63292
5490.00000 0.63219
5492.00000 0.63112
5494.00000 0.63015
5496.00000 0.62919
5498.00000 0.62791
5500.00000 0.62686
5502.00000 0.62561
5504.00000 0.62463
5506.00000 0.62377
5508.00000 0.62258
5510.00000 0.62128
5512.00000 0.62018
5514.00000 0.6191
5516.00000 0.61752
5518.00000 0.61653
5520.00000 0.6155
5522.00000 0.61436
5524.00000 0.61316
5526.00000 0.6118
5528.00000 0.61074
5530.00000 0.60932
5532.00000 0.6079
5534.00000 0.60681
5536.00000 0.60574
5538.00000 0.60437
5540.00000 0.60326
5542.00000 0.60182
5544.00000 0.60069
5546.00000 0.59926
5548.00000 0.59794
5550.00000 0.59692
5552.00000 0.59527
5554.00000 0.59411
5556.00000 0.59248
5558.00000 0.59137
5560.00000 0.59001
5562.00000 0.58852
5564.00000 0.58727
5566.00000 0.58577
5568.00000 0.58444
5570.00000 0.58289
5572.00000 0.58175
5574.00000 0.58029
5576.00000 0.57865
5578.00000 0.5773
5580.00000 0.57567
5582.00000 0.57448
5584.00000 0.57294
5586.00000 0.57161
5588.00000 0.56987
5590.00000 0.56839
5592.00000 0.56674
5594.00000 0.56514
5596.00000 0.56388
5598.00000 0.56236
5600.00000 0.56067
5602.00000 0.559
5604.00000 0.5575
5606.00000 0.55593
5608.00000 0.55423
5610.00000 0.55303
5612.00000 0.55116
5614.00000 0.54939
5616.00000 0.54809
5618.00000 0.54636
5620.00000 0.54479
5622.00000 0.5432
5624.00000 0.54129
5626.00000 0.54001
5628.00000 0.5379
5630.00000 0.53658
5632.00000 0.53478
5634.00000 0.53319
5636.00000 0.53164
5638.00000 0.52969
5640.00000 0.52811
5642.00000 0.52634
5644.00000 0.52477
5646.00000 0.52285
5648.00000 0.52156
5650.00000 0.51975
5652.00000 0.51797
5654.00000 0.51611
5656.00000 0.51445
5658.00000 0.51264
5660.00000 0.51093
5662.00000 0.50896
5664.00000 0.5074
5666.00000 0.50561
5668.00000 0.504
5670.00000 0.50202
5672.00000 0.50047
5674.00000 0.49853
5676.00000 0.49671
5678.00000 0.49489
5680.00000 0.49312
5682.00000 0.49134
5684.00000 0.48942
5686.00000 0.48782
5688.00000 0.48564
5690.00000 0.48397
5692.00000 0.48239
5694.00000 0.48036
5696.00000 0.4786
5698.00000 0.47664
5700.00000 0.47501
5702.00000 0.47281
5704.00000 0.47111
5706.00000 0.46921
5708.00000 0.46745
5710.00000 0.46527
5712.00000 0.46361
5714.00000 0.46164
5716.00000 0.45992
5718.00000 0.45769
5720.00000 0.45587
5722.00000 0.45398
5724.00000 0.45219
5726.00000 0.45044
5728.00000 0.44827
5730.00000 0.4465
5732.00000 0.44442
5734.00000 0.44258
5736.00000 0.44068
5738.00000 0.43874
5740.00000 0.43673
5742.00000 0.43501
5744.00000 0.43291
5746.00000 0.43085
5748.00000 0.42922
5750.00000 0.42733
5752.00000 0.42516
5754.00000 0.42331
5756.00000 0.42128
5758.00000 0.4191
5760.00000 0.41766
5762.00000 0.41579
5764.00000 0.4139
5766.00000 0.41179
5768.00000 0.40973
5770.00000 0.4079
5772.00000 0.40605
5774.00000 0.40406
5776.00000 0.40231
5778.00000 0.40016
5780.00000 0.39847
5782.00000 0.39627
5784.00000 0.39437
5786.00000 0.39236
5788.00000 0.39066
5790.00000 0.38862
5792.00000 0.38649
5794.00000 0.38447
5796.00000 0.38267
5798.00000 0.38078
5800.00000 0.37867
5802.00000 0.37683
5804.00000 0.37467
5806.00000 0.37258
5808.00000 0.3709
5810.00000 0.36877
5812.00000 0.36678
5814.00000 0.36467
5816.00000 0.36309
5818.00000 0.36082
5820.00000 0.35906
5822.00000 0.35697
5824.00000 0.35501
5826.00000 0.35282
5828.00000 0.35116
5830.00000 0.34912
5832.00000 0.34712
5834.00000 0.34502
5836.00000 0.34336
5838.00000 0.34116
5840.00000 0.33923
5842.00000 0.3374
5844.00000 0.33554
5846.00000 0.33328
5848.00000 0.33133
5850.00000 0.32946
5852.00000 0.32763
5854.00000 0.32556
5856.00000 0.32384
5858.00000 0.32179
5860.00000 0.31977
5862.00000 0.31796
5864.00000 0.31606
5866.00000 0.314
5868.00000 0.31223
5870.00000 0.31021
5872.00000 0.30833
5874.00000 0.30652
5876.00000 0.30452
5878.00000 0.30258
5880.00000 0.30067
5882.00000 0.29889
5884.00000 0.29693
5886.00000 0.29507
5888.00000 0.29306
5890.00000 0.29132
5892.00000 0.28934
5894.00000 0.28758
5896.00000 0.28565
5898.00000 0.28369
5900.00000 0.28188
5902.00000 0.27997
5904.00000 0.2782
5906.00000 0.27632
5908.00000 0.27449
5910.00000 0.27257
5912.00000 0.27069
5914.00000 0.26898
5916.00000 0.2671
5918.00000 0.26517
5920.00000 0.26347
5922.00000 0.26173
5924.00000 0.2597
5926.00000 0.25793
5928.00000 0.25612
5930.00000 0.2543
5932.00000 0.25245
5934.00000 0.25079
5936.00000 0.24891
5938.00000 0.24713
5940.00000 0.24537
5942.00000 0.24349
5944.00000 0.24176
5946.00000 0.24006
5948.00000 0.2383
5950.00000 0.23643
5952.00000 0.23468
5954.00000 0.23307
5956.00000 0.23126
5958.00000 0.22962
5960.00000 0.22783
5962.00000 0.22603
5964.00000 0.22452
5966.00000 0.2227
5968.00000 0.22105
5970.00000 0.21936
5972.00000 0.21774
5974.00000 0.21602
5976.00000 0.21431
5978.00000 0.21261
5980.00000 0.21104
5982.00000 0.20942
5984.00000 0.20777
5986.00000 0.20614
5988.00000 0.2046
5990.00000 0.20293
5992.00000 0.20137
5994.00000 0.19967
5996.00000 0.19798
5998.00000 0.19661
6000.00000 0.19494
6002.00000 0.19327
6004.00000 0.19173
6006.00000 0.19018
6008.00000 0.18859
6010.00000 0.1871
6012.00000 0.18557
6014.00000 0.184
6016.00000 0.18246
6018.00000 0.18089
6020.00000 0.17932
6022.00000 0.17787
6024.00000 0.17637
6026.00000 0.17487
6028.00000 0.17341
6030.00000 0.17187
6032.00000 0.17041
6034.00000 0.16889
6036.00000 0.16746
6038.00000 0.16604
6040.00000 0.16451
6042.00000 0.16304
6044.00000 0.16162
6046.00000 0.16024
6048.00000 0.15868
6050.00000 0.15736
6052.00000 0.15587
6054.00000 0.15452
6056.00000 0.1531
6058.00000 0.15177
6060.00000 0.15033
6062.00000 0.1491
6064.00000 0.14763
6066.00000 0.14627
6068.00000 0.14495
6070.00000 0.14361
6072.00000 0.14234
6074.00000 0.14095
6076.00000 0.13978
6078.00000 0.13839
6080.00000 0.13715
6082.00000 0.13582
6084.00000 0.13463
6086.00000 0.13331
6088.00000 0.13213
6090.00000 0.13081
6092.00000 0.12955
6094.00000 0.12829
6096.00000 0.12707
6098.00000 0.12593
6100.00000 0.12475
6102.00000 0.12345
6104.00000 0.12226
6106.00000 0.12106
6108.00000 0.11983
6110.00000 0.11876
6112.00000 0.11749
6114.00000 0.1164
6116.00000 0.11525
6118.00000 0.11407
6120.00000 0.11292
6122.00000 0.11182
6124.00000 0.11065
6126.00000 0.10956
6128.00000 0.10848
6130.00000 0.10738
6132.00000 0.10628
6134.00000 0.10513
6136.00000 0.10419
6138.00000 0.10306
6140.00000 0.10197
6142.00000 0.10096
6144.00000 0.09993
6146.00000 0.09884
6148.00000 0.09772
6150.00000 0.09669
6152.00000 0.09564
6154.00000 0.0947
6156.00000 0.09367
6158.00000 0.09261
6160.00000 0.09158
6162.00000 0.09072
6164.00000 0.08976
6166.00000 0.08883
6168.00000 0.08783
6170.00000 0.08693
6172.00000 0.08593
6174.00000 0.08493
6176.00000 0.08408
6178.00000 0.08309
6180.00000 0.08219
6182.00000 0.08139
6184.00000 0.0804
6186.00000 0.07954
6188.00000 0.0787
6190.00000 0.07771
6192.00000 0.07694
6194.00000 0.07603
6196.00000 0.07518
6198.00000 0.0744
6200.00000 0.07356
6202.00000 0.07274
6204.00000 0.07192
6206.00000 0.0711
6208.00000 0.07031
6210.00000 0.06953
6212.00000 0.06872
6214.00000 0.06798
6216.00000 0.0672
6218.00000 0.06646
6220.00000 0.06565
6222.00000 0.06489
6224.00000 0.06408
6226.00000 0.06332
6228.00000 0.06262
6230.00000 0.06191
6232.00000 0.06115
6234.00000 0.06043
6236.00000 0.05966
6238.00000 0.059
6240.00000 0.0583
6242.00000 0.05763
6244.00000 0.05698
6246.00000 0.05626
6248.00000 0.05555
6250.00000 0.05492
6252.00000 0.05421
6254.00000 0.05355
6256.00000 0.05292
6258.00000 0.05225
6260.00000 0.05162
6262.00000 0.05098
6264.00000 0.05033
6266.00000 0.04975
6268.00000 0.04911
6270.00000 0.04853
6272.00000 0.04793
6274.00000 0.04734
6276.00000 0.04674
6278.00000 0.04613
6280.00000 0.04559
6282.00000 0.045
6284.00000 0.04446
6286.00000 0.04386
6288.00000 0.0433
6290.00000 0.04276
6292.00000 0.04223
6294.00000 0.04169
6296.00000 0.04115
6298.00000 0.04066
6300.00000 0.04014
6302.00000 0.03961
6304.00000 0.03911
6306.00000 0.03863
6308.00000 0.03806
6310.00000 0.03762
6312.00000 0.0371
6314.00000 0.03664
6316.00000 0.03617
6318.00000 0.03569
6320.00000 0.0352
6322.00000 0.03476
6324.00000 0.03431
6326.00000 0.03386
6328.00000 0.03337
6330.00000 0.03294
6332.00000 0.03251
6334.00000 0.03207
6336.00000 0.03167
6338.00000 0.0312
6340.00000 0.0308
6342.00000 0.03035
6344.00000 0.02998
6346.00000 0.02954
6348.00000 0.02917
6350.00000 0.02878
6352.00000 0.02837
6354.00000 0.02798
6356.00000 0.0276
6358.00000 0.0272
6360.00000 0.02686
6362.00000 0.02648
6364.00000 0.02611
6366.00000 0.02569
6368.00000 0.02535
6370.00000 0.02503
6372.00000 0.02466
6374.00000 0.02435
6376.00000 0.02398
6378.00000 0.02366
6380.00000 0.02331
6382.00000 0.02298
6384.00000 0.02268
6386.00000 0.02234
6388.00000 0.02202
6390.00000 0.02171
6392.00000 0.02142
6394.00000 0.0211
6396.00000 0.02079
6398.00000 0.02047
6400.00000 0.02021
6402.00000 0.01991
6404.00000 0.01964
6406.00000 0.01935
6408.00000 0.01905
6410.00000 0.01877
6412.00000 0.01855
6414.00000 0.01827
6416.00000 0.01799
6418.00000 0.01775
6420.00000 0.01746
6422.00000 0.01723
6424.00000 0.01698
6426.00000 0.01671
6428.00000 0.01649
6430.00000 0.01623
6432.00000 0.01598
6434.00000 0.01573
6436.00000 0.0155
6438.00000 0.01528
6440.00000 0.01506
6442.00000 0.01482
6444.00000 0.01461
6446.00000 0.01439
6448.00000 0.01417
6450.00000 0.01395
6452.00000 0.01375
6454.00000 0.01354
6456.00000 0.01334
6458.00000 0.01311
6460.00000 0.0129
6462.00000 0.01273
6464.00000 0.01252
6466.00000 0.01234
6468.00000 0.01216
6470.00000 0.01198
6472.00000 0.01178
6474.00000 0.01159
6476.00000 0.0114
6478.00000 0.01123
6480.00000 0.01106
6482.00000 0.01089
6484.00000 0.0107
6486.00000 0.01055
6488.00000 0.01037
6490.00000 0.0102
6492.00000 0.01004
6494.00000 0.00988
6496.00000 0.00973
6498.00000 0.00955
6500.00000 0.00943
6502.00000 0.00927
6504.00000 0.00914
6506.00000 0.00899
6508.00000 0.00882
6510.00000 0.0087
6512.00000 0.00855
6514.00000 0.00842
6516.00000 0.0083
6518.00000 0.00815
6520.00000 0.00802
6522.00000 0.00787
6524.00000 0.00775
6526.00000 0.00762
6528.00000 0.00751
6530.00000 0.00738
6532.00000 0.00725
6534.00000 0.00714
6536.00000 0.00703
6538.00000 0.00691
6540.00000 0.0068
6542.00000 0.00669
6544.00000 0.00658
6546.00000 0.00647
6548.00000 0.00636
6550.00000 0.00624
6552.00000 0.00616
6554.00000 0.00604
6556.00000 0.00594
6558.00000 0.00585
6560.00000 0.00574
6562.00000 0.00564
6564.00000 0.00555
6566.00000 0.00547
6568.00000 0.00536
6570.00000 0.00528
6572.00000 0.00518
6574.00000 0.00509
6576.00000 0.00502
6578.00000 0.00493
6580.00000 0.00485
6582.00000 0.00475
6584.00000 0.00467
6586.00000 0.00459
6588.00000 0.00451
6590.00000 0.00444
6592.00000 0.00434
6594.00000 0.00429
6596.00000 0.00421
6598.00000 0.00413
6600.00000 0.00407
6602.00000 0.00399
6604.00000 0.00392
6606.00000 0.00384
6608.00000 0.00379
6610.00000 0.00372
6612.00000 0.00364
6614.00000 0.00359
6616.00000 0.00352
6618.00000 0.00346
6620.00000 0.00341
6622.00000 0.00334
6624.00000 0.00329
6626.00000 0.00322
6628.00000 0.00317
6630.00000 0.00312
6632.00000 0.00306
6634.00000 0.00301
6636.00000 0.00295
6638.00000 0.0029
6640.00000 0.00285
6642.00000 0.0028
6644.00000 0.00275
6646.00000 0.00269
6648.00000 0.00265
6650.00000 0.0026
6652.00000 0.00256
6654.00000 0.0025
6656.00000 0.00247
6658.00000 0.00241
6660.00000 0.00237
6662.00000 0.00233
6664.00000 0.00229
6666.00000 0.00224
6668.00000 0.00221
6670.00000 0.00216
6672.00000 0.00212
6674.00000 0.00208
6676.00000 0.00205
6678.00000 0.002
6680.00000 0.00196
6682.00000 0.00193
6684.00000 0.0019
6686.00000 0.00186
6688.00000 0.00183
6690.00000 0.00179
6692.00000 0.00175
6694.00000 0.00172
6696.00000 0.0017
6698.00000 0.00166
6700.00000 0.00164
6702.00000 0.0016
6704.00000 0.00157
6706.00000 0.00155
6708.00000 0.00151
6710.00000 0.00149
6712.00000 0.00145
6714.00000 0.00143
6716.00000 0.0014
6718.00000 0.00138
6720.00000 0.00135
6722.00000 0.00132
6724.00000 0.00129
6726.00000 0.00127
6728.00000 0.00124
6730.00000 0.00121
6732.00000 0.0012
6734.00000 0.00118
6736.00000 0.00115
6738.00000 0.00113
6740.00000 0.00111
6742.00000 0.00109
6744.00000 0.00106
6746.00000 0.00104
6748.00000 0.00103
6750.00000 0.001
6752.00000 0.00099
6754.00000 0.00096
6756.00000 0.00094
6758.00000 0.00093
6760.00000 0.00091
6762.00000 0.00089
6764.00000 0.00088
6766.00000 0.00086
6768.00000 0.00084
6770.00000 0.00082
6772.00000 0.00081
6774.00000 0.00079
6776.00000 0.00078
6778.00000 0.00076
6780.00000 0.00074
6782.00000 0.00073
6784.00000 0.00071
6786.00000 0.0007
6788.00000 0.00069
6790.00000 0.00067
6792.00000 0.00066
6794.00000 0.00064
6796.00000 0.00063
6798.00000 0.00063
6800.00000 0.00061
6802.00000 0.00059
6804.00000 0.00058
6806.00000 0.00057
6808.00000 0.00056
6810.00000 0.00055
6812.00000 0.00053
6814.00000 0.00053
6816.00000 0.00051
6818.00000 0.0005
6820.00000 0.0005
6822.00000 0.00049
6824.00000 0.00047
6826.00000 0.00047
6828.00000 0.00046
6830.00000 0.00044
6832.00000 0.00043
6834.00000 0.00043
6836.00000 0.00042
6838.00000 0.00041
6840.00000 0.00039
6842.00000 0.00039
6844.00000 0.00039
6846.00000 0.00038
6848.00000 0.00037
6850.00000 0.00036
6852.00000 0.00035
6854.00000 0.00035
6856.00000 0.00034
6858.00000 0.00033
6860.00000 0.00032
6862.00000 0.00032
6864.00000 0.00031
6866.00000 0.0003
6868.00000 0.0003
6870.00000 0.00029
6872.00000 0.00029
6874.00000 0.00028
6876.00000 0.00027
6878.00000 0.00027
6880.00000 0.00026
6882.00000 0.00026
6884.00000 0.00025
6886.00000 0.00025
6888.00000 0.00024
6890.00000 0.00023
6892.00000 0.00023
6894.00000 0.00022
6896.00000 0.00022
6898.00000 0.00021
6900.00000 0.00021
6902.00000 0.0002
6904.00000 0.0002
6906.00000 0.0002
6908.00000 0.00019
6910.00000 0.00019
6912.00000 0.00019
6914.00000 0.00018
6916.00000 0.00018
6918.00000 0.00017
6920.00000 0.00017
6922.00000 0.00017
6924.00000 0.00016
6926.00000 0.00016
6928.00000 0.00015
6930.00000 0.00015
6932.00000 0.00014
6934.00000 0.00015
6936.00000 0.00014
6938.00000 0.00014
6940.00000 0.00014
6942.00000 0.00013
6944.00000 0.00013
6946.00000 0.00013
6948.00000 0.00012
6950.00000 0.00012
6952.00000 0.00012
6954.00000 0.00011
6956.00000 0.00011
6958.00000 0.00011
6960.00000 0.00011
6962.00000 0.0001
6964.00000 0.0001
6966.00000 0.0001
6968.00000 0.0001
6970.00000 0.0001
6972.00000 0.0001
6974.00000 0.0001
6976.00000 9e-05
6978.00000 9e-05
6980.00000 9e-05
6982.00000 8e-05
6984.00000 8e-05
6986.00000 8e-05
6988.00000 8e-05
6990.00000 8e-05
6992.00000 8e-05
6994.00000 7e-05
6996.00000 7e-05
6998.00000 7e-05
7000.00000 7e-05
7700.00000 0.0
