# %ECSV 0.9
# ---
# datatype:
# - {name: wavelength, unit: Angstrom, datatype: float32}
# - {name: response, datatype: float32}
# meta: !!omap
# - {band_name: g}
# - {group_name: Gunn}
wavelength response
3951.00000 0.0
4390.00000 4e-05
4392.00000 4e-05
4394.00000 4e-05
4396.00000 4e-05
4398.00000 5e-05
4400.00000 5e-05
4402.00000 5e-05
4404.00000 6e-05
4406.00000 6e-05
4408.00000 7e-05
4410.00000 8e-05
4412.00000 9e-05
4414.00000 9e-05
4416.00000 0.0001
4418.00000 0.00011
4420.00000 0.00012
4422.00000 0.00013
4424.00000 0.00014
4426.00000 0.00015
4428.00000 0.00017
4430.00000 0.00018
4432.00000 0.0002
4434.00000 0.00022
4436.00000 0.00024
4438.00000 0.00026
4440.00000 0.00029
4442.00000 0.00032
4444.00000 0.00034
4446.00000 0.00038
4448.00000 0.00041
4450.00000 0.00045
4452.00000 0.0005
4454.00000 0.00055
4456.00000 0.00061
4458.00000 0.00067
4460.00000 0.00073
4462.00000 0.0008
4464.00000 0.00088
4466.00000 0.00097
4468.00000 0.00107
4470.00000 0.00118
4472.00000 0.0013
4474.00000 0.00143
4476.00000 0.00158
4478.00000 0.00174
4480.00000 0.00193
4482.00000 0.00215
4484.00000 0.00236
4486.00000 0.00261
4488.00000 0.00291
4490.00000 0.00319
4492.00000 0.00355
4494.00000 0.00395
4496.00000 0.00439
4498.00000 0.0049
4500.00000 0.00541
4502.00000 0.00606
4504.00000 0.00671
4506.00000 0.00753
4508.00000 0.00841
4510.00000 0.0094
4512.00000 0.01045
4514.00000 0.0117
4516.00000 0.01308
4518.00000 0.01463
4520.00000 0.01639
4522.00000 0.01846
4524.00000 0.02069
4526.00000 0.02315
4528.00000 0.02605
4530.00000 0.0291
4532.00000 0.03269
4534.00000 0.03684
4536.00000 0.04167
4538.00000 0.0468
4540.00000 0.05285
4542.00000 0.05946
4544.00000 0.06704
4546.00000 0.07562
4548.00000 0.08571
4550.00000 0.09661
4552.00000 0.1088
4554.00000 0.12254
4556.00000 0.13753
4558.00000 0.15447
4560.00000 0.17316
4562.00000 0.1947
4564.00000 0.21725
4566.00000 0.24204
4568.00000 0.269
4570.00000 0.29738
4572.00000 0.32833
4574.00000 0.36185
4576.00000 0.39643
4578.00000 0.43109
4580.00000 0.46807
4582.00000 0.50421
4584.00000 0.5398
4586.00000 0.57576
4588.00000 0.61072
4590.00000 0.64251
4592.00000 0.67242
4594.00000 0.6995
4596.00000 0.72469
4598.00000 0.74655
4600.00000 0.76702
4602.00000 0.78446
4604.00000 0.79838
4606.00000 0.81044
4608.00000 0.82013
4610.00000 0.82814
4612.00000 0.83487
4614.00000 0.83951
4616.00000 0.84277
4618.00000 0.84509
4620.00000 0.84687
4622.00000 0.84776
4624.00000 0.84786
4626.00000 0.84786
4628.00000 0.84775
4630.00000 0.84692
4632.00000 0.84682
4634.00000 0.84557
4636.00000 0.84396
4638.00000 0.8433
4640.00000 0.84316
4642.00000 0.84184
4644.00000 0.84166
4646.00000 0.84056
4648.00000 0.84006
4650.00000 0.84021
4652.00000 0.84024
4654.00000 0.84028
4656.00000 0.84021
4658.00000 0.84027
4660.00000 0.84092
4662.00000 0.84143
4664.00000 0.84231
4666.00000 0.84319
4668.00000 0.8437
4670.00000 0.84485
4672.00000 0.84598
4674.00000 0.84656
4676.00000 0.84798
4678.00000 0.84894
4680.00000 0.85022
4682.00000 0.8517
4684.00000 0.85299
4686.00000 0.85419
4688.00000 0.85569
4690.00000 0.85711
4692.00000 0.85801
4694.00000 0.85937
4696.00000 0.86101
4698.00000 0.86252
4700.00000 0.86316
4702.00000 0.86442
4704.00000 0.86572
4706.00000 0.86664
4708.00000 0.86807
4710.00000 0.86912
4712.00000 0.87033
4714.00000 0.87116
4716.00000 0.87227
4718.00000 0.87276
4720.00000 0.87402
4722.00000 0.87494
4724.00000 0.8753
4726.00000 0.87656
4728.00000 0.87705
4730.00000 0.8774
4732.00000 0.87869
4734.00000 0.87908
4736.00000 0.8799
4738.00000 0.88057
4740.00000 0.88112
4742.00000 0.88147
4744.00000 0.88227
4746.00000 0.883
4748.00000 0.88365
4750.00000 0.88388
4752.00000 0.88454
4754.00000 0.88472
4756.00000 0.88544
4758.00000 0.88646
4760.00000 0.88682
4762.00000 0.88702
4764.00000 0.88739
4766.00000 0.88784
4768.00000 0.88834
4770.00000 0.8885
4772.00000 0.88909
4774.00000 0.88891
4776.00000 0.88981
4778.00000 0.88956
4780.00000 0.8896
4782.00000 0.8896
4784.00000 0.88998
4786.00000 0.89017
4788.00000 0.8902
4790.00000 0.89005
4792.00000 0.88947
4794.00000 0.88957
4796.00000 0.8894
4798.00000 0.88896
4800.00000 0.88864
4802.00000 0.88782
4804.00000 0.88753
4806.00000 0.88715
4808.00000 0.88609
4810.00000 0.88551
4812.00000 0.88467
4814.00000 0.88413
4816.00000 0.88367
4818.00000 0.8821
4820.00000 0.88161
4822.00000 0.88065
4824.00000 0.8801
4826.00000 0.87873
4828.00000 0.87789
4830.00000 0.87755
4832.00000 0.87619
4834.00000 0.87521
4836.00000 0.87454
4838.00000 0.87391
4840.00000 0.87376
4842.00000 0.87284
4844.00000 0.87207
4846.00000 0.87145
4848.00000 0.87119
4850.00000 0.87093
4852.00000 0.87059
4854.00000 0.87031
4856.00000 0.87029
4858.00000 0.8704
4860.00000 0.87043
4862.00000 0.87029
4864.00000 0.86999
4866.00000 0.87111
4868.00000 0.87074
4870.00000 0.87178
4872.00000 0.87235
4874.00000 0.87274
4876.00000 0.87345
4878.00000 0.87454
4880.00000 0.87552
4882.00000 0.87632
4884.00000 0.87729
4886.00000 0.87816
4888.00000 0.87938
4890.00000 0.8805
4892.00000 0.8822
4894.00000 0.88218
4896.00000 0.88405
4898.00000 0.88542
4900.00000 0.88648
4902.00000 0.88742
4904.00000 0.88884
4906.00000 0.89009
4908.00000 0.89137
4910.00000 0.89243
4912.00000 0.89326
4914.00000 0.89389
4916.00000 0.89515
4918.00000 0.89607
4920.00000 0.8968
4922.00000 0.89766
4924.00000 0.89857
4926.00000 0.89928
4928.00000 0.89955
4930.00000 0.89987
4932.00000 0.9003
4934.00000 0.90062
4936.00000 0.90103
4938.00000 0.90156
4940.00000 0.90119
4942.00000 0.90126
4944.00000 0.90138
4946.00000 0.90121
4948.00000 0.9006
4950.00000 0.90098
4952.00000 0.90039
4954.00000 0.89954
4956.00000 0.89916
4958.00000 0.89894
4960.00000 0.8985
4962.00000 0.89804
4964.00000 0.89695
4966.00000 0.89643
4968.00000 0.89646
4970.00000 0.89573
4972.00000 0.89512
4974.00000 0.89443
4976.00000 0.89395
4978.00000 0.89346
4980.00000 0.8927
4982.00000 0.89222
4984.00000 0.89143
4986.00000 0.89117
4988.00000 0.89074
4990.00000 0.89005
4992.00000 0.88958
4994.00000 0.88898
4996.00000 0.88845
4998.00000 0.88822
5000.00000 0.88689
5002.00000 0.88681
5004.00000 0.88658
5006.00000 0.886
5008.00000 0.88537
5010.00000 0.88454
5012.00000 0.88383
5014.00000 0.88323
5016.00000 0.88257
5018.00000 0.88168
5020.00000 0.8805
5022.00000 0.87973
5024.00000 0.87902
5026.00000 0.87778
5028.00000 0.87653
5030.00000 0.87524
5032.00000 0.8738
5034.00000 0.87257
5036.00000 0.87083
5038.00000 0.86952
5040.00000 0.86746
5042.00000 0.86501
5044.00000 0.86347
5046.00000 0.86092
5048.00000 0.85894
5050.00000 0.85676
5052.00000 0.85428
5054.00000 0.852
5056.00000 0.84926
5058.00000 0.84669
5060.00000 0.84374
5062.00000 0.84081
5064.00000 0.8383
5066.00000 0.83472
5068.00000 0.8318
5070.00000 0.8294
5072.00000 0.82623
5074.00000 0.82349
5076.00000 0.8206
5078.00000 0.81724
5080.00000 0.81481
5082.00000 0.81189
5084.00000 0.80879
5086.00000 0.80556
5088.00000 0.80341
5090.00000 0.80107
5092.00000 0.79902
5094.00000 0.79665
5096.00000 0.79447
5098.00000 0.79232
5100.00000 0.79086
5102.00000 0.78947
5104.00000 0.78786
5106.00000 0.78683
5108.00000 0.78593
5110.00000 0.78495
5112.00000 0.78419
5114.00000 0.7839
5116.00000 0.7841
5118.00000 0.78442
5120.00000 0.78458
5122.00000 0.78508
5124.00000 0.78622
5126.00000 0.78743
5128.00000 0.78876
5130.00000 0.79021
5132.00000 0.79242
5134.00000 0.79478
5136.00000 0.79669
5138.00000 0.79923
5140.00000 0.80207
5142.00000 0.80493
5144.00000 0.80762
5146.00000 0.81126
5148.00000 0.81456
5150.00000 0.81803
5152.00000 0.8218
5154.00000 0.82497
5156.00000 0.82868
5158.00000 0.83219
5160.00000 0.83516
5162.00000 0.83898
5164.00000 0.8418
5166.00000 0.84485
5168.00000 0.84703
5170.00000 0.84941
5172.00000 0.85171
5174.00000 0.85284
5176.00000 0.85395
5178.00000 0.85444
5180.00000 0.85473
5182.00000 0.85456
5184.00000 0.85355
5186.00000 0.8524
5188.00000 0.85028
5190.00000 0.84779
5192.00000 0.84493
5194.00000 0.84213
5196.00000 0.83835
5198.00000 0.83452
5200.00000 0.8308
5202.00000 0.82665
5204.00000 0.82249
5206.00000 0.81867
5208.00000 0.81475
5210.00000 0.8112
5212.00000 0.80844
5214.00000 0.80546
5216.00000 0.8037
5218.00000 0.80308
5220.00000 0.80314
5222.00000 0.80356
5224.00000 0.80501
5226.00000 0.80748
5228.00000 0.81057
5230.00000 0.81554
5232.00000 0.82015
5234.00000 0.82576
5236.00000 0.83051
5238.00000 0.83522
5240.00000 0.83766
5242.00000 0.83819
5244.00000 0.83411
5246.00000 0.82521
5248.00000 0.80952
5250.00000 0.78606
5252.00000 0.75489
5254.00000 0.71402
5256.00000 0.66454
5258.00000 0.60907
5260.00000 0.5496
5262.00000 0.48865
5264.00000 0.42845
5266.00000 0.37222
5268.00000 0.31842
5270.00000 0.27097
5272.00000 0.22915
5274.00000 0.1939
5276.00000 0.16248
5278.00000 0.13679
5280.00000 0.1143
5282.00000 0.09553
5284.00000 0.08013
5286.00000 0.06741
5288.00000 0.05705
5290.00000 0.04796
5292.00000 0.0407
5294.00000 0.03444
5296.00000 0.02932
5298.00000 0.02496
5300.00000 0.02149
5302.00000 0.01842
5304.00000 0.01594
5306.00000 0.01373
5308.00000 0.01189
5310.00000 0.01023
5312.00000 0.00889
5314.00000 0.00775
5316.00000 0.00675
5318.00000 0.00593
5320.00000 0.00518
5322.00000 0.00455
5324.00000 0.004
5326.00000 0.00354
5328.00000 0.00313
5330.00000 0.00278
5332.00000 0.00245
5334.00000 0.00217
5336.00000 0.00194
5338.00000 0.00172
5340.00000 0.00154
5342.00000 0.00137
5344.00000 0.00123
5346.00000 0.0011
5348.00000 0.00098
5350.00000 0.00089
5352.00000 0.0008
5354.00000 0.00072
5356.00000 0.00065
5358.00000 0.00058
5360.00000 0.00053
5362.00000 0.00047
5364.00000 0.00043
5366.00000 0.00039
5368.00000 0.00035
5370.00000 0.00032
5372.00000 0.00029
5374.00000 0.00027
5376.00000 0.00024
5378.00000 0.00022
5380.00000 0.0002
5382.00000 0.00018
5384.00000 0.00017
5386.00000 0.00015
5388.00000 0.00014
5390.00000 0.00013
5392.00000 0.00012
5394.00000 0.00011
5396.00000 0.0001
5398.00000 9e-05
5400.00000 8e-05
5402.00000 7e-05
5404.00000 7e-05
5406.00000 6e-05
5408.00000 6e-05
5410.00000 5e-05
5412.00000 5e-05
5414.00000 5e-05
5416.00000 4e-05
5418.00000 4e-05
5420.00000 4e-05
5962.00000 0.0
