# %ECSV 0.9
# ---
# datatype:
# - {name: wavelength, unit: Angstrom, datatype: float32}
# - {name: response, datatype: float32}
# meta: !!omap
# - {band_name: v_z2}
# - {group_name: Stromgren}
wavelength response
3465.00000 0.0
3850.00000 4e-05
3852.00000 4e-05
3854.00000 4e-05
3856.00000 5e-05
3858.00000 5e-05
3860.00000 6e-05
3862.00000 6e-05
3864.00000 7e-05
3866.00000 7e-05
3868.00000 8e-05
3870.00000 9e-05
3872.00000 0.0001
3874.00000 0.00011
3876.00000 0.00012
3878.00000 0.00014
3880.00000 0.00016
3882.00000 0.00018
3884.00000 0.0002
3886.00000 0.00023
3888.00000 0.00026
3890.00000 0.00029
3892.00000 0.00034
3894.00000 0.0004
3896.00000 0.00046
3898.00000 0.00053
3900.00000 0.00062
3902.00000 0.00071
3904.00000 0.00084
3906.00000 0.00097
3908.00000 0.00111
3910.00000 0.00128
3912.00000 0.00145
3914.00000 0.00165
3916.00000 0.00186
3918.00000 0.00208
3920.00000 0.00229
3922.00000 0.00252
3924.00000 0.00271
3926.00000 0.0029
3928.00000 0.00309
3930.00000 0.00325
3932.00000 0.00339
3934.00000 0.00352
3936.00000 0.00365
3938.00000 0.00376
3940.00000 0.00385
3942.00000 0.00398
3944.00000 0.00407
3946.00000 0.00417
3948.00000 0.00431
3950.00000 0.00445
3952.00000 0.00459
3954.00000 0.00478
3956.00000 0.00494
3958.00000 0.00513
3960.00000 0.00543
3962.00000 0.00567
3964.00000 0.006
3966.00000 0.00637
3968.00000 0.00681
3970.00000 0.00727
3972.00000 0.00782
3974.00000 0.00845
3976.00000 0.00914
3978.00000 0.00998
3980.00000 0.01095
3982.00000 0.01205
3984.00000 0.01328
3986.00000 0.01472
3988.00000 0.01639
3990.00000 0.01836
3992.00000 0.0205
3994.00000 0.02326
3996.00000 0.02628
3998.00000 0.02991
4000.00000 0.03404
4002.00000 0.03883
4004.00000 0.04452
4006.00000 0.05103
4008.00000 0.05878
4010.00000 0.06723
4012.00000 0.07721
4014.00000 0.08817
4016.00000 0.10061
4018.00000 0.1142
4020.00000 0.12914
4022.00000 0.14544
4024.00000 0.16194
4026.00000 0.17923
4028.00000 0.19629
4030.00000 0.21335
4032.00000 0.22998
4034.00000 0.24638
4036.00000 0.26097
4038.00000 0.27453
4040.00000 0.28702
4042.00000 0.29853
4044.00000 0.3088
4046.00000 0.31862
4048.00000 0.32787
4050.00000 0.33607
4052.00000 0.34405
4054.00000 0.35116
4056.00000 0.35842
4058.00000 0.36542
4060.00000 0.37189
4062.00000 0.37831
4064.00000 0.38432
4066.00000 0.38998
4068.00000 0.39591
4070.00000 0.40057
4072.00000 0.40532
4074.00000 0.40923
4076.00000 0.41333
4078.00000 0.41646
4080.00000 0.41892
4082.00000 0.42105
4084.00000 0.42305
4086.00000 0.42433
4088.00000 0.42525
4090.00000 0.42597
4092.00000 0.42632
4094.00000 0.42623
4096.00000 0.42591
4098.00000 0.42573
4100.00000 0.42528
4102.00000 0.42484
4104.00000 0.42456
4106.00000 0.42415
4108.00000 0.42374
4110.00000 0.42322
4112.00000 0.4232
4114.00000 0.4225
4116.00000 0.42244
4118.00000 0.42215
4120.00000 0.42196
4122.00000 0.42208
4124.00000 0.42147
4126.00000 0.4213
4128.00000 0.42093
4130.00000 0.42054
4132.00000 0.41962
4134.00000 0.41904
4136.00000 0.41829
4138.00000 0.41734
4140.00000 0.41628
4142.00000 0.41534
4144.00000 0.41433
4146.00000 0.41315
4148.00000 0.41183
4150.00000 0.41063
4152.00000 0.40931
4154.00000 0.40802
4156.00000 0.4067
4158.00000 0.40574
4160.00000 0.40457
4162.00000 0.40389
4164.00000 0.40281
4166.00000 0.40177
4168.00000 0.4011
4170.00000 0.40058
4172.00000 0.39979
4174.00000 0.39897
4176.00000 0.39847
4178.00000 0.39766
4180.00000 0.39688
4182.00000 0.39533
4184.00000 0.39404
4186.00000 0.39238
4188.00000 0.39021
4190.00000 0.38756
4192.00000 0.3842
4194.00000 0.37983
4196.00000 0.37522
4198.00000 0.36998
4200.00000 0.36359
4202.00000 0.35625
4204.00000 0.34815
4206.00000 0.33881
4208.00000 0.32902
4210.00000 0.31857
4212.00000 0.30686
4214.00000 0.29507
4216.00000 0.28244
4218.00000 0.2695
4220.00000 0.25583
4222.00000 0.24278
4224.00000 0.22931
4226.00000 0.21625
4228.00000 0.20298
4230.00000 0.18998
4232.00000 0.1771
4234.00000 0.16496
4236.00000 0.15371
4238.00000 0.14256
4240.00000 0.13244
4242.00000 0.12249
4244.00000 0.11308
4246.00000 0.10408
4248.00000 0.09595
4250.00000 0.08818
4252.00000 0.081
4254.00000 0.07445
4256.00000 0.06841
4258.00000 0.06259
4260.00000 0.05731
4262.00000 0.05255
4264.00000 0.04812
4266.00000 0.04405
4268.00000 0.04032
4270.00000 0.0369
4272.00000 0.03371
4274.00000 0.0309
4276.00000 0.02831
4278.00000 0.02597
4280.00000 0.0238
4282.00000 0.02184
4284.00000 0.01996
4286.00000 0.01829
4288.00000 0.01679
4290.00000 0.01541
4292.00000 0.01416
4294.00000 0.01298
4296.00000 0.01193
4298.00000 0.01095
4300.00000 0.01007
4302.00000 0.00925
4304.00000 0.00854
4306.00000 0.00787
4308.00000 0.00726
4310.00000 0.00667
4312.00000 0.00614
4314.00000 0.00567
4316.00000 0.00524
4318.00000 0.00485
4320.00000 0.00447
4322.00000 0.00413
4324.00000 0.00383
4326.00000 0.00355
4328.00000 0.00329
4330.00000 0.00305
4332.00000 0.00285
4334.00000 0.00265
4336.00000 0.00248
4338.00000 0.0023
4340.00000 0.00215
4342.00000 0.00201
4344.00000 0.00188
4346.00000 0.00176
4348.00000 0.00165
4350.00000 0.00155
4352.00000 0.00145
4354.00000 0.00137
4356.00000 0.00129
4358.00000 0.00121
4360.00000 0.00115
4362.00000 0.00109
4364.00000 0.00102
4366.00000 0.00097
4368.00000 0.00092
4370.00000 0.00087
4372.00000 0.00082
4374.00000 0.00079
4376.00000 0.00074
4378.00000 0.00071
4380.00000 0.00068
4382.00000 0.00065
4384.00000 0.00062
4386.00000 0.0006
4388.00000 0.00057
4390.00000 0.00055
4392.00000 0.00052
4394.00000 0.0005
4396.00000 0.00048
4398.00000 0.00047
4400.00000 0.00045
4402.00000 0.00043
4404.00000 0.00042
4406.00000 0.00041
4408.00000 0.0004
4410.00000 0.00039
4412.00000 0.00038
4414.00000 0.00037
4416.00000 0.00036
4418.00000 0.00036
4420.00000 0.00034
4422.00000 0.00034
4424.00000 0.00033
4426.00000 0.00033
4428.00000 0.00033
4430.00000 0.00032
4432.00000 0.00031
4434.00000 0.00031
4436.00000 0.00031
4438.00000 0.00031
4440.00000 0.00031
4442.00000 0.00031
4444.00000 0.00031
4446.00000 0.00031
4448.00000 0.00031
4450.00000 0.00032
4452.00000 0.00032
4454.00000 0.00032
4456.00000 0.00032
4458.00000 0.00033
4460.00000 0.00033
4462.00000 0.00032
4464.00000 0.00033
4466.00000 0.00033
4468.00000 0.00033
4470.00000 0.00033
4472.00000 0.00033
4474.00000 0.00033
4476.00000 0.00033
4478.00000 0.00032
4480.00000 0.00031
4482.00000 0.0003
4484.00000 0.00029
4486.00000 0.00028
4488.00000 0.00026
4490.00000 0.00025
4492.00000 0.00023
4494.00000 0.00021
4496.00000 0.0002
4498.00000 0.00018
4500.00000 0.00017
4502.00000 0.00015
4504.00000 0.00014
4506.00000 0.00012
4508.00000 0.00011
4510.00000 0.0001
4512.00000 9e-05
4514.00000 8e-05
4516.00000 7e-05
4518.00000 7e-05
4520.00000 6e-05
4522.00000 5e-05
4524.00000 5e-05
4526.00000 4e-05
4528.00000 4e-05
4530.00000 4e-05
4983.00000 0.0
