# %ECSV 0.9
# ---
# datatype:
# - {name: wavelength, unit: Angstrom, datatype: float32}
# - {name: response, datatype: float32}
# meta: !!omap
# - {band_name: CH4s}
# - {group_name: NOTcam}
wavelength response
13278.78027 0.0
14754.20020 0.00527
14757.40039 0.0058
14760.50000 0.005745
14763.70020 0.004593
14766.79980 0.000705
14770.00000 0.000878
14773.09961 0.000825
14776.29980 0.002735
14779.40039 0.001541
14782.59961 0.0
14785.70020 0.0
14788.90039 0.0
14792.09961 0.0
14795.20020 0.004116
14798.40039 0.005481
14801.50000 0.005458
14804.70020 0.005435
14807.79980 0.00609
14811.00000 0.006366
14814.09961 0.007062
14817.29980 0.008083
14820.40039 0.008744
14823.59961 0.008705
14826.79980 0.007893
14829.90039 0.008778
14833.09961 0.00873
14836.20020 0.007436
14839.40039 0.007874
14842.50000 0.007945
14845.70020 0.008105
14848.79980 0.010438
14852.00000 0.012229
14855.09961 0.012172
14858.29980 0.012121
14861.50000 0.012099
14864.59961 0.011066
14867.79980 0.00847
14870.90039 0.00842
14874.09961 0.008736
14877.20020 0.010775
14880.40039 0.011512
14883.50000 0.011437
14886.70020 0.011423
14889.79980 0.011317
14893.00000 0.011279
14896.20020 0.011052
14899.29980 0.01055
14902.50000 0.010547
14905.59961 0.01097
14908.79980 0.011004
14911.90039 0.011182
14915.09961 0.011669
14918.20020 0.011441
14921.40039 0.011333
14924.50000 0.011444
14927.70020 0.011951
14930.90039 0.012169
14934.00000 0.012605
14937.20020 0.012968
14940.29980 0.012886
14943.50000 0.012784
14946.59961 0.013325
14949.79980 0.01447
14952.90039 0.014621
14956.09961 0.014608
14959.20020 0.014623
14962.40039 0.014705
14965.59961 0.014894
14968.70020 0.015955
14971.90039 0.016607
14975.00000 0.016551
14978.20020 0.016556
14981.29980 0.016573
14984.50000 0.01687
14987.59961 0.017218
14990.79980 0.017211
14993.90039 0.01717
14997.09961 0.018056
15000.29980 0.018379
15003.40039 0.018309
15006.59961 0.018054
15009.70020 0.017897
15012.90039 0.017911
15016.00000 0.017877
15019.20020 0.018707
15022.29980 0.019822
15025.50000 0.020063
15028.59961 0.020621
15031.79980 0.020581
15035.00000 0.020979
15038.09961 0.021704
15041.29980 0.021857
15044.40039 0.022157
15047.59961 0.022158
15050.70020 0.021952
15053.90039 0.022606
15057.00000 0.02327
15060.20020 0.023356
15063.29980 0.023868
15066.50000 0.025636
15069.70020 0.025946
15072.79980 0.025924
15076.00000 0.025793
15079.09961 0.02716
15082.29980 0.028773
15085.40039 0.02879
15088.59961 0.0293
15091.70020 0.030252
15094.90039 0.031176
15098.00000 0.031796
15101.20020 0.032142
15104.40039 0.032174
15107.50000 0.033649
15110.70020 0.034895
15113.79980 0.03573
15117.00000 0.036078
15120.09961 0.037291
15123.29980 0.038568
15126.40039 0.03952
15129.59961 0.039966
15132.70020 0.040613
15135.90039 0.040702
15139.09961 0.042329
15142.20020 0.043325
15145.40039 0.044276
15148.50000 0.046032
15151.70020 0.047504
15154.79980 0.048137
15158.00000 0.0486
15161.09961 0.050704
15164.29980 0.052898
15167.40039 0.05333
15170.59961 0.053402
15173.79980 0.054656
15176.90039 0.057778
15180.09961 0.059612
15183.20020 0.060069
15186.40039 0.062258
15189.50000 0.06423
15192.70020 0.064983
15195.79980 0.068357
15199.00000 0.069743
15202.09961 0.071858
15205.29980 0.072901
15208.50000 0.075412
15211.59961 0.077087
15214.79980 0.077053
15217.90039 0.081389
15221.09961 0.083126
15224.20020 0.085541
15227.40039 0.089118
15230.50000 0.0916
15233.70020 0.095953
15236.79980 0.099683
15240.00000 0.099885
15243.20020 0.102064
15246.29980 0.105111
15249.50000 0.107959
15252.59961 0.111828
15255.79980 0.113986
15258.90039 0.116778
15262.09961 0.12069
15265.20020 0.124685
15268.40039 0.127936
15271.50000 0.131951
15274.70020 0.136001
15277.90039 0.139486
15281.00000 0.142192
15284.20020 0.144248
15287.29980 0.151331
15290.50000 0.156871
15293.59961 0.158293
15296.79980 0.162362
15299.90039 0.168192
15303.09961 0.17351
15306.20020 0.177289
15309.40039 0.182758
15312.59961 0.187725
15315.70020 0.193606
15318.90039 0.198929
15322.00000 0.203137
15325.20020 0.20824
15328.29980 0.21467
15331.50000 0.22112
15334.59961 0.227363
15337.79980 0.23274
15340.90039 0.239108
15344.09961 0.246554
15347.29980 0.251777
15350.40039 0.259106
15353.59961 0.265242
15356.70020 0.272855
15359.90039 0.279241
15363.00000 0.285405
15366.20020 0.292646
15369.29980 0.300425
15372.50000 0.307557
15375.59961 0.315527
15378.79980 0.323417
15382.00000 0.330122
15385.09961 0.337961
15388.29980 0.34539
15391.40039 0.353358
15394.59961 0.361293
15397.70020 0.368418
15400.90039 0.376864
15404.00000 0.385521
15407.20020 0.392684
15410.29980 0.401083
15413.50000 0.408393
15416.70020 0.416738
15419.79980 0.424108
15423.00000 0.432216
15426.09961 0.44108
15429.29980 0.449492
15432.40039 0.457694
15435.59961 0.466145
15438.70020 0.473008
15441.90039 0.485942
15445.00000 0.498609
15448.20020 0.50679
15451.40039 0.50849
15454.50000 0.514084
15457.70020 0.521076
15460.79980 0.530693
15464.00000 0.539779
15467.09961 0.545128
15470.29980 0.552774
15473.40039 0.560654
15476.59961 0.568072
15479.70020 0.574261
15482.90039 0.581736
15486.09961 0.590242
15489.20020 0.595531
15492.40039 0.601682
15495.50000 0.608016
15498.70020 0.613381
15501.79980 0.622587
15505.00000 0.627298
15508.09961 0.633406
15511.29980 0.639384
15514.40039 0.644013
15517.59961 0.648873
15520.79980 0.655664
15523.90039 0.662258
15527.09961 0.666026
15530.20020 0.66995
15533.40039 0.674463
15536.50000 0.678702
15539.70020 0.685141
15542.79980 0.689523
15546.00000 0.695083
15549.09961 0.698348
15552.29980 0.700257
15555.50000 0.70562
15558.59961 0.70775
15561.79980 0.71186
15564.90039 0.715752
15568.09961 0.718263
15571.20020 0.718841
15574.40039 0.723626
15577.50000 0.727444
15580.70020 0.729483
15583.79980 0.731153
15587.00000 0.734712
15590.20020 0.735934
15593.29980 0.736733
15596.50000 0.738235
15599.59961 0.73972
15602.79980 0.744508
15605.90039 0.746035
15609.09961 0.747933
15612.20020 0.750067
15615.40039 0.750591
15618.50000 0.753832
15621.70020 0.756898
15624.90039 0.757518
15628.00000 0.758325
15631.20020 0.759687
15634.29980 0.761435
15637.50000 0.764826
15640.59961 0.767989
15643.79980 0.769334
15646.90039 0.769546
15650.09961 0.770358
15653.20020 0.770509
15656.40039 0.770958
15659.59961 0.773285
15662.70020 0.774268
15665.90039 0.776672
15669.00000 0.777816
15672.20020 0.779421
15675.29980 0.780387
15678.50000 0.782511
15681.59961 0.784517
15684.79980 0.785469
15687.90039 0.785867
15691.09961 0.785216
15694.29980 0.785293
15697.40039 0.785289
15700.59961 0.785274
15703.70020 0.785638
15706.90039 0.788175
15710.00000 0.788873
15713.20020 0.788779
15716.29980 0.789041
15719.50000 0.78908
15722.59961 0.789071
15725.79980 0.789498
15729.00000 0.790543
15732.09961 0.790548
15735.29980 0.790728
15738.40039 0.791251
15741.59961 0.791235
15744.70020 0.791242
15747.90039 0.792363
15751.00000 0.793932
15754.20020 0.794863
15757.29980 0.795918
15760.50000 0.796061
15763.59961 0.796049
15766.79980 0.796011
15770.00000 0.795984
15773.09961 0.795987
15776.29980 0.795987
15779.40039 0.795985
15782.59961 0.796102
15785.70020 0.796032
15788.90039 0.795814
15792.00000 0.795692
15795.20020 0.794283
15798.29980 0.793451
15801.50000 0.792744
15804.70020 0.791465
15807.79980 0.791416
15811.00000 0.79094
15814.09961 0.789246
15817.29980 0.789122
15820.40039 0.788415
15823.59961 0.786961
15826.70020 0.784906
15829.90039 0.78418
15833.00000 0.783458
15836.20020 0.782891
15839.40039 0.782628
15842.50000 0.782033
15845.70020 0.781921
15848.79980 0.781841
15852.00000 0.780262
15855.09961 0.777729
15858.29980 0.776001
15861.40039 0.774703
15864.59961 0.771238
15867.70020 0.768507
15870.90039 0.767315
15874.09961 0.766945
15877.20020 0.764898
15880.40039 0.760898
15883.50000 0.756486
15886.70020 0.754919
15889.79980 0.754172
15893.00000 0.753538
15896.09961 0.751673
15899.29980 0.750517
15902.40039 0.746847
15905.59961 0.744501
15908.79980 0.743904
15911.90039 0.740381
15915.09961 0.73838
15918.20020 0.735805
15921.40039 0.73315
15924.50000 0.732561
15927.70020 0.728604
15930.79980 0.72255
15934.00000 0.721495
15937.09961 0.719867
15940.29980 0.716729
15943.50000 0.71613
15946.59961 0.714164
15949.79980 0.709967
15952.90039 0.706759
15956.09961 0.705392
15959.20020 0.703555
15962.40039 0.701947
15965.50000 0.701174
15968.70020 0.698198
15971.79980 0.694867
15975.00000 0.69256
15978.20020 0.688819
15981.29980 0.68606
15984.50000 0.684401
15987.59961 0.682467
15990.79980 0.681192
15993.90039 0.67827
15997.09961 0.677059
16000.20020 0.675582
16003.40039 0.671043
16006.50000 0.669024
16009.70020 0.665934
16012.90039 0.662638
16016.00000 0.662465
16019.20020 0.659245
16022.29980 0.657064
16025.50000 0.655851
16028.59961 0.654673
16031.79980 0.654038
16034.90039 0.650711
16038.09961 0.648416
16041.20020 0.646
16044.40039 0.642616
16047.59961 0.641012
16050.70020 0.640281
16053.90039 0.635822
16057.00000 0.632599
16060.20020 0.631909
16063.29980 0.630252
16066.50000 0.629538
16069.59961 0.627289
16072.79980 0.626074
16075.90039 0.625526
16079.09961 0.623383
16082.29980 0.622361
16085.40039 0.620007
16088.59961 0.618695
16091.70020 0.617193
16094.90039 0.615388
16098.00000 0.614532
16101.20020 0.614387
16104.29980 0.611996
16107.50000 0.610185
16110.59961 0.609936
16113.79980 0.609214
16117.00000 0.606106
16120.09961 0.604251
16123.29980 0.602876
16126.40039 0.602352
16129.59961 0.602417
16132.70020 0.602423
16135.90039 0.601784
16139.00000 0.601445
16142.20020 0.601455
16145.29980 0.600386
16148.50000 0.599338
16151.70020 0.59963
16154.79980 0.599961
16158.00000 0.599877
16161.09961 0.599836
16164.29980 0.599826
16167.40039 0.600205
16170.59961 0.599253
16173.70020 0.599457
16176.90039 0.599814
16180.00000 0.601502
16183.20020 0.602396
16186.40039 0.602419
16189.50000 0.603257
16192.70020 0.603861
16195.79980 0.603982
16199.00000 0.605523
16202.09961 0.606997
16205.29980 0.608385
16208.40039 0.609043
16211.59961 0.610013
16214.70020 0.610821
16217.90039 0.611556
16221.09961 0.613648
16224.20020 0.615821
16227.40039 0.618722
16230.50000 0.620439
16233.70020 0.621513
16236.79980 0.622499
16240.00000 0.623947
16243.09961 0.626108
16246.29980 0.629479
16249.40039 0.631192
16252.59961 0.633904
16255.79980 0.636589
16258.90039 0.638658
16262.09961 0.644228
16265.20020 0.646968
16268.40039 0.648562
16271.50000 0.652492
16274.70020 0.657016
16277.79980 0.659499
16281.00000 0.660245
16284.09961 0.662946
16287.29980 0.664214
16290.50000 0.667597
16293.59961 0.674843
16296.79980 0.677993
16299.90039 0.679222
16303.09961 0.681539
16306.20020 0.685402
16309.40039 0.688998
16312.50000 0.692465
16315.70020 0.697387
16318.79980 0.698585
16322.00000 0.702016
16325.20020 0.704383
16328.29980 0.709703
16331.50000 0.712814
16334.59961 0.714656
16337.79980 0.722581
16340.90039 0.727059
16344.09961 0.729241
16347.20020 0.731392
16350.40039 0.733453
16353.50000 0.740275
16356.70020 0.741705
16359.90039 0.742939
16363.00000 0.746278
16366.20020 0.747149
16369.29980 0.747223
16372.50000 0.747621
16375.59961 0.747729
16378.79980 0.750245
16381.90039 0.754657
16385.09961 0.755753
16388.19922 0.755613
16391.40039 0.753401
16394.59961 0.752109
16397.69922 0.751254
16400.90039 0.748807
16404.00000 0.746971
16407.19922 0.747077
16410.30078 0.741869
16413.50000 0.737886
16416.59961 0.738356
16419.80078 0.732823
16422.90039 0.724678
16426.09961 0.722537
16429.30078 0.719616
16432.40039 0.712712
16435.59961 0.708617
16438.69922 0.701383
16441.90039 0.691505
16445.00000 0.687155
16448.19922 0.680026
16451.30078 0.671937
16454.50000 0.664514
16457.59961 0.655753
16460.80078 0.649685
16464.00000 0.641256
16467.09961 0.628103
16470.30078 0.617339
16473.40039 0.608543
16476.59961 0.598352
16479.69922 0.586974
16482.90039 0.576619
16486.00000 0.565693
16489.19922 0.554848
16492.30078 0.543477
16495.50000 0.531914
16498.69922 0.520791
16501.80078 0.509761
16505.00000 0.498743
16508.09961 0.486152
16511.30078 0.476269
16514.40039 0.463896
16517.59961 0.45294
16520.69922 0.441722
16523.90039 0.428924
16527.00000 0.418662
16530.19922 0.409258
16533.40039 0.399168
16536.50000 0.388317
16539.69922 0.378933
16542.80078 0.369093
16546.00000 0.356859
16549.09961 0.346733
16552.30078 0.337289
16555.40039 0.328357
16558.59961 0.318629
16561.69922 0.309793
16564.90039 0.300928
16568.09961 0.291825
16571.19922 0.28431
16574.40039 0.275954
16577.50000 0.267157
16580.69922 0.259877
16583.80078 0.25255
16587.00000 0.244205
16590.09961 0.236939
16593.30078 0.23123
16596.40039 0.225048
16599.59961 0.217194
16602.80078 0.209894
16605.90039 0.204315
16609.09961 0.199171
16612.19922 0.193571
16615.40039 0.187215
16618.50000 0.182327
16621.69922 0.178102
16624.80078 0.172389
16628.00000 0.167586
16631.09961 0.162351
16634.30078 0.158057
16637.50000 0.154288
16640.59961 0.150832
16643.80078 0.145905
16646.90039 0.141148
16650.09961 0.137741
16653.19922 0.131662
16656.40039 0.126796
16659.50000 0.125648
16662.69922 0.121354
16665.80078 0.119863
16669.00000 0.118598
16672.19922 0.115858
16675.30078 0.111186
16678.50000 0.107448
16681.59961 0.104771
16684.80078 0.101426
16687.90039 0.098931
16691.09961 0.09477
16694.19922 0.090689
16697.40039 0.090645
16700.50000 0.088858
16703.69922 0.086758
16706.90039 0.08556
16710.00000 0.082153
16713.19922 0.079167
16716.30078 0.078606
16719.50000 0.076199
16722.59961 0.074563
16725.80078 0.072518
16728.90039 0.07132
16732.09961 0.068673
16735.19922 0.066258
16738.40039 0.064912
16741.59961 0.063873
16744.69922 0.062931
16747.90039 0.06029
16751.00000 0.058355
16754.19922 0.058478
16757.30078 0.057979
16760.50000 0.056552
16763.59961 0.054303
16766.80078 0.052955
16769.90039 0.052598
16773.09961 0.050959
16776.30078 0.0496
16779.40039 0.049333
16782.59961 0.049067
16785.69922 0.048914
16788.90039 0.04887
16792.00000 0.046906
16795.19922 0.045561
16798.30078 0.043584
16801.50000 0.042405
16804.59961 0.042172
16807.80078 0.04058
16811.00000 0.03902
16814.09961 0.038342
16817.30078 0.03764
16820.40039 0.036957
16823.59961 0.036586
16826.69922 0.037323
16829.90039 0.03741
16833.00000 0.037198
16836.19922 0.036687
16839.30078 0.036418
16842.50000 0.03432
16845.69922 0.033627
16848.80078 0.032918
16852.00000 0.032223
16855.09961 0.031539
16858.30078 0.030475
16861.40039 0.028544
16864.59961 0.027482
16867.69922 0.027616
16870.90039 0.027509
16874.00000 0.027248
16877.19922 0.027102
16880.40039 0.027027
16883.50000 0.026317
16886.69922 0.024844
16889.80078 0.023665
16893.00000 0.02354
16896.09961 0.023524
16899.30078 0.022895
16902.40039 0.02272
16905.59961 0.022767
16908.69922 0.022596
16911.90039 0.022146
16915.09961 0.021911
16918.19922 0.02208
16921.40039 0.021111
16924.50000 0.019857
16927.69922 0.019977
16930.80078 0.019927
16934.00000 0.019841
16937.09961 0.01976
16940.30078 0.019493
16943.40039 0.019846
16946.59961 0.020607
16949.80078 0.020715
16952.90039 0.020228
16956.09961 0.020175
16959.19922 0.017944
16962.40039 0.016678
16965.50000 0.016892
16968.69922 0.016845
16971.80078 0.016423
16975.00000 0.01686
16978.09961 0.018304
16981.30078 0.017511
16984.50000 0.015543
16987.59961 0.015517
16990.80078 0.015527
16993.90039 0.01534
16997.09961 0.01531
17000.19922 0.015315
17003.40039 0.015299
17006.50000 0.015699
17009.69922 0.01596
17012.80078 0.015419
17016.00000 0.013965
17019.19922 0.013126
17022.30078 0.012783
17025.50000 0.012032
17028.59961 0.012056
17031.80078 0.012023
17034.90039 0.011899
17038.09961 0.011527
17041.19922 0.011483
17044.40039 0.011498
17047.50000 0.011491
17050.69922 0.011465
17053.90039 0.011985
17057.00000 0.012345
17060.19922 0.01174
17063.30078 0.011786
17066.50000 0.012926
17069.59961 0.013623
17072.80078 0.013027
17075.90039 0.01169
17079.09961 0.01162
17082.19922 0.011277
17085.40039 0.010981
17088.59961 0.010913
17091.69922 0.010806
17094.90039 0.010744
17098.00000 0.010732
17101.19922 0.010845
17104.30078 0.010949
17107.50000 0.011277
17110.59961 0.011642
17113.80078 0.011429
17116.90039 0.010876
17120.09961 0.010657
17123.30078 0.010153
17126.40039 0.008473
17129.59961 0.010233
17132.69922 0.010638
17135.90039 0.009404
17139.00000 0.009017
17142.19922 0.009139
17145.30078 0.008689
17148.50000 0.008343
17151.59961 0.00839
17154.80078 0.008406
17158.00000 0.008275
17161.09961 0.008341
17164.30078 0.009
17167.40039 0.009206
17170.59961 0.01031
17173.69922 0.010762
17176.90039 0.010774
17180.00000 0.010763
17183.19922 0.010892
17186.30078 0.009527
17189.50000 0.008479
17192.69922 0.008628
17195.80078 0.008624
17199.00000 0.008621
17202.09961 0.008624
17205.30078 0.008587
17208.40039 0.008266
17211.59961 0.00732
17214.69922 0.006174
17217.90039 0.005953
17221.00000 0.005931
17224.19922 0.007389
17227.40039 0.008268
17230.50000 0.00818
17233.69922 0.007813
17236.80078 0.00703
17240.00000 0.006262
17243.09961 0.005518
17246.30078 0.005437
17249.40039 0.005709
17252.59961 0.007552
17255.69922 0.008112
17258.90039 0.009282
17262.09961 0.009993
17265.19922 0.010005
17268.40039 0.010129
17271.50000 0.009155
17274.69922 0.007896
17277.80078 0.007458
17281.00000 0.006764
17284.09961 0.006645
17287.30078 0.006151
17290.40039 0.006072
17293.59961 0.006125
17296.80078 0.007171
17299.90039 0.007537
17303.09961 0.00772
17306.19922 0.007668
17309.40039 0.007505
17312.50000 0.007207
17315.69922 0.006715
17318.80078 0.006648
17322.00000 0.00705
17325.09961 0.008635
17328.30078 0.008799
17331.50000 0.008733
17334.59961 0.008459
17337.80078 0.008059
17340.90039 0.007135
17344.09961 0.006628
17347.19922 0.006796
17350.40039 0.006903
17353.50000 0.006848
17356.69922 0.007051
17359.80078 0.0077
17363.00000 0.007838
17366.19922 0.007879
17369.30078 0.00804
17372.50000 0.008087
17375.59961 0.007941
17378.80078 0.007847
17381.90039 0.007237
17385.09961 0.006837
17388.19922 0.006076
17391.40039 0.005331
17394.50000 0.006781
17397.69922 0.007043
17400.90039 0.007373
17404.00000 0.00742
17407.19922 0.007403
17410.30078 0.007822
17413.50000 0.007401
17416.59961 0.006852
17419.80078 0.006267
17422.90039 0.006126
17426.09961 0.006711
17429.19922 0.006876
17432.40039 0.007476
17435.59961 0.007505
17438.69922 0.007507
17441.90039 0.007657
17445.00000 0.007149
17448.19922 0.006861
17451.30078 0.007247
17454.50000 0.007558
17457.59961 0.007283
17460.80078 0.00716
17463.90039 0.007435
17467.09961 0.006906
17470.30078 0.006341
17473.40039 0.006922
17476.59961 0.007363
17479.69922 0.007412
17482.90039 0.007386
17486.00000 0.007506
17489.19922 0.006598
17492.30078 0.005034
17495.50000 0.004442
17498.59961 0.004437
19248.45898 0.0
