# %ECSV 0.9
# ---
# datatype:
# - {name: wavelength, unit: Angstrom, datatype: float32}
# - {name: response, datatype: float32}
# meta: !!omap
# - {band_name: SDSS_z}
# - {group_name: StanCam}
wavelength response
6971.93994 0.0
7746.60010 0.004056
7759.60010 0.003912
7772.70020 0.003864
7785.70020 0.004257
7798.70020 0.004292
7811.70020 0.004239
7824.70020 0.004267
7837.70020 0.004524
7850.79980 0.004568
7863.79980 0.004735
7876.79980 0.00502
7889.79980 0.004982
7902.79980 0.005225
7915.89990 0.005841
7928.89990 0.006017
7941.89990 0.006187
7954.89990 0.007019
7967.89990 0.007713
7981.00000 0.008247
7994.00000 0.009267
8007.00000 0.010637
8020.00000 0.011998
8033.00000 0.013799
8046.10010 0.016348
8059.10010 0.019847
8072.10010 0.023017
8085.10010 0.026906
8098.10010 0.032445
8111.10010 0.03874
8124.20020 0.045856
8137.20020 0.053558
8150.20020 0.063204
8163.20020 0.07483
8176.20020 0.087323
8189.29980 0.101227
8202.29980 0.117045
8215.29980 0.134087
8228.29980 0.152911
8241.29980 0.173256
8254.40039 0.193858
8267.40039 0.216452
8280.40039 0.239851
8293.40039 0.263101
8306.40039 0.286637
8319.40039 0.311593
8332.50000 0.338702
8345.50000 0.367465
8358.50000 0.390012
8371.50000 0.415938
8384.50000 0.441157
8397.59961 0.465516
8410.59961 0.490001
8423.59961 0.514702
8436.59961 0.538284
8449.59961 0.560071
8462.70020 0.579838
8475.70020 0.600792
8488.70020 0.623085
8501.70020 0.643971
8514.70020 0.660544
8527.79980 0.676186
8540.79980 0.690604
8553.79980 0.707279
8566.79980 0.720974
8579.79980 0.733717
8592.79980 0.745759
8605.90039 0.756153
8618.90039 0.768597
8631.90039 0.776258
8644.90039 0.78387
8657.90039 0.792784
8671.00000 0.803377
8684.00000 0.811586
8697.00000 0.816846
8710.00000 0.820436
8723.00000 0.827794
8736.09961 0.836362
8749.09961 0.840261
8762.09961 0.842822
8775.09961 0.845714
8788.09961 0.855842
8801.20020 0.861863
8814.20020 0.861509
8827.20020 0.867218
8840.20020 0.869194
8853.20020 0.870559
8866.20020 0.876711
8879.29980 0.878533
8892.29980 0.879267
8905.29980 0.879528
8918.29980 0.882664
8931.29980 0.88532
8944.40039 0.891381
8957.40039 0.886189
8970.40039 0.886911
8983.40039 0.89068
8996.40039 0.89584
9009.50000 0.896668
9022.50000 0.893946
9035.50000 0.89764
9048.50000 0.897138
9061.50000 0.8971
9074.50000 0.896231
9087.59961 0.897663
9100.59961 0.899561
9113.59961 0.904202
9126.59961 0.902075
9139.59961 0.899367
9152.70020 0.899719
9165.70020 0.904477
9178.70020 0.905642
9191.70020 0.907489
9204.70020 0.909613
9217.79980 0.909403
9230.79980 0.909028
9243.79980 0.90977
9256.79980 0.91339
9269.79980 0.90806
9282.90039 0.907789
9295.90039 0.914653
9308.90039 0.913534
9321.90039 0.915106
9334.90039 0.917748
9347.90039 0.915755
9361.00000 0.912387
9374.00000 0.916416
9387.00000 0.916211
9400.00000 0.913983
9413.00000 0.917367
9426.09961 0.915241
9439.09961 0.915726
9452.09961 0.911973
9465.09961 0.912303
9478.09961 0.914217
9491.20020 0.915995
9504.20020 0.92156
9517.20020 0.920543
9530.20020 0.920105
9543.20020 0.91469
9556.29980 0.917808
9569.29980 0.916369
9582.29980 0.919661
9595.29980 0.923202
9608.29980 0.920346
9621.29980 0.920177
9634.40039 0.918467
9647.40039 0.918648
9660.40039 0.918057
9673.40039 0.916107
9686.40039 0.917352
9699.50000 0.917071
9712.50000 0.915858
9725.50000 0.915064
9738.50000 0.921168
9751.50000 0.919871
9764.59961 0.921332
9777.59961 0.922722
9790.59961 0.923577
9803.59961 0.927401
9816.59961 0.922663
9829.59961 0.928504
9842.70020 0.925209
9855.70020 0.918305
9868.70020 0.923385
9881.70020 0.916617
9894.70020 0.918907
9907.79980 0.91813
9920.79980 0.918156
9933.79980 0.921297
9946.79980 0.925944
9959.79980 0.926273
9972.90039 0.918864
9985.90039 0.911408
9998.90039 0.908355
10011.90039 0.91151
10024.90039 0.917351
10038.00000 0.919754
10051.00000 0.917422
10064.00000 0.914861
10077.00000 0.918348
10090.00000 0.915368
10103.00000 0.905567
10116.09961 0.91723
10129.09961 0.91219
10142.09961 0.911688
10155.09961 0.902811
10168.09961 0.898537
10181.20020 0.891284
10194.20020 0.88992
10207.20020 0.901813
10220.20020 0.892846
10233.20020 0.897808
10246.29980 0.888563
10259.29980 0.879869
10272.29980 0.882419
10285.29980 0.893871
10298.29980 0.904195
10311.40039 0.886658
11342.54004 0.0
