# %ECSV 0.9
# ---
# datatype:
# - {name: wavelength, unit: Angstrom, datatype: float32}
# - {name: response, datatype: float32}
# meta: !!omap
# - {band_name: Zprime}
# - {group_name: CFH12k}
wavelength response
7344.00000 0.0
8160.00000 0.0036
8180.00000 0.00591
8200.00000 0.00941
8220.00000 0.01437
8240.00000 0.02634
8260.00000 0.04065
8280.00000 0.05832
8300.00000 0.07951
8320.00000 0.10475
8340.00000 0.13353
8360.00000 0.16608
8380.00000 0.20195
8400.00000 0.23564
8420.00000 0.27214
8440.00000 0.31032
8460.00000 0.34964
8480.00000 0.38908
8500.00000 0.42906
8520.00000 0.4686
8540.00000 0.50754
8560.00000 0.54552
8580.00000 0.58212
8600.00000 0.61661
8620.00000 0.64949
8640.00000 0.68044
8660.00000 0.70876
8680.00000 0.73509
8700.00000 0.7592
8720.00000 0.7814
8740.00000 0.80104
8760.00000 0.81891
8780.00000 0.83485
8800.00000 0.84917
8820.00000 0.86206
8840.00000 0.87335
8860.00000 0.88341
8880.00000 0.89197
8900.00000 0.89986
8920.00000 0.90695
8940.00000 0.91293
8960.00000 0.91821
8980.00000 0.92314
9000.00000 0.92749
9020.00000 0.93135
9040.00000 0.93498
9060.00000 0.93808
9080.00000 0.94092
9100.00000 0.94344
9120.00000 0.94571
9140.00000 0.94763
9160.00000 0.94939
9180.00000 0.95099
9200.00000 0.95241
9220.00000 0.95378
9240.00000 0.95494
9260.00000 0.95609
9280.00000 0.95711
9300.00000 0.95804
9320.00000 0.95892
9340.00000 0.9597
9360.00000 0.96042
9380.00000 0.96106
9400.00000 0.96172
9420.00000 0.9623
9440.00000 0.96284
9460.00000 0.96347
9480.00000 0.96394
9500.00000 0.96446
9520.00000 0.9649
9540.00000 0.96542
9560.00000 0.96584
9580.00000 0.96625
9600.00000 0.96672
9620.00000 0.96698
9640.00000 0.96727
9660.00000 0.96758
9680.00000 0.96791
9700.00000 0.96819
9720.00000 0.96855
9740.00000 0.9689
9760.00000 0.96915
9780.00000 0.96951
9800.00000 0.96983
9820.00000 0.97017
9840.00000 0.97046
9860.00000 0.97073
9880.00000 0.97095
9900.00000 0.97116
9920.00000 0.97145
9940.00000 0.97165
9960.00000 0.97191
9980.00000 0.97214
10000.00000 0.9724
10020.00000 0.97263
10040.00000 0.97289
10060.00000 0.97313
10080.00000 0.97334
10100.00000 0.9736
10120.00000 0.97375
10140.00000 0.97394
10160.00000 0.97411
10180.00000 0.97426
10200.00000 0.97438
10220.00000 0.97452
10240.00000 0.97461
10260.00000 0.97473
10280.00000 0.97487
10300.00000 0.97496
10320.00000 0.97507
10340.00000 0.97513
10360.00000 0.97522
10380.00000 0.97528
10400.00000 0.97534
10420.00000 0.97542
10440.00000 0.97549
10460.00000 0.97556
10480.00000 0.97562
10500.00000 0.97572
10520.00000 0.97577
10540.00000 0.97585
10560.00000 0.97586
10580.00000 0.9758
10600.00000 0.97575
10620.00000 0.97575
10640.00000 0.97568
10660.00000 0.97563
10680.00000 0.97557
10700.00000 0.97548
10720.00000 0.97542
10740.00000 0.9754
10760.00000 0.97533
10780.00000 0.97523
10800.00000 0.97514
10820.00000 0.97502
10840.00000 0.9749
10860.00000 0.97478
10880.00000 0.97461
10900.00000 0.97441
10920.00000 0.97424
10940.00000 0.97408
10960.00000 0.97391
10980.00000 0.97372
11000.00000 0.97351
11020.00000 0.9733
11040.00000 0.9731
11060.00000 0.97292
11080.00000 0.97267
11100.00000 0.97244
11120.00000 0.97217
11140.00000 0.97191
11160.00000 0.97166
11180.00000 0.97137
11200.00000 0.9711
11220.00000 0.97078
11240.00000 0.97049
11260.00000 0.9702
11280.00000 0.96989
11300.00000 0.96957
11320.00000 0.96924
11340.00000 0.96892
11360.00000 0.96858
11380.00000 0.96826
11400.00000 0.96788
11420.00000 0.96745
11440.00000 0.96704
11460.00000 0.96666
11480.00000 0.96625
11500.00000 0.96581
11520.00000 0.96538
11540.00000 0.9649
11560.00000 0.96443
11580.00000 0.964
11600.00000 0.96358
11620.00000 0.96307
11640.00000 0.96257
11660.00000 0.9621
11680.00000 0.96156
11700.00000 0.96109
11720.00000 0.9606
11740.00000 0.96011
11760.00000 0.95956
11780.00000 0.95906
11800.00000 0.95853
11820.00000 0.95796
11840.00000 0.95743
11860.00000 0.95689
11880.00000 0.95634
11900.00000 0.95576
11920.00000 0.95522
11940.00000 0.95464
11960.00000 0.95406
11980.00000 0.95348
12000.00000 0.9529
12020.00000 0.95229
12040.00000 0.95166
12060.00000 0.95105
12080.00000 0.95042
12100.00000 0.9498
12120.00000 0.94919
12140.00000 0.94855
12160.00000 0.94792
12180.00000 0.94727
12200.00000 0.94661
12220.00000 0.94589
12240.00000 0.94525
12260.00000 0.94455
12280.00000 0.94386
12300.00000 0.94316
12320.00000 0.94243
12340.00000 0.9417
12360.00000 0.94099
12380.00000 0.94031
12400.00000 0.93956
12420.00000 0.93889
12440.00000 0.93816
12460.00000 0.93742
12480.00000 0.93669
12500.00000 0.93597
12520.00000 0.93523
12540.00000 0.93446
12560.00000 0.9337
12580.00000 0.93289
12600.00000 0.93213
12620.00000 0.93132
12640.00000 0.93054
12660.00000 0.92976
12680.00000 0.92894
12700.00000 0.92813
12720.00000 0.92734
12740.00000 0.92653
12760.00000 0.92575
12780.00000 0.92499
12800.00000 0.92419
12820.00000 0.9234
12840.00000 0.92262
12860.00000 0.92184
12880.00000 0.92107
12900.00000 0.92029
12920.00000 0.91949
12940.00000 0.91869
12960.00000 0.91789
12980.00000 0.91708
13000.00000 0.91626
14300.00000 0.0
