# %ECSV 0.9
# ---
# datatype:
# - {name: wavelength, unit: Angstrom, datatype: float32}
# - {name: response, datatype: float32}
# meta: !!omap
# - {band_name: cfh4610}
# - {group_name: CFHT}
wavelength response
3798.00000 0.0
4220.00000 0.00481
4240.00000 0.05281
4260.00000 0.23158
4280.00000 0.41147
4300.00000 0.51506
4320.00000 0.53969
4340.00000 0.59721
4360.00000 0.70494
4380.00000 0.71181
4400.00000 0.74573
4420.00000 0.82841
4440.00000 0.83679
4460.00000 0.78987
4480.00000 0.82115
4500.00000 0.87415
4520.00000 0.85214
4540.00000 0.80727
4560.00000 0.83417
4580.00000 0.88557
4600.00000 0.85921
4620.00000 0.78662
4640.00000 0.7881
4660.00000 0.86238
4680.00000 0.89633
4700.00000 0.8914
4720.00000 0.89197
4740.00000 0.90115
4760.00000 0.89923
4780.00000 0.90622
4800.00000 0.91621
4820.00000 0.91888
4840.00000 0.92531
4860.00000 0.92691
4880.00000 0.91823
4900.00000 0.90538
4920.00000 0.91229
4940.00000 0.9136
4960.00000 0.9048
4980.00000 0.91861
5000.00000 0.92937
5020.00000 0.92963
5040.00000 0.92505
5060.00000 0.91313
5080.00000 0.92
5100.00000 0.93742
5120.00000 0.94481
5140.00000 0.93887
5160.00000 0.91405
5180.00000 0.9054
5200.00000 0.93102
5220.00000 0.95036
5240.00000 0.95216
5260.00000 0.9472
5280.00000 0.93497
5300.00000 0.93683
5320.00000 0.94855
5340.00000 0.9418
5360.00000 0.93497
5380.00000 0.9471
5400.00000 0.95993
5420.00000 0.96388
5440.00000 0.96284
5460.00000 0.95653
5480.00000 0.9538
5500.00000 0.9554
5520.00000 0.95015
5540.00000 0.9469
5560.00000 0.95627
5580.00000 0.96324
5600.00000 0.95952
5620.00000 0.95915
5640.00000 0.9653
5660.00000 0.968
5680.00000 0.96703
5700.00000 0.9644
5720.00000 0.95598
5740.00000 0.94856
5760.00000 0.95383
5780.00000 0.96468
5800.00000 0.96823
5820.00000 0.96811
5840.00000 0.97115
5860.00000 0.97453
5880.00000 0.97493
5900.00000 0.96828
5920.00000 0.94655
5940.00000 0.91716
5960.00000 0.90741
5980.00000 0.92706
6000.00000 0.94962
6020.00000 0.95074
6040.00000 0.94388
6060.00000 0.95178
6080.00000 0.96655
6100.00000 0.96834
6120.00000 0.96317
6140.00000 0.96724
6160.00000 0.97221
6180.00000 0.96281
6200.00000 0.94978
6220.00000 0.95328
6240.00000 0.96841
6260.00000 0.97296
6280.00000 0.9639
6300.00000 0.96077
6320.00000 0.96977
6340.00000 0.97227
6360.00000 0.95905
6380.00000 0.94818
6400.00000 0.95555
6420.00000 0.9709
6440.00000 0.97353
6460.00000 0.96423
6480.00000 0.96202
6500.00000 0.97052
6520.00000 0.97148
6540.00000 0.95416
6560.00000 0.93538
6580.00000 0.937
6600.00000 0.95699
6620.00000 0.97481
6640.00000 0.97765
6660.00000 0.97401
6680.00000 0.97589
6700.00000 0.97897
6720.00000 0.97069
6740.00000 0.95206
6760.00000 0.94006
6780.00000 0.94476
6800.00000 0.9572
6820.00000 0.96165
6840.00000 0.95621
6860.00000 0.95436
6880.00000 0.96455
6900.00000 0.9763
6920.00000 0.97133
6940.00000 0.9489
6960.00000 0.9287
6980.00000 0.92773
7000.00000 0.94371
7020.00000 0.9594
7040.00000 0.96216
7060.00000 0.95648
7080.00000 0.95561
7100.00000 0.96338
7120.00000 0.96696
7140.00000 0.95378
7160.00000 0.92827
7180.00000 0.90942
7200.00000 0.91235
7220.00000 0.93341
7240.00000 0.95636
7260.00000 0.96613
7280.00000 0.96242
7300.00000 0.95813
7320.00000 0.96211
7340.00000 0.97003
7360.00000 0.97018
7380.00000 0.95845
7400.00000 0.94318
7420.00000 0.93628
7440.00000 0.9416
7460.00000 0.95267
7480.00000 0.95854
7500.00000 0.95476
7520.00000 0.9489
7540.00000 0.94899
7560.00000 0.95432
7580.00000 0.95473
7600.00000 0.94025
7620.00000 0.91458
7640.00000 0.8905
7660.00000 0.88126
7680.00000 0.89136
7700.00000 0.91164
7720.00000 0.92886
7740.00000 0.93494
7760.00000 0.93292
7780.00000 0.93257
7800.00000 0.93858
7820.00000 0.94641
7840.00000 0.94635
7860.00000 0.93492
7880.00000 0.91946
7900.00000 0.91232
7920.00000 0.91922
7940.00000 0.9335
7960.00000 0.94223
7980.00000 0.9334
8000.00000 0.90904
8020.00000 0.88501
8040.00000 0.87573
8060.00000 0.88602
8080.00000 0.9082
8100.00000 0.92793
8120.00000 0.93509
8140.00000 0.93121
8160.00000 0.92572
8180.00000 0.92441
8200.00000 0.92314
8220.00000 0.90932
8240.00000 0.87709
8260.00000 0.83679
8280.00000 0.8082
8300.00000 0.80966
8320.00000 0.84084
8340.00000 0.88042
8360.00000 0.9005
8380.00000 0.88673
8400.00000 0.85327
8420.00000 0.82779
8440.00000 0.82507
8460.00000 0.83807
8480.00000 0.8466
8500.00000 0.83795
8520.00000 0.82271
8540.00000 0.8243
8560.00000 0.84917
8580.00000 0.8602
8600.00000 0.78493
8620.00000 0.63449
8640.00000 0.50156
8660.00000 0.44347
8680.00000 0.4903
8700.00000 0.64157
8720.00000 0.69016
8740.00000 0.46655
8760.00000 0.20427
8780.00000 0.08444
8800.00000 0.03937
8820.00000 0.01941
8840.00000 0.00992
8860.00000 0.00516
9746.00000 0.0
