# %ECSV 0.9
# ---
# datatype:
# - {name: wavelength, unit: Angstrom, datatype: float32}
# - {name: response, datatype: float32}
# meta: !!omap
# - {band_name: cfh5310}
# - {group_name: CFHT}
wavelength response
11826.00000 0.0
13140.00000 0.00404
13160.00000 0.00436
13180.00000 0.00468
13200.00000 0.00516
13220.00000 0.00575
13240.00000 0.00632
13260.00000 0.00688
13280.00000 0.00751
13300.00000 0.00824
13320.00000 0.00912
13340.00000 0.01006
13360.00000 0.01111
13380.00000 0.01222
13400.00000 0.01346
13420.00000 0.01486
13440.00000 0.01639
13460.00000 0.01799
13480.00000 0.01971
13500.00000 0.02162
13520.00000 0.02353
13540.00000 0.0258
13560.00000 0.02821
13580.00000 0.03064
13600.00000 0.03316
13620.00000 0.03615
13640.00000 0.03958
13660.00000 0.04305
13680.00000 0.04691
13700.00000 0.05106
13720.00000 0.05563
13740.00000 0.06065
13760.00000 0.06609
13780.00000 0.07219
13800.00000 0.07895
13820.00000 0.08652
13840.00000 0.09488
13860.00000 0.1042
13880.00000 0.11484
13900.00000 0.12643
13920.00000 0.13916
13940.00000 0.15305
13960.00000 0.16911
13980.00000 0.1869
14000.00000 0.20639
14020.00000 0.22827
14040.00000 0.25172
14060.00000 0.27728
14080.00000 0.30478
14100.00000 0.33444
14120.00000 0.36583
14140.00000 0.39871
14160.00000 0.43274
14180.00000 0.46729
14200.00000 0.50284
14220.00000 0.53838
14240.00000 0.5728
14260.00000 0.60606
14280.00000 0.638
14300.00000 0.66768
14320.00000 0.69501
14340.00000 0.72044
14360.00000 0.74298
14380.00000 0.76276
14400.00000 0.78027
14420.00000 0.79543
14440.00000 0.80836
14460.00000 0.81985
14480.00000 0.83005
14500.00000 0.83855
14520.00000 0.84575
14540.00000 0.85181
14560.00000 0.85696
14580.00000 0.86111
14600.00000 0.86464
14620.00000 0.86766
14640.00000 0.86983
14660.00000 0.87132
14680.00000 0.87245
14700.00000 0.87328
14720.00000 0.87349
14740.00000 0.87343
14760.00000 0.87314
14780.00000 0.87245
14800.00000 0.87161
14820.00000 0.87061
14840.00000 0.86961
14860.00000 0.86859
14880.00000 0.86757
14900.00000 0.86667
14920.00000 0.86563
14940.00000 0.86485
14960.00000 0.86427
14980.00000 0.86365
15000.00000 0.86314
15020.00000 0.86301
15040.00000 0.86317
15060.00000 0.86325
15080.00000 0.86357
15100.00000 0.86443
15120.00000 0.86525
15140.00000 0.8661
15160.00000 0.86736
15180.00000 0.86887
15200.00000 0.87053
15220.00000 0.87209
15240.00000 0.87376
15260.00000 0.87556
15280.00000 0.8773
15300.00000 0.87929
15320.00000 0.88121
15340.00000 0.88335
15360.00000 0.8857
15380.00000 0.88791
15400.00000 0.89032
15420.00000 0.89284
15440.00000 0.89525
15460.00000 0.89766
15480.00000 0.90004
15500.00000 0.90256
15520.00000 0.90509
15540.00000 0.90744
15560.00000 0.90993
15580.00000 0.91252
15600.00000 0.91489
15620.00000 0.91727
15640.00000 0.91954
15660.00000 0.92168
15680.00000 0.92393
15700.00000 0.92615
15720.00000 0.92819
15740.00000 0.92996
15760.00000 0.93164
15780.00000 0.93307
15800.00000 0.93439
15820.00000 0.9355
15840.00000 0.93628
15860.00000 0.93686
15880.00000 0.93724
15900.00000 0.93729
15920.00000 0.93706
15940.00000 0.93658
15960.00000 0.93585
15980.00000 0.93472
16000.00000 0.93329
16020.00000 0.93152
16040.00000 0.92953
16060.00000 0.92766
16080.00000 0.92525
16100.00000 0.92279
16120.00000 0.92026
16140.00000 0.91733
16160.00000 0.91452
16180.00000 0.91139
16200.00000 0.90814
16220.00000 0.90512
16240.00000 0.90196
16260.00000 0.89897
16280.00000 0.89613
16300.00000 0.89334
16320.00000 0.89072
16340.00000 0.88834
16360.00000 0.88623
16380.00000 0.88426
16400.00000 0.88277
16420.00000 0.88164
16440.00000 0.88051
16460.00000 0.87964
16480.00000 0.87938
16500.00000 0.87915
16520.00000 0.87917
16540.00000 0.87988
16560.00000 0.88069
16580.00000 0.88167
16600.00000 0.88329
16620.00000 0.88507
16640.00000 0.88692
16660.00000 0.8889
16680.00000 0.89127
16700.00000 0.89423
16720.00000 0.8969
16740.00000 0.89973
16760.00000 0.90286
16780.00000 0.90591
16800.00000 0.90912
16820.00000 0.91217
16840.00000 0.91545
16860.00000 0.91853
16880.00000 0.92125
16900.00000 0.92421
16920.00000 0.92696
16940.00000 0.92952
16960.00000 0.93231
16980.00000 0.93478
17000.00000 0.93668
17020.00000 0.93869
17040.00000 0.94043
17060.00000 0.94156
17080.00000 0.94258
17100.00000 0.94356
17120.00000 0.94411
17140.00000 0.94438
17160.00000 0.94441
17180.00000 0.94438
17200.00000 0.94415
17220.00000 0.9435
17240.00000 0.94275
17260.00000 0.94183
17280.00000 0.94092
17300.00000 0.93988
17320.00000 0.93848
17340.00000 0.93695
17360.00000 0.93568
17380.00000 0.93446
17400.00000 0.93311
17420.00000 0.93187
17440.00000 0.93063
17460.00000 0.92944
17480.00000 0.9283
17500.00000 0.927
17520.00000 0.92589
17540.00000 0.92523
17560.00000 0.92442
17580.00000 0.92384
17600.00000 0.9236
17620.00000 0.9231
17640.00000 0.92271
17660.00000 0.92259
17680.00000 0.92282
17700.00000 0.923
17720.00000 0.92276
17740.00000 0.92313
17760.00000 0.92351
17780.00000 0.92378
17800.00000 0.92419
17820.00000 0.92453
17840.00000 0.92514
17860.00000 0.92596
17880.00000 0.92683
17900.00000 0.92729
17920.00000 0.92772
17940.00000 0.92807
17960.00000 0.92862
17980.00000 0.92896
18000.00000 0.92879
18020.00000 0.92917
18040.00000 0.92955
18060.00000 0.92921
18080.00000 0.92853
18100.00000 0.92836
18120.00000 0.92834
18140.00000 0.92719
18160.00000 0.9265
18180.00000 0.92616
18200.00000 0.92511
18220.00000 0.92369
18240.00000 0.92245
18260.00000 0.92087
18280.00000 0.91983
18300.00000 0.91838
18320.00000 0.91502
18340.00000 0.91284
18360.00000 0.9129
18380.00000 0.9119
18400.00000 0.90936
18420.00000 0.90779
18440.00000 0.90701
18460.00000 0.90605
18480.00000 0.90282
18500.00000 0.89799
18520.00000 0.89444
18540.00000 0.89403
18560.00000 0.89381
18580.00000 0.89006
18600.00000 0.88496
18620.00000 0.88222
18640.00000 0.88118
18660.00000 0.88008
18680.00000 0.87996
18700.00000 0.87761
18720.00000 0.87389
18740.00000 0.8737
18760.00000 0.87436
18780.00000 0.87251
18800.00000 0.86899
18820.00000 0.86601
18840.00000 0.86487
18860.00000 0.86504
18880.00000 0.86409
18900.00000 0.86227
18920.00000 0.86156
18940.00000 0.86095
18960.00000 0.8604
18980.00000 0.86015
19000.00000 0.86052
19020.00000 0.85971
19040.00000 0.85904
19060.00000 0.85922
19080.00000 0.85823
19100.00000 0.85861
19120.00000 0.86009
19140.00000 0.86029
19160.00000 0.85974
19180.00000 0.85919
19200.00000 0.85777
19220.00000 0.8588
19240.00000 0.86156
19260.00000 0.86215
19280.00000 0.8625
19300.00000 0.86279
19320.00000 0.86292
19340.00000 0.86365
19360.00000 0.86427
19380.00000 0.8644
19400.00000 0.86499
19420.00000 0.86542
19440.00000 0.86554
19460.00000 0.86662
19480.00000 0.86758
19500.00000 0.86815
19520.00000 0.86829
19540.00000 0.86861
19560.00000 0.86938
19580.00000 0.87033
19600.00000 0.87088
19620.00000 0.87117
19640.00000 0.87177
19660.00000 0.87257
19680.00000 0.87302
19700.00000 0.87341
19720.00000 0.87418
19740.00000 0.87442
19760.00000 0.87494
19780.00000 0.87575
19800.00000 0.87639
19820.00000 0.8766
19840.00000 0.87709
19860.00000 0.87802
19880.00000 0.87839
19900.00000 0.8788
19920.00000 0.87946
19940.00000 0.8797
19960.00000 0.88016
19980.00000 0.88092
20000.00000 0.88121
20020.00000 0.88156
20040.00000 0.8819
20060.00000 0.88202
20080.00000 0.88231
20100.00000 0.88277
20120.00000 0.88297
20140.00000 0.88322
20160.00000 0.88362
20180.00000 0.88358
20200.00000 0.88358
20220.00000 0.88361
20240.00000 0.88348
20260.00000 0.88336
20280.00000 0.88319
20300.00000 0.88319
20320.00000 0.8829
20340.00000 0.88222
20360.00000 0.88202
20380.00000 0.88203
20400.00000 0.88164
20420.00000 0.88081
20440.00000 0.88004
20460.00000 0.87929
20480.00000 0.87845
20500.00000 0.87799
20520.00000 0.8777
20540.00000 0.87682
20560.00000 0.87576
20580.00000 0.8748
20600.00000 0.87358
20620.00000 0.8728
20640.00000 0.87195
20660.00000 0.87088
20680.00000 0.86983
20700.00000 0.86874
20720.00000 0.86772
20740.00000 0.86668
20760.00000 0.86551
20780.00000 0.86444
20800.00000 0.86375
20820.00000 0.86282
20840.00000 0.86153
20860.00000 0.86014
20880.00000 0.85918
20900.00000 0.85852
20920.00000 0.85777
20940.00000 0.8569
20960.00000 0.8562
20980.00000 0.8557
21000.00000 0.8551
21020.00000 0.85435
21040.00000 0.85378
21060.00000 0.85304
21080.00000 0.8522
21100.00000 0.85216
21120.00000 0.85162
21140.00000 0.85117
21160.00000 0.8511
21180.00000 0.85062
21200.00000 0.85039
21220.00000 0.8501
21240.00000 0.84998
21260.00000 0.85011
21280.00000 0.85069
21300.00000 0.85092
21320.00000 0.85094
21340.00000 0.85115
21360.00000 0.85074
21380.00000 0.85072
21400.00000 0.85088
21420.00000 0.85057
21440.00000 0.85069
21460.00000 0.85089
21480.00000 0.85074
21500.00000 0.85022
21520.00000 0.84991
21540.00000 0.84999
21560.00000 0.84991
21580.00000 0.8497
21600.00000 0.84862
21620.00000 0.84773
21640.00000 0.84752
21660.00000 0.8468
21680.00000 0.84601
21700.00000 0.84496
21720.00000 0.84372
21740.00000 0.84259
21760.00000 0.84149
21780.00000 0.84009
21800.00000 0.83875
21820.00000 0.83766
21840.00000 0.8363
21860.00000 0.83459
21880.00000 0.83275
21900.00000 0.83122
21920.00000 0.83011
21940.00000 0.8284
21960.00000 0.82629
21980.00000 0.82475
22000.00000 0.823
22020.00000 0.82109
22040.00000 0.81921
22060.00000 0.81723
22080.00000 0.81512
22100.00000 0.81319
22120.00000 0.81181
22140.00000 0.80998
22160.00000 0.80768
22180.00000 0.80579
22200.00000 0.80402
22220.00000 0.80246
22240.00000 0.80046
22260.00000 0.79839
22280.00000 0.79712
22300.00000 0.79552
22320.00000 0.79359
22340.00000 0.79243
22360.00000 0.79102
22380.00000 0.78967
22400.00000 0.78908
22420.00000 0.78798
22440.00000 0.78661
22460.00000 0.78577
22480.00000 0.78546
22500.00000 0.78482
22520.00000 0.78366
22540.00000 0.78293
22560.00000 0.78261
22580.00000 0.78242
22600.00000 0.78218
22620.00000 0.782
22640.00000 0.78189
22660.00000 0.78162
22680.00000 0.78145
22700.00000 0.78201
22720.00000 0.78294
22740.00000 0.78326
22760.00000 0.78348
22780.00000 0.78394
22800.00000 0.78505
22820.00000 0.78598
22840.00000 0.78654
22860.00000 0.7878
22880.00000 0.78882
22900.00000 0.78935
22920.00000 0.79021
22940.00000 0.79123
22960.00000 0.79231
22980.00000 0.79324
23000.00000 0.79405
23020.00000 0.79515
23040.00000 0.79622
23060.00000 0.79742
23080.00000 0.79883
23100.00000 0.7997
23120.00000 0.80081
23140.00000 0.80193
23160.00000 0.8024
23180.00000 0.80319
23200.00000 0.80388
23220.00000 0.80438
23240.00000 0.80486
23260.00000 0.80557
23280.00000 0.80638
23300.00000 0.80626
23320.00000 0.80658
23340.00000 0.80676
23360.00000 0.80627
23380.00000 0.8067
23400.00000 0.80705
23420.00000 0.80632
23440.00000 0.80531
23460.00000 0.80493
23480.00000 0.80431
23500.00000 0.80347
23520.00000 0.80299
23540.00000 0.802
23560.00000 0.80061
23580.00000 0.79936
23600.00000 0.79874
23620.00000 0.79761
23640.00000 0.79604
23660.00000 0.795
23680.00000 0.79378
23700.00000 0.79221
23720.00000 0.79057
23740.00000 0.78911
23760.00000 0.78781
23780.00000 0.78596
23800.00000 0.78455
23820.00000 0.78377
23840.00000 0.78207
23860.00000 0.78003
23880.00000 0.77841
23900.00000 0.77776
23920.00000 0.77626
23940.00000 0.7742
23960.00000 0.77327
23980.00000 0.77238
24000.00000 0.77139
24020.00000 0.77007
24040.00000 0.76863
24060.00000 0.76778
24080.00000 0.76675
24100.00000 0.76627
24120.00000 0.76619
24140.00000 0.7652
24160.00000 0.76437
24180.00000 0.76395
24200.00000 0.76329
24220.00000 0.76256
24240.00000 0.76244
24260.00000 0.76199
24280.00000 0.76111
24300.00000 0.761
24320.00000 0.76067
24340.00000 0.76025
24360.00000 0.76012
24380.00000 0.75963
24400.00000 0.75934
24420.00000 0.7592
24440.00000 0.75842
24460.00000 0.75786
24480.00000 0.7572
24500.00000 0.75638
24520.00000 0.75604
24540.00000 0.75552
24560.00000 0.7551
24580.00000 0.75424
24600.00000 0.7532
24620.00000 0.75253
24640.00000 0.75174
24660.00000 0.75026
24680.00000 0.74895
24700.00000 0.74847
24720.00000 0.7467
24740.00000 0.74467
24760.00000 0.74316
24780.00000 0.74135
24800.00000 0.73964
24820.00000 0.73787
24840.00000 0.73618
24860.00000 0.73421
24880.00000 0.73236
24900.00000 0.73019
24920.00000 0.72769
24940.00000 0.7253
24960.00000 0.72394
24980.00000 0.72273
25000.00000 0.72058
25020.00000 0.7189
25040.00000 0.71756
25060.00000 0.71524
25080.00000 0.7137
25100.00000 0.71269
25120.00000 0.71124
25140.00000 0.71066
25160.00000 0.70984
25180.00000 0.70868
25200.00000 0.707
25220.00000 0.70647
25240.00000 0.70695
25260.00000 0.70743
25280.00000 0.70789
25300.00000 0.70738
25320.00000 0.70641
25340.00000 0.70747
25360.00000 0.71001
25380.00000 0.70984
25400.00000 0.70859
25420.00000 0.70679
25440.00000 0.70566
25460.00000 0.70551
25480.00000 0.70287
25500.00000 0.70284
25520.00000 0.701
25540.00000 0.69621
25560.00000 0.69325
25580.00000 0.68695
25600.00000 0.67761
25620.00000 0.66872
25640.00000 0.66434
25660.00000 0.6544
25680.00000 0.63986
25700.00000 0.62537
25720.00000 0.60696
25740.00000 0.58516
25760.00000 0.55768
25780.00000 0.52734
25800.00000 0.50235
25820.00000 0.48222
25840.00000 0.45944
25860.00000 0.43614
25880.00000 0.40787
25900.00000 0.38039
25920.00000 0.35645
25940.00000 0.33014
25960.00000 0.30222
25980.00000 0.2796
26000.00000 0.26189
26020.00000 0.23958
26040.00000 0.21597
26060.00000 0.19865
26080.00000 0.18483
26100.00000 0.16772
26120.00000 0.15387
26140.00000 0.14372
26160.00000 0.13481
26180.00000 0.12337
26200.00000 0.10982
26220.00000 0.0997
26240.00000 0.09151
26260.00000 0.0847
26280.00000 0.07855
26300.00000 0.07231
26320.00000 0.06535
26340.00000 0.05885
26360.00000 0.05415
26380.00000 0.05081
26400.00000 0.04735
26420.00000 0.04414
26440.00000 0.04115
26460.00000 0.03812
26480.00000 0.03513
26500.00000 0.03287
26520.00000 0.03142
26540.00000 0.02827
26560.00000 0.02484
26580.00000 0.02377
26600.00000 0.02345
26620.00000 0.02296
26640.00000 0.0195
26660.00000 0.01653
26680.00000 0.0153
26700.00000 0.01331
26720.00000 0.01375
26740.00000 0.01517
26760.00000 0.01593
26780.00000 0.01395
26800.00000 0.01077
26820.00000 0.01028
26840.00000 0.01031
26860.00000 0.00975
26880.00000 0.00914
26900.00000 0.00848
26920.00000 0.00793
26940.00000 0.00879
26960.00000 0.00819
26980.00000 0.00594
27000.00000 0.00565
27020.00000 0.0052
27040.00000 0.00517
27060.00000 0.0052
27080.00000 0.00511
27100.00000 0.00439
29810.00000 0.0
