# %ECSV 0.9
# ---
# datatype:
# - {name: wavelength, unit: Angstrom, datatype: float32}
# - {name: response, datatype: float32}
# meta: !!omap
# - {band_name: cfh8201}
# - {group_name: CFHT}
wavelength response
13099.50000 0.0
14555.00000 0.004
14560.00000 0.00397
14565.00000 0.00429
14570.00000 0.00429
14575.00000 0.00446
14580.00000 0.00468
14585.00000 0.00493
14590.00000 0.00551
14595.00000 0.00587
14600.00000 0.00639
14605.00000 0.00671
14610.00000 0.00735
14615.00000 0.0078
14620.00000 0.00836
14625.00000 0.0092
14630.00000 0.00981
14635.00000 0.01056
14640.00000 0.01167
14645.00000 0.01285
14650.00000 0.01404
14655.00000 0.01549
14660.00000 0.017
14665.00000 0.01878
14670.00000 0.0209
14675.00000 0.02339
14680.00000 0.02617
14685.00000 0.02921
14690.00000 0.03252
14695.00000 0.03636
14700.00000 0.04083
14705.00000 0.04594
14710.00000 0.05122
14715.00000 0.0571
14720.00000 0.06314
14725.00000 0.07033
14730.00000 0.07799
14735.00000 0.08673
14740.00000 0.09558
14745.00000 0.10516
14750.00000 0.1156
14755.00000 0.12695
14760.00000 0.13934
14765.00000 0.15233
14770.00000 0.16602
14775.00000 0.18028
14780.00000 0.19543
14785.00000 0.21175
14790.00000 0.2281
14795.00000 0.24545
14800.00000 0.26314
14805.00000 0.28185
14810.00000 0.30099
14815.00000 0.32054
14820.00000 0.3409
14825.00000 0.3614
14830.00000 0.38277
14835.00000 0.40448
14840.00000 0.42654
14845.00000 0.44879
14850.00000 0.47133
14855.00000 0.49445
14860.00000 0.51752
14865.00000 0.54065
14870.00000 0.56389
14875.00000 0.58716
14880.00000 0.61028
14885.00000 0.63316
14890.00000 0.6559
14895.00000 0.67805
14900.00000 0.69937
14905.00000 0.72034
14910.00000 0.74051
14915.00000 0.75958
14920.00000 0.77774
14925.00000 0.79468
14930.00000 0.81033
14935.00000 0.825
14940.00000 0.83885
14945.00000 0.85112
14950.00000 0.86244
14955.00000 0.87271
14960.00000 0.88254
14965.00000 0.8912
14970.00000 0.89903
14975.00000 0.90567
14980.00000 0.91148
14985.00000 0.91667
14990.00000 0.92134
14995.00000 0.92502
15000.00000 0.92822
15005.00000 0.93094
15010.00000 0.93346
15015.00000 0.93556
15020.00000 0.93753
15025.00000 0.93904
15030.00000 0.94044
15035.00000 0.94173
15040.00000 0.94267
15045.00000 0.94351
15050.00000 0.94444
15055.00000 0.94568
15060.00000 0.94693
15065.00000 0.94804
15070.00000 0.94897
15075.00000 0.9498
15080.00000 0.95074
15085.00000 0.95186
15090.00000 0.95262
15095.00000 0.95296
15100.00000 0.9534
15105.00000 0.95401
15110.00000 0.95464
15115.00000 0.95529
15120.00000 0.95558
15125.00000 0.9557
15130.00000 0.95604
15135.00000 0.95619
15140.00000 0.95612
15145.00000 0.95607
15150.00000 0.95593
15155.00000 0.95575
15160.00000 0.95547
15165.00000 0.95518
15170.00000 0.95523
15175.00000 0.95488
15180.00000 0.9547
15185.00000 0.95396
15190.00000 0.95322
15195.00000 0.95277
15200.00000 0.95221
15205.00000 0.95164
15210.00000 0.95116
15215.00000 0.95103
15220.00000 0.95082
15225.00000 0.95105
15230.00000 0.95099
15235.00000 0.95091
15240.00000 0.95087
15245.00000 0.9507
15250.00000 0.95029
15255.00000 0.94977
15260.00000 0.94948
15265.00000 0.94899
15270.00000 0.94878
15275.00000 0.9489
15280.00000 0.94904
15285.00000 0.9492
15290.00000 0.94948
15295.00000 0.95001
15300.00000 0.95032
15305.00000 0.95071
15310.00000 0.95119
15315.00000 0.95132
15320.00000 0.95158
15325.00000 0.95166
15330.00000 0.95171
15335.00000 0.95163
15340.00000 0.95172
15345.00000 0.95161
15350.00000 0.95172
15355.00000 0.95183
15360.00000 0.95222
15365.00000 0.95236
15370.00000 0.95238
15375.00000 0.95233
15380.00000 0.95253
15385.00000 0.95297
15390.00000 0.95343
15395.00000 0.9538
15400.00000 0.95364
15405.00000 0.95375
15410.00000 0.95438
15415.00000 0.95499
15420.00000 0.95483
15425.00000 0.9548
15430.00000 0.95465
15435.00000 0.95432
15440.00000 0.95464
15445.00000 0.95511
15450.00000 0.95502
15455.00000 0.95506
15460.00000 0.95564
15465.00000 0.95601
15470.00000 0.95638
15475.00000 0.95656
15480.00000 0.95654
15485.00000 0.9563
15490.00000 0.95605
15495.00000 0.95586
15500.00000 0.95558
15505.00000 0.95534
15510.00000 0.95494
15515.00000 0.95486
15520.00000 0.95468
15525.00000 0.95461
15530.00000 0.95471
15535.00000 0.95468
15540.00000 0.95459
15545.00000 0.95479
15550.00000 0.95473
15555.00000 0.95476
15560.00000 0.95439
15565.00000 0.95418
15570.00000 0.95366
15575.00000 0.95366
15580.00000 0.95354
15585.00000 0.95284
15590.00000 0.95265
15595.00000 0.95242
15600.00000 0.95261
15605.00000 0.95277
15610.00000 0.95299
15615.00000 0.9525
15620.00000 0.95236
15625.00000 0.95236
15630.00000 0.95264
15635.00000 0.9528
15640.00000 0.95306
15645.00000 0.95337
15650.00000 0.95374
15655.00000 0.95413
15660.00000 0.95454
15665.00000 0.95537
15670.00000 0.95578
15675.00000 0.95612
15680.00000 0.95644
15685.00000 0.95665
15690.00000 0.957
15695.00000 0.9574
15700.00000 0.9577
15705.00000 0.95801
15710.00000 0.95821
15715.00000 0.95863
15720.00000 0.95866
15725.00000 0.95894
15730.00000 0.95941
15735.00000 0.96004
15740.00000 0.96042
15745.00000 0.9606
15750.00000 0.96086
15755.00000 0.96091
15760.00000 0.9612
15765.00000 0.96144
15770.00000 0.96184
15775.00000 0.96201
15780.00000 0.96255
15785.00000 0.96286
15790.00000 0.96347
15795.00000 0.96397
15800.00000 0.96439
15805.00000 0.96507
15810.00000 0.96489
15815.00000 0.96497
15820.00000 0.9649
15825.00000 0.96501
15830.00000 0.96481
15835.00000 0.96483
15840.00000 0.96518
15845.00000 0.96471
15850.00000 0.9649
15855.00000 0.96518
15860.00000 0.96541
15865.00000 0.96555
15870.00000 0.96582
15875.00000 0.96574
15880.00000 0.96553
15885.00000 0.96579
15890.00000 0.96608
15895.00000 0.96617
15900.00000 0.9662
15905.00000 0.96629
15910.00000 0.96643
15915.00000 0.96684
15920.00000 0.96707
15925.00000 0.96736
15930.00000 0.96725
15935.00000 0.96716
15940.00000 0.96754
15945.00000 0.96794
15950.00000 0.96808
15955.00000 0.96829
15960.00000 0.96841
15965.00000 0.96838
15970.00000 0.96849
15975.00000 0.96828
15980.00000 0.96793
15985.00000 0.96758
15990.00000 0.96725
15995.00000 0.96695
16000.00000 0.96642
16005.00000 0.96603
16010.00000 0.96571
16015.00000 0.96547
16020.00000 0.96486
16025.00000 0.96429
16030.00000 0.96352
16035.00000 0.96284
16040.00000 0.96251
16045.00000 0.96176
16050.00000 0.96126
16055.00000 0.96066
16060.00000 0.96011
16065.00000 0.95914
16070.00000 0.95868
16075.00000 0.9575
16080.00000 0.95667
16085.00000 0.95612
16090.00000 0.95503
16095.00000 0.95477
16100.00000 0.95409
16105.00000 0.95418
16110.00000 0.95366
16115.00000 0.95387
16120.00000 0.95343
16125.00000 0.95296
16130.00000 0.95262
16135.00000 0.95212
16140.00000 0.95215
16145.00000 0.9518
16150.00000 0.95154
16155.00000 0.95088
16160.00000 0.95068
16165.00000 0.95084
16170.00000 0.95071
16175.00000 0.95096
16180.00000 0.95088
16185.00000 0.95122
16190.00000 0.95137
16195.00000 0.95198
16200.00000 0.95219
16205.00000 0.95236
16210.00000 0.95271
16215.00000 0.95296
16220.00000 0.95288
16225.00000 0.95306
16230.00000 0.95375
16235.00000 0.95346
16240.00000 0.95372
16245.00000 0.95387
16250.00000 0.95433
16255.00000 0.95432
16260.00000 0.95459
16265.00000 0.95433
16270.00000 0.95404
16275.00000 0.95457
16280.00000 0.95467
16285.00000 0.95477
16290.00000 0.95416
16295.00000 0.95398
16300.00000 0.95422
16305.00000 0.9543
16310.00000 0.9543
16315.00000 0.95415
16320.00000 0.95442
16325.00000 0.95465
16330.00000 0.95529
16335.00000 0.95541
16340.00000 0.95517
16345.00000 0.95488
16350.00000 0.95447
16355.00000 0.95395
16360.00000 0.95369
16365.00000 0.95319
16370.00000 0.95311
16375.00000 0.95316
16380.00000 0.953
16385.00000 0.95331
16390.00000 0.95334
16395.00000 0.95338
16400.00000 0.95282
16405.00000 0.95259
16410.00000 0.95186
16415.00000 0.95132
16420.00000 0.95122
16425.00000 0.95078
16430.00000 0.95033
16435.00000 0.95039
16440.00000 0.95074
16445.00000 0.95071
16450.00000 0.95108
16455.00000 0.95148
16460.00000 0.95139
16465.00000 0.95175
16470.00000 0.95251
16475.00000 0.95265
16480.00000 0.95299
16485.00000 0.9538
16490.00000 0.95416
16495.00000 0.95448
16500.00000 0.95508
16505.00000 0.95491
16510.00000 0.95506
16515.00000 0.95528
16520.00000 0.95551
16525.00000 0.95509
16530.00000 0.95482
16535.00000 0.95448
16540.00000 0.95374
16545.00000 0.9538
16550.00000 0.95328
16555.00000 0.95328
16560.00000 0.95312
16565.00000 0.95317
16570.00000 0.95361
16575.00000 0.95377
16580.00000 0.95392
16585.00000 0.95386
16590.00000 0.95416
16595.00000 0.95354
16600.00000 0.95334
16605.00000 0.95309
16610.00000 0.95251
16615.00000 0.9525
16620.00000 0.95291
16625.00000 0.953
16630.00000 0.95293
16635.00000 0.95319
16640.00000 0.95277
16645.00000 0.95236
16650.00000 0.95259
16655.00000 0.952
16660.00000 0.95155
16665.00000 0.95114
16670.00000 0.95093
16675.00000 0.95125
16680.00000 0.9512
16685.00000 0.95149
16690.00000 0.95096
16695.00000 0.95161
16700.00000 0.95178
16705.00000 0.9519
16710.00000 0.95212
16715.00000 0.95221
16720.00000 0.95232
16725.00000 0.95245
16730.00000 0.95312
16735.00000 0.95314
16740.00000 0.95358
16745.00000 0.95387
16750.00000 0.95439
16755.00000 0.95448
16760.00000 0.95471
16765.00000 0.95525
16770.00000 0.95584
16775.00000 0.95592
16780.00000 0.95615
16785.00000 0.95689
16790.00000 0.95688
16795.00000 0.95743
16800.00000 0.95816
16805.00000 0.95799
16810.00000 0.95813
16815.00000 0.95898
16820.00000 0.95981
16825.00000 0.96056
16830.00000 0.96144
16835.00000 0.96187
16840.00000 0.96246
16845.00000 0.96341
16850.00000 0.96413
16855.00000 0.96428
16860.00000 0.96422
16865.00000 0.96379
16870.00000 0.96378
16875.00000 0.96411
16880.00000 0.96439
16885.00000 0.96471
16890.00000 0.96486
16895.00000 0.96506
16900.00000 0.96513
16905.00000 0.96573
16910.00000 0.9659
16915.00000 0.96594
16920.00000 0.96594
16925.00000 0.96623
16930.00000 0.96635
16935.00000 0.96638
16940.00000 0.96632
16945.00000 0.96573
16950.00000 0.96535
16955.00000 0.96512
16960.00000 0.96529
16965.00000 0.96545
16970.00000 0.96523
16975.00000 0.96506
16980.00000 0.96538
16985.00000 0.96564
16990.00000 0.96658
16995.00000 0.96666
17000.00000 0.96611
17005.00000 0.96568
17010.00000 0.96544
17015.00000 0.96539
17020.00000 0.96527
17025.00000 0.96524
17030.00000 0.96472
17035.00000 0.96452
17040.00000 0.96408
17045.00000 0.96344
17050.00000 0.96289
17055.00000 0.96233
17060.00000 0.96144
17065.00000 0.96085
17070.00000 0.95995
17075.00000 0.9594
17080.00000 0.959
17085.00000 0.95859
17090.00000 0.95844
17095.00000 0.95798
17100.00000 0.9577
17105.00000 0.95749
17110.00000 0.95714
17115.00000 0.95749
17120.00000 0.95737
17125.00000 0.95703
17130.00000 0.95679
17135.00000 0.95636
17140.00000 0.95659
17145.00000 0.95598
17150.00000 0.95535
17155.00000 0.95419
17160.00000 0.95392
17165.00000 0.95378
17170.00000 0.95309
17175.00000 0.95294
17180.00000 0.952
17185.00000 0.95183
17190.00000 0.95155
17195.00000 0.95096
17200.00000 0.95049
17205.00000 0.94965
17210.00000 0.94882
17215.00000 0.94794
17220.00000 0.94737
17225.00000 0.94679
17230.00000 0.94598
17235.00000 0.94577
17240.00000 0.94539
17245.00000 0.94504
17250.00000 0.94472
17255.00000 0.94478
17260.00000 0.94426
17265.00000 0.94374
17270.00000 0.94395
17275.00000 0.94394
17280.00000 0.94426
17285.00000 0.94418
17290.00000 0.94423
17295.00000 0.94394
17300.00000 0.94427
17305.00000 0.94444
17310.00000 0.94447
17315.00000 0.94427
17320.00000 0.9436
17325.00000 0.94359
17330.00000 0.9444
17335.00000 0.94429
17340.00000 0.94473
17345.00000 0.94514
17350.00000 0.94537
17355.00000 0.94537
17360.00000 0.94539
17365.00000 0.9455
17370.00000 0.94466
17375.00000 0.94469
17380.00000 0.94406
17385.00000 0.94334
17390.00000 0.94318
17395.00000 0.94281
17400.00000 0.94197
17405.00000 0.94101
17410.00000 0.94057
17415.00000 0.94
17420.00000 0.93916
17425.00000 0.93832
17430.00000 0.93695
17435.00000 0.93634
17440.00000 0.93652
17445.00000 0.9364
17450.00000 0.93578
17455.00000 0.93535
17460.00000 0.93452
17465.00000 0.9344
17470.00000 0.93436
17475.00000 0.93353
17480.00000 0.93277
17485.00000 0.9325
17490.00000 0.93248
17495.00000 0.93211
17500.00000 0.93233
17505.00000 0.93199
17510.00000 0.93144
17515.00000 0.93185
17520.00000 0.9317
17525.00000 0.93132
17530.00000 0.93114
17535.00000 0.93146
17540.00000 0.93198
17545.00000 0.93251
17550.00000 0.93411
17555.00000 0.93469
17560.00000 0.9359
17565.00000 0.93759
17570.00000 0.93933
17575.00000 0.94095
17580.00000 0.94203
17585.00000 0.94334
17590.00000 0.9447
17595.00000 0.94608
17600.00000 0.94691
17605.00000 0.94711
17610.00000 0.9474
17615.00000 0.94748
17620.00000 0.94711
17625.00000 0.94627
17630.00000 0.94382
17635.00000 0.94078
17640.00000 0.93776
17645.00000 0.9334
17650.00000 0.9268
17655.00000 0.9193
17660.00000 0.9111
17665.00000 0.90178
17670.00000 0.89095
17675.00000 0.87877
17680.00000 0.86436
17685.00000 0.8492
17690.00000 0.83258
17695.00000 0.81448
17700.00000 0.79395
17705.00000 0.77242
17710.00000 0.74968
17715.00000 0.72928
17720.00000 0.70755
17725.00000 0.68515
17730.00000 0.6619
17735.00000 0.63757
17740.00000 0.61311
17745.00000 0.58824
17750.00000 0.56264
17755.00000 0.53444
17760.00000 0.50656
17765.00000 0.47905
17770.00000 0.45161
17775.00000 0.42531
17780.00000 0.39992
17785.00000 0.37497
17790.00000 0.35126
17795.00000 0.32874
17800.00000 0.30673
17805.00000 0.28517
17810.00000 0.26541
17815.00000 0.24731
17820.00000 0.22951
17825.00000 0.21262
17830.00000 0.19727
17835.00000 0.1823
17840.00000 0.16891
17845.00000 0.15643
17850.00000 0.14497
17855.00000 0.13339
17860.00000 0.12398
17865.00000 0.11485
17870.00000 0.10657
17875.00000 0.09865
17880.00000 0.09128
17885.00000 0.08409
17890.00000 0.07817
17895.00000 0.07285
17900.00000 0.06735
17905.00000 0.06252
17910.00000 0.05777
17915.00000 0.05403
17920.00000 0.05032
17925.00000 0.04747
17930.00000 0.04454
17935.00000 0.04121
17940.00000 0.03856
17945.00000 0.036
17950.00000 0.034
17955.00000 0.03154
17960.00000 0.02985
17965.00000 0.02786
17970.00000 0.02638
17975.00000 0.02496
17980.00000 0.02293
17985.00000 0.02161
17990.00000 0.0206
17995.00000 0.01956
18000.00000 0.01814
18005.00000 0.01762
18010.00000 0.01639
18015.00000 0.01534
18020.00000 0.01508
18025.00000 0.01451
18030.00000 0.01376
18035.00000 0.01329
18040.00000 0.01294
18045.00000 0.01227
18050.00000 0.01169
18055.00000 0.01173
18060.00000 0.01146
18065.00000 0.01129
18070.00000 0.01102
18075.00000 0.01031
18080.00000 0.01013
18085.00000 0.00974
18090.00000 0.00911
18095.00000 0.00804
18100.00000 0.00797
18105.00000 0.0072
18110.00000 0.00612
18115.00000 0.00592
18120.00000 0.00539
18125.00000 0.00473
18130.00000 0.00485
18135.00000 0.00508
18140.00000 0.00478
18145.00000 0.0049
18150.00000 0.0058
18155.00000 0.00491
18160.00000 0.00504
18165.00000 0.00459
19981.50000 0.0
