# %ECSV 0.9
# ---
# datatype:
# - {name: wavelength, unit: Angstrom, datatype: float32}
# - {name: response, datatype: float32}
# meta: !!omap
# - {band_name: cfh5309}
# - {group_name: CFHT}
wavelength response
11862.00000 0.0
13180.00000 0.00414
13200.00000 0.00447
13220.00000 0.00493
13240.00000 0.00543
13260.00000 0.00604
13280.00000 0.00668
13300.00000 0.00731
13320.00000 0.00803
13340.00000 0.00885
13360.00000 0.00983
13380.00000 0.0108
13400.00000 0.01189
13420.00000 0.01311
13440.00000 0.0144
13460.00000 0.01584
13480.00000 0.01741
13500.00000 0.01907
13520.00000 0.02086
13540.00000 0.02269
13560.00000 0.02475
13580.00000 0.02711
13600.00000 0.02953
13620.00000 0.03212
13640.00000 0.03506
13660.00000 0.03828
13680.00000 0.0417
13700.00000 0.04538
13720.00000 0.04945
13740.00000 0.05391
13760.00000 0.05882
13780.00000 0.06422
13800.00000 0.07022
13820.00000 0.07713
13840.00000 0.0847
13860.00000 0.093
13880.00000 0.10257
13900.00000 0.11302
13920.00000 0.1246
13940.00000 0.13736
13960.00000 0.15198
13980.00000 0.16805
14000.00000 0.18559
14020.00000 0.20551
14040.00000 0.22722
14060.00000 0.25125
14080.00000 0.27699
14100.00000 0.30502
14120.00000 0.33521
14140.00000 0.36749
14160.00000 0.40184
14180.00000 0.4368
14200.00000 0.47293
14220.00000 0.50952
14240.00000 0.5463
14260.00000 0.58302
14280.00000 0.61826
14300.00000 0.65169
14320.00000 0.68294
14340.00000 0.71179
14360.00000 0.7381
14380.00000 0.76158
14400.00000 0.7822
14420.00000 0.80016
14440.00000 0.8154
14460.00000 0.82823
14480.00000 0.83917
14500.00000 0.84814
14520.00000 0.85542
14540.00000 0.86131
14560.00000 0.86578
14580.00000 0.86923
14600.00000 0.87177
14620.00000 0.87338
14640.00000 0.87459
14660.00000 0.87531
14680.00000 0.87547
14700.00000 0.8752
14720.00000 0.87462
14740.00000 0.87383
14760.00000 0.87288
14780.00000 0.87206
14800.00000 0.87131
14820.00000 0.87051
14840.00000 0.86971
14860.00000 0.86887
14880.00000 0.86826
14900.00000 0.86789
14920.00000 0.86761
14940.00000 0.86757
14960.00000 0.86772
14980.00000 0.86789
15000.00000 0.86809
15020.00000 0.86862
15040.00000 0.86942
15060.00000 0.87012
15080.00000 0.87112
15100.00000 0.87228
15120.00000 0.87341
15140.00000 0.87457
15160.00000 0.87599
15180.00000 0.87761
15200.00000 0.87929
15220.00000 0.88091
15240.00000 0.88229
15260.00000 0.8839
15280.00000 0.88553
15300.00000 0.88708
15320.00000 0.8886
15340.00000 0.8904
15360.00000 0.89235
15380.00000 0.89423
15400.00000 0.89636
15420.00000 0.8985
15440.00000 0.90051
15460.00000 0.9026
15480.00000 0.90471
15500.00000 0.90701
15520.00000 0.90956
15540.00000 0.91191
15560.00000 0.91428
15580.00000 0.91684
15600.00000 0.91937
15620.00000 0.92183
15640.00000 0.92436
15660.00000 0.92696
15680.00000 0.92952
15700.00000 0.93193
15720.00000 0.93414
15740.00000 0.93623
15760.00000 0.93829
15780.00000 0.94017
15800.00000 0.94171
15820.00000 0.94312
15840.00000 0.94418
15860.00000 0.94493
15880.00000 0.94548
15900.00000 0.94565
15920.00000 0.94537
15940.00000 0.94479
15960.00000 0.94406
15980.00000 0.9429
16000.00000 0.94099
16020.00000 0.93896
16040.00000 0.93698
16060.00000 0.93474
16080.00000 0.93201
16100.00000 0.92915
16120.00000 0.92624
16140.00000 0.9229
16160.00000 0.91949
16180.00000 0.91591
16200.00000 0.91232
16220.00000 0.90894
16240.00000 0.90527
16260.00000 0.90187
16280.00000 0.89883
16300.00000 0.89571
16320.00000 0.89253
16340.00000 0.88985
16360.00000 0.88759
16380.00000 0.88539
16400.00000 0.88362
16420.00000 0.88223
16440.00000 0.88124
16460.00000 0.88055
16480.00000 0.88017
16500.00000 0.88007
16520.00000 0.88016
16540.00000 0.88077
16560.00000 0.88158
16580.00000 0.88272
16600.00000 0.88438
16620.00000 0.88629
16640.00000 0.88847
16660.00000 0.89081
16680.00000 0.8934
16700.00000 0.89626
16720.00000 0.89922
16740.00000 0.90234
16760.00000 0.90558
16780.00000 0.90901
16800.00000 0.91252
16820.00000 0.91566
16840.00000 0.91899
16860.00000 0.92239
16880.00000 0.92545
16900.00000 0.92819
16920.00000 0.93134
16940.00000 0.93436
16960.00000 0.93695
16980.00000 0.93951
17000.00000 0.94165
17020.00000 0.94353
17040.00000 0.94522
17060.00000 0.94659
17080.00000 0.94778
17100.00000 0.94868
17120.00000 0.94925
17140.00000 0.94962
17160.00000 0.94966
17180.00000 0.94948
17200.00000 0.94926
17220.00000 0.94862
17240.00000 0.94771
17260.00000 0.94696
17280.00000 0.94597
17300.00000 0.94469
17320.00000 0.94324
17340.00000 0.94186
17360.00000 0.94067
17380.00000 0.93939
17400.00000 0.93811
17420.00000 0.93687
17440.00000 0.93558
17460.00000 0.93439
17480.00000 0.93332
17500.00000 0.93219
17520.00000 0.93111
17540.00000 0.9303
17560.00000 0.92949
17580.00000 0.92883
17600.00000 0.92845
17620.00000 0.92787
17640.00000 0.92751
17660.00000 0.92723
17680.00000 0.92723
17700.00000 0.92751
17720.00000 0.92743
17740.00000 0.92789
17760.00000 0.92828
17780.00000 0.92818
17800.00000 0.92868
17820.00000 0.92946
17840.00000 0.92989
17860.00000 0.93027
17880.00000 0.93086
17900.00000 0.93132
17920.00000 0.93166
17940.00000 0.93182
17960.00000 0.93202
17980.00000 0.93227
18000.00000 0.93234
18020.00000 0.93234
18040.00000 0.93248
18060.00000 0.93222
18080.00000 0.93126
18100.00000 0.93079
18120.00000 0.93016
18140.00000 0.92943
18160.00000 0.92966
18180.00000 0.92815
18200.00000 0.92589
18220.00000 0.9248
18240.00000 0.9227
18260.00000 0.92169
18280.00000 0.92183
18300.00000 0.91956
18320.00000 0.91666
18340.00000 0.91533
18360.00000 0.91368
18380.00000 0.91101
18400.00000 0.90863
18420.00000 0.90746
18440.00000 0.907
18460.00000 0.9053
18480.00000 0.90311
18500.00000 0.90154
18520.00000 0.89969
18540.00000 0.89795
18560.00000 0.89452
18580.00000 0.8896
18600.00000 0.88692
18620.00000 0.8857
18640.00000 0.88524
18660.00000 0.8856
18680.00000 0.88278
18700.00000 0.87794
18720.00000 0.87889
18740.00000 0.88002
18760.00000 0.87651
18780.00000 0.8735
18800.00000 0.87186
18820.00000 0.87128
18840.00000 0.87076
18860.00000 0.86969
18880.00000 0.86775
18900.00000 0.8669
18920.00000 0.86746
18940.00000 0.86743
18960.00000 0.8663
18980.00000 0.86496
19000.00000 0.86285
19020.00000 0.86241
19040.00000 0.86525
19060.00000 0.8658
19080.00000 0.86429
19100.00000 0.86395
19120.00000 0.86275
19140.00000 0.86211
19160.00000 0.86411
19180.00000 0.86618
19200.00000 0.86824
19220.00000 0.86818
19240.00000 0.86591
19260.00000 0.86488
19280.00000 0.86447
19300.00000 0.86496
19320.00000 0.86642
19340.00000 0.86652
19360.00000 0.86668
19380.00000 0.86786
19400.00000 0.86842
19420.00000 0.86908
19440.00000 0.86995
19460.00000 0.87015
19480.00000 0.8698
19500.00000 0.87001
19520.00000 0.87068
19540.00000 0.87149
19560.00000 0.87224
19580.00000 0.87274
19600.00000 0.873
19620.00000 0.87341
19640.00000 0.87445
19660.00000 0.87556
19680.00000 0.87613
19700.00000 0.87646
19720.00000 0.87714
19740.00000 0.87811
19760.00000 0.87892
19780.00000 0.8797
19800.00000 0.88054
19820.00000 0.88083
19840.00000 0.88144
19860.00000 0.88264
19880.00000 0.88312
19900.00000 0.88367
19920.00000 0.88457
19940.00000 0.8849
19960.00000 0.88542
19980.00000 0.88629
20000.00000 0.88678
20020.00000 0.88739
20040.00000 0.88785
20060.00000 0.8884
20080.00000 0.88899
20100.00000 0.88896
20120.00000 0.88939
20140.00000 0.89003
20160.00000 0.89024
20180.00000 0.88989
20200.00000 0.88986
20220.00000 0.89003
20240.00000 0.88991
20260.00000 0.89024
20280.00000 0.89014
20300.00000 0.88959
20320.00000 0.88916
20340.00000 0.88846
20360.00000 0.88808
20380.00000 0.8878
20400.00000 0.88722
20420.00000 0.88646
20440.00000 0.88564
20460.00000 0.88484
20480.00000 0.88396
20500.00000 0.88306
20520.00000 0.88196
20540.00000 0.8808
20560.00000 0.87985
20580.00000 0.8788
20600.00000 0.87787
20620.00000 0.87708
20640.00000 0.87558
20660.00000 0.87422
20680.00000 0.87328
20700.00000 0.87218
20720.00000 0.87111
20740.00000 0.86955
20760.00000 0.86829
20780.00000 0.86732
20800.00000 0.86633
20820.00000 0.86545
20840.00000 0.86412
20860.00000 0.86302
20880.00000 0.86214
20900.00000 0.86148
20920.00000 0.86072
20940.00000 0.8595
20960.00000 0.8587
20980.00000 0.8582
21000.00000 0.85759
21020.00000 0.85719
21040.00000 0.85693
21060.00000 0.85611
21080.00000 0.85541
21100.00000 0.85548
21120.00000 0.85515
21140.00000 0.85492
21160.00000 0.8549
21180.00000 0.85469
21200.00000 0.85487
21220.00000 0.85455
21240.00000 0.85431
21260.00000 0.85472
21280.00000 0.85524
21300.00000 0.85506
21320.00000 0.85507
21340.00000 0.85555
21360.00000 0.85564
21380.00000 0.85597
21400.00000 0.85608
21420.00000 0.85623
21440.00000 0.85654
21460.00000 0.85657
21480.00000 0.8562
21500.00000 0.85597
21520.00000 0.85626
21540.00000 0.85606
21560.00000 0.8553
21580.00000 0.85526
21600.00000 0.85487
21620.00000 0.85405
21640.00000 0.85397
21660.00000 0.8532
21680.00000 0.85193
21700.00000 0.85103
21720.00000 0.84955
21740.00000 0.84825
21760.00000 0.84743
21780.00000 0.84645
21800.00000 0.84525
21820.00000 0.84358
21840.00000 0.84227
21860.00000 0.84084
21880.00000 0.83885
21900.00000 0.83691
21920.00000 0.83504
21940.00000 0.83327
21960.00000 0.83177
21980.00000 0.82982
22000.00000 0.82751
22020.00000 0.82594
22040.00000 0.82422
22060.00000 0.82196
22080.00000 0.81985
22100.00000 0.81804
22120.00000 0.81673
22140.00000 0.81512
22160.00000 0.81296
22180.00000 0.81116
22200.00000 0.80939
22220.00000 0.80791
22240.00000 0.80626
22260.00000 0.80428
22280.00000 0.80255
22300.00000 0.80115
22320.00000 0.79956
22340.00000 0.79816
22360.00000 0.79704
22380.00000 0.79555
22400.00000 0.7946
22420.00000 0.79395
22440.00000 0.79276
22460.00000 0.79185
22480.00000 0.7916
22500.00000 0.79071
22520.00000 0.78995
22540.00000 0.7896
22560.00000 0.78951
22580.00000 0.78978
22600.00000 0.7896
22620.00000 0.78929
22640.00000 0.7894
22660.00000 0.78967
22680.00000 0.78957
22700.00000 0.78966
22720.00000 0.79053
22740.00000 0.79152
22760.00000 0.79222
22780.00000 0.79271
22800.00000 0.79349
22820.00000 0.7946
22840.00000 0.79536
22860.00000 0.79623
22880.00000 0.79744
22900.00000 0.79849
22920.00000 0.79929
22940.00000 0.80016
22960.00000 0.80156
22980.00000 0.80267
23000.00000 0.80299
23020.00000 0.80365
23040.00000 0.80496
23060.00000 0.8062
23080.00000 0.8071
23100.00000 0.80801
23120.00000 0.80948
23140.00000 0.81038
23160.00000 0.81085
23180.00000 0.81146
23200.00000 0.81192
23220.00000 0.81223
23240.00000 0.81223
23260.00000 0.81248
23280.00000 0.81282
23300.00000 0.81282
23320.00000 0.81265
23340.00000 0.81244
23360.00000 0.81219
23380.00000 0.81194
23400.00000 0.81168
23420.00000 0.81104
23440.00000 0.81018
23460.00000 0.80942
23480.00000 0.80841
23500.00000 0.80769
23520.00000 0.80687
23540.00000 0.80521
23560.00000 0.80399
23580.00000 0.80257
23600.00000 0.80128
23620.00000 0.80075
23640.00000 0.79916
23660.00000 0.7973
23680.00000 0.79594
23700.00000 0.79385
23720.00000 0.79221
23740.00000 0.79158
23760.00000 0.79076
23780.00000 0.78937
23800.00000 0.78775
23820.00000 0.78607
23840.00000 0.78439
23860.00000 0.78238
23880.00000 0.78098
23900.00000 0.78021
23920.00000 0.77864
23940.00000 0.77699
23960.00000 0.77612
23980.00000 0.77547
24000.00000 0.77415
24020.00000 0.77299
24040.00000 0.77263
24060.00000 0.77206
24080.00000 0.77119
24100.00000 0.77049
24120.00000 0.76984
24140.00000 0.76961
24160.00000 0.76955
24180.00000 0.76875
24200.00000 0.76817
24220.00000 0.76804
24240.00000 0.76776
24260.00000 0.7675
24280.00000 0.76714
24300.00000 0.76665
24320.00000 0.76646
24340.00000 0.76686
24360.00000 0.76628
24380.00000 0.76512
24400.00000 0.76486
24420.00000 0.76495
24440.00000 0.76433
24460.00000 0.7635
24480.00000 0.76323
24500.00000 0.76303
24520.00000 0.7625
24540.00000 0.76158
24560.00000 0.76068
24580.00000 0.76013
24600.00000 0.75929
24620.00000 0.75777
24640.00000 0.75725
24660.00000 0.75621
24680.00000 0.75388
24700.00000 0.7532
24720.00000 0.75142
24740.00000 0.74919
24760.00000 0.74777
24780.00000 0.74631
24800.00000 0.74472
24820.00000 0.74243
24840.00000 0.74037
24860.00000 0.73796
24880.00000 0.73616
24900.00000 0.73442
24920.00000 0.73264
24940.00000 0.73019
24960.00000 0.7285
24980.00000 0.72791
25000.00000 0.72597
25020.00000 0.72375
25040.00000 0.72313
25060.00000 0.72252
25080.00000 0.72089
25100.00000 0.71954
25120.00000 0.71904
25140.00000 0.71861
25160.00000 0.71782
25180.00000 0.7177
25200.00000 0.71747
25220.00000 0.71693
25240.00000 0.71625
25260.00000 0.71599
25280.00000 0.71687
25300.00000 0.71736
25320.00000 0.71707
25340.00000 0.71602
25360.00000 0.71567
25380.00000 0.71741
25400.00000 0.71898
25420.00000 0.71852
25440.00000 0.71587
25460.00000 0.71461
25480.00000 0.70998
25500.00000 0.70297
25520.00000 0.70128
25540.00000 0.69572
25560.00000 0.68373
25580.00000 0.67258
25600.00000 0.66119
25620.00000 0.64789
25640.00000 0.62885
25660.00000 0.60687
25680.00000 0.59001
25700.00000 0.56921
25720.00000 0.54642
25740.00000 0.5275
25760.00000 0.50848
25780.00000 0.48456
25800.00000 0.45753
25820.00000 0.42738
25840.00000 0.38937
25860.00000 0.36349
25880.00000 0.34166
25900.00000 0.31299
25920.00000 0.29343
25940.00000 0.27948
25960.00000 0.25465
25980.00000 0.22787
26000.00000 0.21184
26020.00000 0.19533
26040.00000 0.17993
26060.00000 0.16321
26080.00000 0.14798
26100.00000 0.13728
26120.00000 0.12541
26140.00000 0.11382
26160.00000 0.10344
26180.00000 0.09549
26200.00000 0.08817
26220.00000 0.08049
26240.00000 0.07349
26260.00000 0.06653
26280.00000 0.06096
26300.00000 0.05579
26320.00000 0.05176
26340.00000 0.0482
26360.00000 0.04442
26380.00000 0.04189
26400.00000 0.03894
26420.00000 0.03606
26440.00000 0.03294
26460.00000 0.0302
26480.00000 0.02827
26500.00000 0.02672
26520.00000 0.02422
26540.00000 0.02235
26560.00000 0.02156
26580.00000 0.01926
26600.00000 0.01779
26620.00000 0.01723
26640.00000 0.01753
26660.00000 0.01453
26680.00000 0.01447
26700.00000 0.01608
26720.00000 0.01358
26740.00000 0.01282
26760.00000 0.00917
26780.00000 0.00719
26800.00000 0.00851
26820.00000 0.00888
26840.00000 0.00873
26860.00000 0.00839
26880.00000 0.0085
26900.00000 0.00821
26920.00000 0.00717
26940.00000 0.00847
26960.00000 0.00769
26980.00000 0.00551
27000.00000 0.00513
27020.00000 0.00453
27040.00000 0.00453
27060.00000 0.00465
27080.00000 0.00485
27100.00000 0.00438
29810.00000 0.0
