# %ECSV 0.9
# ---
# datatype:
# - {name: wavelength, unit: Angstrom, datatype: float32}
# - {name: response, datatype: float32}
# meta: !!omap
# - {band_name: cfh8002}
# - {group_name: CFHT}
wavelength response
8447.40039 0.0
9386.00000 0.00996
9388.00000 0.01003
9390.00000 0.01028
9392.00000 0.0106
9394.00000 0.01074
9396.00000 0.01096
9398.00000 0.01115
9400.00000 0.01132
9402.00000 0.01141
9404.00000 0.0117
9406.00000 0.01202
9408.00000 0.0123
9410.00000 0.0125
9412.00000 0.01271
9414.00000 0.01286
9416.00000 0.01314
9418.00000 0.01341
9420.00000 0.01379
9422.00000 0.01404
9424.00000 0.01424
9426.00000 0.01457
9428.00000 0.01488
9430.00000 0.01511
9432.00000 0.01546
9434.00000 0.01587
9436.00000 0.01624
9438.00000 0.01642
9440.00000 0.01669
9442.00000 0.01706
9444.00000 0.01729
9446.00000 0.01761
9448.00000 0.01794
9450.00000 0.01837
9452.00000 0.01866
9454.00000 0.01906
9456.00000 0.01953
9458.00000 0.01988
9460.00000 0.02042
9462.00000 0.02095
9464.00000 0.02142
9466.00000 0.02177
9468.00000 0.02223
9470.00000 0.02272
9472.00000 0.02332
9474.00000 0.0238
9476.00000 0.02443
9478.00000 0.02499
9480.00000 0.02557
9482.00000 0.02614
9484.00000 0.02672
9486.00000 0.02731
9488.00000 0.02794
9490.00000 0.02849
9492.00000 0.02907
9494.00000 0.02979
9496.00000 0.03056
9498.00000 0.03137
9500.00000 0.03204
9502.00000 0.03282
9504.00000 0.03355
9506.00000 0.03441
9508.00000 0.03531
9510.00000 0.03613
9512.00000 0.03693
9514.00000 0.03784
9516.00000 0.03873
9518.00000 0.0397
9520.00000 0.04074
9522.00000 0.04185
9524.00000 0.04294
9526.00000 0.04393
9528.00000 0.045
9530.00000 0.04613
9532.00000 0.04742
9534.00000 0.04871
9536.00000 0.04999
9538.00000 0.05138
9540.00000 0.05273
9542.00000 0.0542
9544.00000 0.05571
9546.00000 0.05725
9548.00000 0.0589
9550.00000 0.0605
9552.00000 0.06216
9554.00000 0.06396
9556.00000 0.06578
9558.00000 0.06772
9560.00000 0.0696
9562.00000 0.07152
9564.00000 0.07332
9566.00000 0.07526
9568.00000 0.07735
9570.00000 0.07942
9572.00000 0.08147
9574.00000 0.08362
9576.00000 0.08586
9578.00000 0.08809
9580.00000 0.09047
9582.00000 0.09291
9584.00000 0.09529
9586.00000 0.09787
9588.00000 0.10045
9590.00000 0.10301
9592.00000 0.10576
9594.00000 0.10863
9596.00000 0.11162
9598.00000 0.11461
9600.00000 0.11761
9602.00000 0.12073
9604.00000 0.12402
9606.00000 0.12729
9608.00000 0.13072
9610.00000 0.13417
9612.00000 0.13762
9614.00000 0.14133
9616.00000 0.14502
9618.00000 0.14868
9620.00000 0.15254
9622.00000 0.15648
9624.00000 0.16046
9626.00000 0.16452
9628.00000 0.16864
9630.00000 0.17293
9632.00000 0.17731
9634.00000 0.18179
9636.00000 0.18633
9638.00000 0.19099
9640.00000 0.19557
9642.00000 0.20039
9644.00000 0.20541
9646.00000 0.21021
9648.00000 0.21533
9650.00000 0.22057
9652.00000 0.22578
9654.00000 0.23105
9656.00000 0.23647
9658.00000 0.24187
9660.00000 0.24748
9662.00000 0.25314
9664.00000 0.25874
9666.00000 0.26437
9668.00000 0.27007
9670.00000 0.27594
9672.00000 0.28186
9674.00000 0.2878
9676.00000 0.29375
9678.00000 0.29987
9680.00000 0.30583
9682.00000 0.31195
9684.00000 0.31812
9686.00000 0.32449
9688.00000 0.33067
9690.00000 0.33698
9692.00000 0.34326
9694.00000 0.34955
9696.00000 0.35596
9698.00000 0.36235
9700.00000 0.36882
9702.00000 0.37524
9704.00000 0.38161
9706.00000 0.388
9708.00000 0.39433
9710.00000 0.40068
9712.00000 0.407
9714.00000 0.41319
9716.00000 0.41942
9718.00000 0.42555
9720.00000 0.43172
9722.00000 0.43787
9724.00000 0.44392
9726.00000 0.44998
9728.00000 0.45599
9730.00000 0.46187
9732.00000 0.46768
9734.00000 0.4735
9736.00000 0.47928
9738.00000 0.48485
9740.00000 0.49051
9742.00000 0.496
9744.00000 0.50146
9746.00000 0.50679
9748.00000 0.51202
9750.00000 0.51706
9752.00000 0.52225
9754.00000 0.52718
9756.00000 0.53209
9758.00000 0.5369
9760.00000 0.54158
9762.00000 0.54619
9764.00000 0.55061
9766.00000 0.55484
9768.00000 0.55907
9770.00000 0.56319
9772.00000 0.56699
9774.00000 0.57085
9776.00000 0.57466
9778.00000 0.57838
9780.00000 0.58192
9782.00000 0.58549
9784.00000 0.58876
9786.00000 0.59198
9788.00000 0.59515
9790.00000 0.59813
9792.00000 0.60109
9794.00000 0.60388
9796.00000 0.60666
9798.00000 0.60933
9800.00000 0.61192
9802.00000 0.61443
9804.00000 0.61693
9806.00000 0.61926
9808.00000 0.62152
9810.00000 0.6237
9812.00000 0.62582
9814.00000 0.62782
9816.00000 0.62978
9818.00000 0.63171
9820.00000 0.63344
9822.00000 0.63513
9824.00000 0.6368
9826.00000 0.63841
9828.00000 0.63998
9830.00000 0.64146
9832.00000 0.64284
9834.00000 0.6443
9836.00000 0.6456
9838.00000 0.64693
9840.00000 0.64816
9842.00000 0.64943
9844.00000 0.6507
9846.00000 0.65193
9848.00000 0.65306
9850.00000 0.65422
9852.00000 0.65533
9854.00000 0.65633
9856.00000 0.65738
9858.00000 0.65839
9860.00000 0.65938
9862.00000 0.66048
9864.00000 0.66153
9866.00000 0.66249
9868.00000 0.66353
9870.00000 0.66452
9872.00000 0.66553
9874.00000 0.66652
9876.00000 0.66742
9878.00000 0.66835
9880.00000 0.66933
9882.00000 0.67018
9884.00000 0.67102
9886.00000 0.67203
9888.00000 0.67285
9890.00000 0.67378
9892.00000 0.67456
9894.00000 0.67537
9896.00000 0.67621
9898.00000 0.67708
9900.00000 0.67792
9902.00000 0.67877
9904.00000 0.67963
9906.00000 0.68042
9908.00000 0.68123
9910.00000 0.68211
9912.00000 0.68295
9914.00000 0.68387
9916.00000 0.68481
9918.00000 0.68565
9920.00000 0.68661
9922.00000 0.68748
9924.00000 0.68855
9926.00000 0.68947
9928.00000 0.69034
9930.00000 0.69127
9932.00000 0.6922
9934.00000 0.69299
9936.00000 0.69379
9938.00000 0.6946
9940.00000 0.6955
9942.00000 0.69621
9944.00000 0.69701
9946.00000 0.69772
9948.00000 0.69849
9950.00000 0.69919
9952.00000 0.69991
9954.00000 0.70064
9956.00000 0.70126
9958.00000 0.70189
9960.00000 0.70259
9962.00000 0.70317
9964.00000 0.70377
9966.00000 0.70438
9968.00000 0.70494
9970.00000 0.70549
9972.00000 0.70599
9974.00000 0.70653
9976.00000 0.707
9978.00000 0.70746
9980.00000 0.70795
9982.00000 0.70844
9984.00000 0.70889
9986.00000 0.70921
9988.00000 0.70963
9990.00000 0.71005
9992.00000 0.71031
9994.00000 0.71063
9996.00000 0.711
9998.00000 0.71135
10000.00000 0.71175
10002.00000 0.71204
10004.00000 0.71227
10006.00000 0.71251
10008.00000 0.71271
10010.00000 0.71294
10012.00000 0.71303
10014.00000 0.71313
10016.00000 0.7132
10018.00000 0.71326
10020.00000 0.7133
10022.00000 0.71335
10024.00000 0.71342
10026.00000 0.71347
10028.00000 0.7135
10030.00000 0.7135
10032.00000 0.71336
10034.00000 0.71336
10036.00000 0.71338
10038.00000 0.71332
10040.00000 0.71333
10042.00000 0.71318
10044.00000 0.71312
10046.00000 0.71307
10048.00000 0.71301
10050.00000 0.71301
10052.00000 0.71284
10054.00000 0.71269
10056.00000 0.71266
10058.00000 0.71259
10060.00000 0.71234
10062.00000 0.71217
10064.00000 0.71202
10066.00000 0.71187
10068.00000 0.71167
10070.00000 0.71146
10072.00000 0.71126
10074.00000 0.71115
10076.00000 0.711
10078.00000 0.71071
10080.00000 0.71048
10082.00000 0.71027
10084.00000 0.71005
10086.00000 0.70981
10088.00000 0.70956
10090.00000 0.70926
10092.00000 0.70905
10094.00000 0.70879
10096.00000 0.70863
10098.00000 0.70837
10100.00000 0.70811
10102.00000 0.70787
10104.00000 0.70766
10106.00000 0.70744
10108.00000 0.70729
10110.00000 0.70718
10112.00000 0.70703
10114.00000 0.70688
10116.00000 0.7068
10118.00000 0.70671
10120.00000 0.70654
10122.00000 0.70648
10124.00000 0.70648
10126.00000 0.70647
10128.00000 0.70638
10130.00000 0.70641
10132.00000 0.70644
10134.00000 0.70654
10136.00000 0.70659
10138.00000 0.70663
10140.00000 0.70657
10142.00000 0.70662
10144.00000 0.7067
10146.00000 0.70674
10148.00000 0.70686
10150.00000 0.707
10152.00000 0.70718
10154.00000 0.70734
10156.00000 0.70746
10158.00000 0.70766
10160.00000 0.70792
10162.00000 0.70815
10164.00000 0.70844
10166.00000 0.70876
10168.00000 0.70903
10170.00000 0.7094
10172.00000 0.70987
10174.00000 0.71031
10176.00000 0.71071
10178.00000 0.71115
10180.00000 0.71153
10182.00000 0.71202
10184.00000 0.71249
10186.00000 0.71303
10188.00000 0.71362
10190.00000 0.71422
10192.00000 0.71474
10194.00000 0.71527
10196.00000 0.71579
10198.00000 0.71637
10200.00000 0.71704
10202.00000 0.71759
10204.00000 0.71825
10206.00000 0.7188
10208.00000 0.71944
10210.00000 0.72003
10212.00000 0.72066
10214.00000 0.72127
10216.00000 0.72183
10218.00000 0.72244
10220.00000 0.72304
10222.00000 0.72356
10224.00000 0.72417
10226.00000 0.72478
10228.00000 0.72539
10230.00000 0.72595
10232.00000 0.7265
10234.00000 0.72716
10236.00000 0.72768
10238.00000 0.72829
10240.00000 0.72885
10242.00000 0.72954
10244.00000 0.73013
10246.00000 0.73071
10248.00000 0.73135
10250.00000 0.73192
10252.00000 0.7325
10254.00000 0.73312
10256.00000 0.73375
10258.00000 0.73434
10260.00000 0.73494
10262.00000 0.73546
10264.00000 0.73599
10266.00000 0.73651
10268.00000 0.73698
10270.00000 0.73747
10272.00000 0.73793
10274.00000 0.73831
10276.00000 0.7388
10278.00000 0.73921
10280.00000 0.73959
10282.00000 0.74001
10284.00000 0.74036
10286.00000 0.74063
10288.00000 0.74088
10290.00000 0.74112
10292.00000 0.74132
10294.00000 0.74158
10296.00000 0.74178
10298.00000 0.74197
10300.00000 0.74217
10302.00000 0.74237
10304.00000 0.74257
10306.00000 0.74272
10308.00000 0.74281
10310.00000 0.74287
10312.00000 0.74297
10314.00000 0.74297
10316.00000 0.74297
10318.00000 0.74298
10320.00000 0.743
10322.00000 0.74304
10324.00000 0.74303
10326.00000 0.743
10328.00000 0.74295
10330.00000 0.74284
10332.00000 0.74275
10334.00000 0.74255
10336.00000 0.74228
10338.00000 0.74208
10340.00000 0.74182
10342.00000 0.74162
10344.00000 0.74136
10346.00000 0.74113
10348.00000 0.74083
10350.00000 0.74055
10352.00000 0.74023
10354.00000 0.73984
10356.00000 0.7395
10358.00000 0.73914
10360.00000 0.73874
10362.00000 0.7384
10364.00000 0.73801
10366.00000 0.73769
10368.00000 0.73735
10370.00000 0.737
10372.00000 0.73663
10374.00000 0.73627
10376.00000 0.73586
10378.00000 0.73544
10380.00000 0.73506
10382.00000 0.73465
10384.00000 0.73419
10386.00000 0.7338
10388.00000 0.73338
10390.00000 0.73296
10392.00000 0.73256
10394.00000 0.73209
10396.00000 0.73164
10398.00000 0.73116
10400.00000 0.73073
10402.00000 0.73021
10404.00000 0.72968
10406.00000 0.7292
10408.00000 0.72874
10410.00000 0.72823
10412.00000 0.72769
10414.00000 0.72723
10416.00000 0.72678
10418.00000 0.72627
10420.00000 0.72575
10422.00000 0.72525
10424.00000 0.72473
10426.00000 0.72418
10428.00000 0.72374
10430.00000 0.72327
10432.00000 0.72272
10434.00000 0.72227
10436.00000 0.72177
10438.00000 0.72121
10440.00000 0.72066
10442.00000 0.72012
10444.00000 0.7196
10446.00000 0.71907
10448.00000 0.71852
10450.00000 0.71796
10452.00000 0.71733
10454.00000 0.71672
10456.00000 0.71611
10458.00000 0.71548
10460.00000 0.71486
10462.00000 0.71425
10464.00000 0.71358
10466.00000 0.71288
10468.00000 0.71225
10470.00000 0.71158
10472.00000 0.71092
10474.00000 0.71024
10476.00000 0.70952
10478.00000 0.70883
10480.00000 0.7081
10482.00000 0.70741
10484.00000 0.70673
10486.00000 0.70601
10488.00000 0.70529
10490.00000 0.70462
10492.00000 0.70386
10494.00000 0.70308
10496.00000 0.70236
10498.00000 0.70168
10500.00000 0.70094
10502.00000 0.70016
10504.00000 0.69942
10506.00000 0.69867
10508.00000 0.69797
10510.00000 0.69716
10512.00000 0.69641
10514.00000 0.69565
10516.00000 0.69489
10518.00000 0.69409
10520.00000 0.69334
10522.00000 0.69255
10524.00000 0.6918
10526.00000 0.69109
10528.00000 0.69035
10530.00000 0.68964
10532.00000 0.68892
10534.00000 0.68826
10536.00000 0.68753
10538.00000 0.68684
10540.00000 0.68614
10542.00000 0.68552
10544.00000 0.68491
10546.00000 0.6843
10548.00000 0.68364
10550.00000 0.68307
10552.00000 0.68248
10554.00000 0.68192
10556.00000 0.6813
10558.00000 0.68069
10560.00000 0.68019
10562.00000 0.67966
10564.00000 0.67917
10566.00000 0.67865
10568.00000 0.67822
10570.00000 0.67773
10572.00000 0.67729
10574.00000 0.67685
10576.00000 0.67642
10578.00000 0.67599
10580.00000 0.67566
10582.00000 0.67532
10584.00000 0.67502
10586.00000 0.67471
10588.00000 0.67448
10590.00000 0.67426
10592.00000 0.674
10594.00000 0.67375
10596.00000 0.67355
10598.00000 0.67334
10600.00000 0.67317
10602.00000 0.673
10604.00000 0.67285
10606.00000 0.67271
10608.00000 0.67258
10610.00000 0.67249
10612.00000 0.67242
10614.00000 0.67233
10616.00000 0.67226
10618.00000 0.67216
10620.00000 0.67213
10622.00000 0.6721
10624.00000 0.67209
10626.00000 0.67209
10628.00000 0.67212
10630.00000 0.67216
10632.00000 0.6721
10634.00000 0.67213
10636.00000 0.6722
10638.00000 0.67223
10640.00000 0.67224
10642.00000 0.67229
10644.00000 0.67229
10646.00000 0.67227
10648.00000 0.67226
10650.00000 0.67223
10652.00000 0.67215
10654.00000 0.67207
10656.00000 0.67191
10658.00000 0.67174
10660.00000 0.67148
10662.00000 0.67119
10664.00000 0.67091
10666.00000 0.67056
10668.00000 0.67006
10670.00000 0.66951
10672.00000 0.66887
10674.00000 0.66818
10676.00000 0.66742
10678.00000 0.66656
10680.00000 0.6656
10682.00000 0.66461
10684.00000 0.66351
10686.00000 0.66228
10688.00000 0.66101
10690.00000 0.65961
10692.00000 0.65813
10694.00000 0.65651
10696.00000 0.65472
10698.00000 0.6528
10700.00000 0.65076
10702.00000 0.64864
10704.00000 0.64632
10706.00000 0.64386
10708.00000 0.64128
10710.00000 0.63855
10712.00000 0.6357
10714.00000 0.63268
10716.00000 0.62949
10718.00000 0.62613
10720.00000 0.62262
10722.00000 0.619
10724.00000 0.61517
10726.00000 0.61119
10728.00000 0.60719
10730.00000 0.60306
10732.00000 0.59885
10734.00000 0.59441
10736.00000 0.5899
10738.00000 0.58527
10740.00000 0.58046
10742.00000 0.57553
10744.00000 0.57047
10746.00000 0.56526
10748.00000 0.55991
10750.00000 0.55447
10752.00000 0.54893
10754.00000 0.54321
10756.00000 0.53743
10758.00000 0.53154
10760.00000 0.52553
10762.00000 0.51942
10764.00000 0.5132
10766.00000 0.50685
10768.00000 0.50047
10770.00000 0.49393
10772.00000 0.48737
10774.00000 0.48077
10776.00000 0.47411
10778.00000 0.46744
10780.00000 0.46075
10782.00000 0.45401
10784.00000 0.44716
10786.00000 0.44032
10788.00000 0.43346
10790.00000 0.42661
10792.00000 0.41972
10794.00000 0.41286
10796.00000 0.40599
10798.00000 0.39917
10800.00000 0.3923
10802.00000 0.38556
10804.00000 0.37885
10806.00000 0.37209
10808.00000 0.36539
10810.00000 0.35866
10812.00000 0.35202
10814.00000 0.34537
10816.00000 0.33887
10818.00000 0.3324
10820.00000 0.32597
10822.00000 0.31963
10824.00000 0.31334
10826.00000 0.30716
10828.00000 0.30109
10830.00000 0.29504
10832.00000 0.28911
10834.00000 0.28322
10836.00000 0.27739
10838.00000 0.27173
10840.00000 0.26614
10842.00000 0.26065
10844.00000 0.25519
10846.00000 0.24988
10848.00000 0.24463
10850.00000 0.23949
10852.00000 0.23445
10854.00000 0.22951
10856.00000 0.22469
10858.00000 0.21988
10860.00000 0.21519
10862.00000 0.21065
10864.00000 0.20612
10866.00000 0.20175
10868.00000 0.19742
10870.00000 0.19315
10872.00000 0.18896
10874.00000 0.18491
10876.00000 0.18095
10878.00000 0.17714
10880.00000 0.17337
10882.00000 0.16968
10884.00000 0.16611
10886.00000 0.16258
10888.00000 0.15912
10890.00000 0.15573
10892.00000 0.1524
10894.00000 0.14914
10896.00000 0.14597
10898.00000 0.14284
10900.00000 0.13983
10902.00000 0.13693
10904.00000 0.13406
10906.00000 0.13127
10908.00000 0.12852
10910.00000 0.12581
10912.00000 0.12318
10914.00000 0.12062
10916.00000 0.11813
10918.00000 0.11571
10920.00000 0.1133
10922.00000 0.11101
10924.00000 0.10873
10926.00000 0.10654
10928.00000 0.10437
10930.00000 0.10226
10932.00000 0.10027
10934.00000 0.09825
10936.00000 0.09627
10938.00000 0.09435
10940.00000 0.09245
10942.00000 0.09062
10944.00000 0.08885
10946.00000 0.08711
10948.00000 0.08536
10950.00000 0.08366
10952.00000 0.082
10954.00000 0.08041
10956.00000 0.07884
10958.00000 0.07732
10960.00000 0.07587
10962.00000 0.07443
10964.00000 0.07298
10966.00000 0.07161
10968.00000 0.07028
10970.00000 0.06897
10972.00000 0.06772
10974.00000 0.0665
10976.00000 0.06525
10978.00000 0.06406
10980.00000 0.0629
10982.00000 0.0618
10984.00000 0.06068
10986.00000 0.05959
10988.00000 0.05855
10990.00000 0.05751
10992.00000 0.05649
10994.00000 0.05548
10996.00000 0.05452
10998.00000 0.05354
11000.00000 0.05258
11002.00000 0.05167
11004.00000 0.0508
11006.00000 0.04987
11008.00000 0.04903
11010.00000 0.04823
11012.00000 0.04742
11014.00000 0.0466
11016.00000 0.04579
11018.00000 0.04497
11020.00000 0.04424
11022.00000 0.04349
11024.00000 0.04274
11026.00000 0.04205
11028.00000 0.04131
11030.00000 0.04062
11032.00000 0.04001
11034.00000 0.03934
11036.00000 0.03868
11038.00000 0.03807
11040.00000 0.03748
11042.00000 0.03688
11044.00000 0.03629
11046.00000 0.03569
11048.00000 0.03516
11050.00000 0.03464
11052.00000 0.03409
11054.00000 0.03358
11056.00000 0.03313
11058.00000 0.03261
11060.00000 0.03215
11062.00000 0.03171
11064.00000 0.03116
11066.00000 0.03075
11068.00000 0.03024
11070.00000 0.02977
11072.00000 0.0293
11074.00000 0.02885
11076.00000 0.02843
11078.00000 0.02802
11080.00000 0.02759
11082.00000 0.02722
11084.00000 0.02679
11086.00000 0.02638
11088.00000 0.02597
11090.00000 0.02563
11092.00000 0.02525
11094.00000 0.02489
11096.00000 0.02457
11098.00000 0.02419
11100.00000 0.0239
11102.00000 0.02356
11104.00000 0.02324
11106.00000 0.02289
11108.00000 0.0226
11110.00000 0.02231
11112.00000 0.02206
11114.00000 0.02173
11116.00000 0.02139
11118.00000 0.02107
11120.00000 0.0208
11122.00000 0.02043
11124.00000 0.02019
11126.00000 0.01991
11128.00000 0.01965
11130.00000 0.01938
11132.00000 0.01915
11134.00000 0.01889
12247.40039 0.0
