# %ECSV 0.9
# ---
# datatype:
# - {name: wavelength, unit: Angstrom, datatype: float32}
# - {name: response, datatype: float32}
# meta: !!omap
# - {band_name: cfh5130}
# - {group_name: CFHT}
wavelength response
9270.00000 0.0
10300.00000 0.00401
10320.00000 0.00798
10340.00000 0.01518
10360.00000 0.02542
10380.00000 0.03439
10400.00000 0.03918
10420.00000 0.04184
10440.00000 0.04529
10460.00000 0.05266
10480.00000 0.0663
10500.00000 0.08865
10520.00000 0.1198
10540.00000 0.15036
10560.00000 0.16508
10580.00000 0.15837
10600.00000 0.1398
10620.00000 0.12146
10640.00000 0.10915
10660.00000 0.10394
10680.00000 0.105
10700.00000 0.11211
10720.00000 0.12593
10740.00000 0.14757
10760.00000 0.17819
10780.00000 0.21826
10800.00000 0.26486
10820.00000 0.30978
10840.00000 0.3438
10860.00000 0.36136
10880.00000 0.36293
10900.00000 0.35394
10920.00000 0.34177
10940.00000 0.33202
10960.00000 0.32809
10980.00000 0.33188
11000.00000 0.34413
11020.00000 0.3654
11040.00000 0.39589
11060.00000 0.43509
11080.00000 0.481
11100.00000 0.53017
11120.00000 0.57805
11140.00000 0.61858
11160.00000 0.6465
11180.00000 0.65948
11200.00000 0.65881
11220.00000 0.64792
11240.00000 0.63112
11260.00000 0.61244
11280.00000 0.59485
11300.00000 0.5802
11320.00000 0.56876
11340.00000 0.56111
11360.00000 0.55753
11380.00000 0.55693
11400.00000 0.55838
11420.00000 0.56166
11440.00000 0.56598
11460.00000 0.57042
11480.00000 0.57452
11500.00000 0.57797
11520.00000 0.58067
11540.00000 0.58263
11560.00000 0.58406
11580.00000 0.58507
11600.00000 0.58606
11620.00000 0.58713
11640.00000 0.58864
11660.00000 0.59117
11680.00000 0.59445
11700.00000 0.59854
11720.00000 0.60367
11740.00000 0.60979
11760.00000 0.61682
11780.00000 0.625
11800.00000 0.63438
11820.00000 0.64482
11840.00000 0.65636
11860.00000 0.66875
11880.00000 0.68188
11900.00000 0.69586
11920.00000 0.71008
11940.00000 0.72426
11960.00000 0.73801
11980.00000 0.75056
12000.00000 0.76151
12020.00000 0.77026
12040.00000 0.77637
12060.00000 0.77911
12080.00000 0.77827
12100.00000 0.774
12120.00000 0.76628
12140.00000 0.7558
12160.00000 0.74307
12180.00000 0.7283
12200.00000 0.71309
12220.00000 0.69815
12240.00000 0.68382
12260.00000 0.67088
12280.00000 0.65993
12300.00000 0.65176
12320.00000 0.64626
12340.00000 0.64302
12360.00000 0.64223
12380.00000 0.64519
12400.00000 0.65141
12420.00000 0.65959
12440.00000 0.66998
12460.00000 0.68242
12480.00000 0.69638
12500.00000 0.71097
12520.00000 0.72549
12540.00000 0.73921
12560.00000 0.75102
12580.00000 0.76009
12600.00000 0.76575
12620.00000 0.76752
12640.00000 0.76521
12660.00000 0.75902
12680.00000 0.74948
12700.00000 0.73711
12720.00000 0.72278
12740.00000 0.70741
12760.00000 0.69186
12780.00000 0.67677
12800.00000 0.66245
12820.00000 0.64987
12840.00000 0.63933
12860.00000 0.63068
12880.00000 0.62424
12900.00000 0.62007
12920.00000 0.61818
12940.00000 0.61856
12960.00000 0.62109
12980.00000 0.62527
13000.00000 0.63155
13020.00000 0.63971
13040.00000 0.64894
13060.00000 0.65897
13080.00000 0.66922
13100.00000 0.6796
13120.00000 0.68962
13140.00000 0.69859
13160.00000 0.70615
13180.00000 0.71178
13200.00000 0.71516
13220.00000 0.71645
13240.00000 0.71591
13260.00000 0.71358
13280.00000 0.70982
13300.00000 0.70499
13320.00000 0.69957
13340.00000 0.69415
13360.00000 0.68903
13380.00000 0.68462
13400.00000 0.68124
13420.00000 0.67938
13440.00000 0.67888
13460.00000 0.67979
13480.00000 0.68268
13500.00000 0.68727
13520.00000 0.69325
13540.00000 0.70049
13560.00000 0.70891
13580.00000 0.71721
13600.00000 0.72443
13620.00000 0.73222
13640.00000 0.74023
13660.00000 0.74655
13680.00000 0.74959
13700.00000 0.74867
13720.00000 0.74515
13740.00000 0.73952
13760.00000 0.73076
13780.00000 0.71918
13800.00000 0.70526
13820.00000 0.69012
13840.00000 0.67438
13860.00000 0.65907
13880.00000 0.64603
13900.00000 0.63504
13920.00000 0.62712
13940.00000 0.62294
13960.00000 0.62323
13980.00000 0.62851
14000.00000 0.63972
14020.00000 0.65591
14040.00000 0.67424
14060.00000 0.69205
14080.00000 0.70322
14100.00000 0.69878
14120.00000 0.67159
14140.00000 0.61766
14160.00000 0.5425
14180.00000 0.45702
14200.00000 0.37042
14220.00000 0.2923
14240.00000 0.22604
14260.00000 0.17226
14280.00000 0.13084
14300.00000 0.0994
14320.00000 0.07567
14340.00000 0.05789
14360.00000 0.04489
14380.00000 0.03519
14400.00000 0.02786
14420.00000 0.02237
14440.00000 0.0181
14460.00000 0.01479
14480.00000 0.01218
14500.00000 0.01015
14520.00000 0.00853
14540.00000 0.00716
14560.00000 0.00603
14580.00000 0.00511
14600.00000 0.00438
16060.00000 0.0
