# %ECSV 0.9
# ---
# datatype:
# - {name: wavelength, unit: Angstrom, datatype: float32}
# - {name: response, datatype: float32}
# meta: !!omap
# - {band_name: cfh5101}
# - {group_name: CFHT}
wavelength response
9738.00000 0.0
10820.00000 0.00409
10840.00000 0.00516
10860.00000 0.00664
10880.00000 0.00868
10900.00000 0.01128
10920.00000 0.01418
10940.00000 0.01819
10960.00000 0.02431
10980.00000 0.03323
11000.00000 0.04596
11020.00000 0.06392
11040.00000 0.08643
11060.00000 0.11377
11080.00000 0.15083
11100.00000 0.20139
11120.00000 0.26389
11140.00000 0.33351
11160.00000 0.40318
11180.00000 0.46573
11200.00000 0.52217
11220.00000 0.57562
11240.00000 0.62704
11260.00000 0.67598
11280.00000 0.72203
11300.00000 0.7663
11320.00000 0.8076
11340.00000 0.8439
11360.00000 0.87231
11380.00000 0.89119
11400.00000 0.90141
11420.00000 0.90506
11440.00000 0.9045
11460.00000 0.90189
11480.00000 0.89867
11500.00000 0.89656
11520.00000 0.89737
11540.00000 0.90186
11560.00000 0.90985
11580.00000 0.9205
11600.00000 0.93237
11620.00000 0.94354
11640.00000 0.95209
11660.00000 0.95726
11680.00000 0.95874
11700.00000 0.95575
11720.00000 0.94887
11740.00000 0.93959
11760.00000 0.92979
11780.00000 0.92072
11800.00000 0.91281
11820.00000 0.9068
11840.00000 0.90341
11860.00000 0.90265
11880.00000 0.90448
11900.00000 0.90863
11920.00000 0.91422
11940.00000 0.92012
11960.00000 0.92485
11980.00000 0.92857
12000.00000 0.93054
12020.00000 0.92979
12040.00000 0.92696
12060.00000 0.92218
12080.00000 0.91551
12100.00000 0.9072
12120.00000 0.89757
12140.00000 0.88741
12160.00000 0.87816
12180.00000 0.87061
12200.00000 0.86551
12220.00000 0.86308
12240.00000 0.86255
12260.00000 0.86246
12280.00000 0.86172
12300.00000 0.86061
12320.00000 0.85979
12340.00000 0.85954
12360.00000 0.86031
12380.00000 0.86215
12400.00000 0.86417
12420.00000 0.8653
12440.00000 0.86504
12460.00000 0.86348
12480.00000 0.86147
12500.00000 0.86008
12520.00000 0.85973
12540.00000 0.86015
12560.00000 0.86087
12580.00000 0.86185
12600.00000 0.86299
12620.00000 0.86443
12640.00000 0.86632
12660.00000 0.86844
12680.00000 0.8707
12700.00000 0.873
12720.00000 0.87544
12740.00000 0.87787
12760.00000 0.88051
12780.00000 0.88361
12800.00000 0.88655
12820.00000 0.88922
12840.00000 0.89188
12860.00000 0.89474
12880.00000 0.8979
12900.00000 0.9015
12920.00000 0.90569
12940.00000 0.9099
12960.00000 0.91364
12980.00000 0.91656
13000.00000 0.91876
13020.00000 0.92049
13040.00000 0.92209
13060.00000 0.92381
13080.00000 0.92511
13100.00000 0.92587
13120.00000 0.92586
13140.00000 0.92427
13160.00000 0.92172
13180.00000 0.9192
13200.00000 0.91685
13220.00000 0.91522
13240.00000 0.91411
13260.00000 0.9127
13280.00000 0.91054
13300.00000 0.90732
13320.00000 0.90352
13340.00000 0.89986
13360.00000 0.8969
13380.00000 0.89499
13400.00000 0.89372
13420.00000 0.89253
13440.00000 0.89069
13460.00000 0.88747
13480.00000 0.8833
13500.00000 0.87898
13520.00000 0.87491
13540.00000 0.87152
13560.00000 0.86992
13580.00000 0.86906
13600.00000 0.86752
13620.00000 0.8667
13640.00000 0.86789
13660.00000 0.87035
13680.00000 0.8718
13700.00000 0.87222
13720.00000 0.8744
13740.00000 0.87881
13760.00000 0.88377
13780.00000 0.88846
13800.00000 0.8929
13820.00000 0.89774
13840.00000 0.90099
13860.00000 0.90315
13880.00000 0.90646
13900.00000 0.90915
13920.00000 0.91191
13940.00000 0.91385
13960.00000 0.91455
13980.00000 0.91548
14000.00000 0.91611
14020.00000 0.91621
14040.00000 0.91426
14060.00000 0.91122
14080.00000 0.90837
14100.00000 0.90578
14120.00000 0.90372
14140.00000 0.90121
14160.00000 0.89833
14180.00000 0.89507
14200.00000 0.89076
14220.00000 0.88496
14240.00000 0.87802
14260.00000 0.87001
14280.00000 0.86044
14300.00000 0.84964
14320.00000 0.83786
14340.00000 0.82497
14360.00000 0.81125
14380.00000 0.7971
14400.00000 0.78256
14420.00000 0.76808
14440.00000 0.75398
14460.00000 0.7399
14480.00000 0.72588
14500.00000 0.71265
14520.00000 0.70032
14540.00000 0.6891
14560.00000 0.67966
14580.00000 0.67188
14600.00000 0.66585
14620.00000 0.66199
14640.00000 0.66028
14660.00000 0.66127
14680.00000 0.66493
14700.00000 0.67082
14720.00000 0.67905
14740.00000 0.68945
14760.00000 0.70197
14780.00000 0.71675
14800.00000 0.73354
14820.00000 0.75203
14840.00000 0.77231
14860.00000 0.79401
14880.00000 0.81691
14900.00000 0.84
14920.00000 0.86237
14940.00000 0.88344
14960.00000 0.90221
14980.00000 0.91757
15000.00000 0.92839
15020.00000 0.93387
15040.00000 0.93359
15060.00000 0.92722
15080.00000 0.9149
15100.00000 0.89722
15120.00000 0.87442
15140.00000 0.8477
15160.00000 0.81793
15180.00000 0.78673
15200.00000 0.75523
15220.00000 0.72371
15240.00000 0.69307
15260.00000 0.66373
15280.00000 0.63693
15300.00000 0.61266
15320.00000 0.59065
15340.00000 0.57138
15360.00000 0.55481
15380.00000 0.54079
15400.00000 0.52928
15420.00000 0.52078
15440.00000 0.51518
15460.00000 0.51244
15480.00000 0.51259
15500.00000 0.51585
15520.00000 0.52229
15540.00000 0.53178
15560.00000 0.54454
15580.00000 0.56082
15600.00000 0.58018
15620.00000 0.60211
15640.00000 0.62646
15660.00000 0.65218
15680.00000 0.67778
15700.00000 0.70116
15720.00000 0.72003
15740.00000 0.73236
15760.00000 0.73672
15780.00000 0.73245
15800.00000 0.71901
15820.00000 0.69696
15840.00000 0.66821
15860.00000 0.63477
15880.00000 0.59921
15900.00000 0.5629
15920.00000 0.52641
15940.00000 0.49088
15960.00000 0.45662
15980.00000 0.42352
16000.00000 0.39061
16020.00000 0.35745
16040.00000 0.32339
16060.00000 0.28761
16080.00000 0.25069
16100.00000 0.2132
16120.00000 0.17607
16140.00000 0.14189
16160.00000 0.11235
16180.00000 0.08748
16200.00000 0.06725
16220.00000 0.05136
16240.00000 0.03906
16260.00000 0.0296
16280.00000 0.02254
16300.00000 0.01733
16320.00000 0.01346
16340.00000 0.01053
16360.00000 0.00827
16380.00000 0.00653
16400.00000 0.00529
16420.00000 0.00439
18062.00000 0.0
