# %ECSV 0.9
# ---
# datatype:
# - {name: wavelength, unit: Angstrom, datatype: float32}
# - {name: response, datatype: float32}
# meta: !!omap
# - {band_name: H}
# - {group_name: NIRC2}
wavelength response
13000.50000 0.0
14445.00000 0.00417
14448.87012 0.004166
14452.75000 0.004163
14452.76953 0.005271
14456.63965 0.005268
14460.50977 0.005264
14464.38965 0.00526
14468.25977 0.005257
14472.12988 0.005253
14476.00977 0.005249
14476.03027 0.006358
14479.90039 0.006354
14483.76953 0.006351
14483.79004 0.007459
14487.66016 0.007455
14491.54004 0.007452
14495.41016 0.007448
14495.42969 0.008557
14499.29980 0.008553
14503.17969 0.008549
14503.19043 0.009658
14507.07031 0.009654
14510.94043 0.009651
14510.95996 0.010759
14514.83008 0.010756
14514.84961 0.011864
14518.71973 0.011861
14522.59961 0.011857
14522.61035 0.012966
14526.49023 0.012962
14530.36035 0.012958
14530.37988 0.014067
14534.25000 0.014063
14534.26953 0.015172
14538.13965 0.015168
14538.16016 0.016277
14542.03027 0.016273
14542.04980 0.017382
14545.92969 0.017378
14545.94043 0.018487
14549.82031 0.018483
14549.83008 0.019592
14553.70996 0.019588
14557.58008 0.019584
14557.59961 0.020693
14557.62012 0.021801
14561.49023 0.021798
14561.50977 0.022906
14565.37988 0.022903
14565.40039 0.024011
14565.41016 0.02512
14569.29004 0.025116
14569.30957 0.026225
14573.17969 0.026221
14573.20020 0.02733
14577.07031 0.027326
14577.08984 0.028435
14577.09961 0.029543
14580.98047 0.02954
14581.00000 0.030648
14584.88965 0.031753
14584.90039 0.032862
14588.78027 0.032858
14588.80957 0.035076
14588.83008 0.036184
14592.70020 0.036181
14592.71973 0.037289
14592.74023 0.038398
14596.61035 0.038394
14596.63965 0.040611
14600.51953 0.040608
14600.54980 0.042825
14604.42969 0.042821
14604.45996 0.045039
14604.48047 0.046147
14608.34961 0.046143
14608.38965 0.048361
14608.40039 0.049469
14612.28027 0.049466
14612.29004 0.050574
14612.30957 0.051683
14616.19043 0.051679
14616.21973 0.053897
14620.08984 0.053893
14620.12988 0.05611
14620.15039 0.057219
14624.01953 0.057215
14624.07031 0.060541
14624.08984 0.06165
14627.95996 0.061646
14628.00977 0.064972
14628.03027 0.06608
14631.90039 0.066077
14631.96973 0.070511
14631.99023 0.07162
14635.86035 0.071616
14635.92969 0.076051
14635.95020 0.077159
14639.82031 0.077156
14639.87012 0.080482
14639.88965 0.08159
14643.76953 0.081587
14643.79980 0.083804
14643.82031 0.084912
14647.69043 0.084909
14647.74023 0.088235
14651.62012 0.088231
14651.71973 0.094883
14651.74023 0.095991
14655.61035 0.095988
14655.63965 0.098205
14655.66016 0.099314
14659.54004 0.09931
14659.59961 0.103744
14659.63965 0.105962
14663.50977 0.105958
14663.62012 0.11261
14663.62988 0.113718
14663.65039 0.114827
14667.51953 0.114823
14667.58984 0.119258
14667.62988 0.121475
14667.63965 0.122584
14671.51953 0.12258
14671.54980 0.124797
14671.57031 0.125906
14675.44043 0.125902
14675.48047 0.12812
14675.49023 0.129228
14679.37012 0.129224
14679.45020 0.134768
14679.46973 0.135876
14683.34961 0.135873
14683.42969 0.141416
14683.45020 0.142524
14687.32031 0.142521
14687.41992 0.149172
14687.44043 0.150281
14687.45996 0.15139
14691.33008 0.151386
14691.41992 0.156929
14691.44043 0.158038
14691.45020 0.159146
14695.33008 0.159143
14695.40039 0.163577
14695.42969 0.165795
14699.29980 0.165791
14699.38965 0.171334
14699.41992 0.173551
14703.29980 0.173548
14703.34961 0.176874
14703.37012 0.177982
14707.24023 0.177979
14707.29004 0.181304
14707.30957 0.182413
14711.17969 0.182409
14711.26953 0.187952
14711.29004 0.189061
14715.16016 0.189058
14715.28027 0.196818
14715.29980 0.197926
14719.16992 0.197923
14719.24023 0.202357
14719.25977 0.203466
14723.12988 0.203462
14723.20020 0.207897
14723.23047 0.210114
14723.25000 0.211223
14727.12012 0.211219
14727.20996 0.216762
14727.24023 0.21898
14731.12012 0.218976
14731.20020 0.224519
14731.21973 0.225628
14735.09961 0.225624
14735.16016 0.230058
14735.17969 0.231167
14735.20020 0.232276
14739.07031 0.232272
14739.12012 0.235598
14739.13965 0.236706
14739.16016 0.237815
14743.03027 0.237812
14743.09961 0.242246
14746.96973 0.242242
14747.08008 0.248894
14747.08984 0.250003
14750.96973 0.249999
14751.04980 0.255542
14754.92969 0.255539
14755.00977 0.261082
14755.03027 0.26219
14758.90039 0.262187
14759.00977 0.268838
14759.03027 0.269947
14759.04004 0.271056
14762.91992 0.271052
14762.98047 0.275487
14766.86035 0.275483
14766.91016 0.278809
14766.92969 0.279917
14766.94043 0.281026
14770.82031 0.281022
14770.88965 0.285457
14770.90039 0.286565
14774.78027 0.286562
14774.90039 0.294322
14774.91992 0.295431
14778.79004 0.295427
14778.87988 0.30097
14778.88965 0.302079
14778.91016 0.303188
14782.78027 0.303184
14782.84961 0.307618
14786.73047 0.307615
14786.84961 0.315375
14786.90039 0.318701
14790.76953 0.318697
14790.86035 0.324241
14794.73047 0.324237
14794.79980 0.328671
14794.82031 0.32978
14798.69043 0.329776
14798.75977 0.334211
14798.78027 0.335319
14802.65039 0.335316
14802.75000 0.341968
14806.62988 0.341964
14806.75000 0.349724
14806.78027 0.351942
14810.66016 0.351938
14810.78027 0.359698
14810.79004 0.360807
14814.66992 0.360803
14814.79980 0.369672
14814.82031 0.370781
14818.69043 0.370777
14818.84961 0.380755
14818.87012 0.381864
14818.87988 0.382972
14822.75977 0.382969
14822.90039 0.391838
14826.76953 0.391834
14826.87012 0.398486
14826.88965 0.399594
14830.75977 0.399591
14830.79980 0.401808
14830.80957 0.402917
14834.69043 0.402913
14834.74023 0.406239
14838.61035 0.406235
14838.79004 0.417321
14838.83984 0.420647
14842.70996 0.420644
14842.87988 0.43173
14846.75977 0.431726
14846.92969 0.442812
14846.95020 0.443921
14846.95996 0.44503
14850.83984 0.445026
14851.03027 0.457221
14851.04004 0.45833
14851.05957 0.459438
14854.92969 0.459435
14855.04980 0.467195
14855.08984 0.469412
14858.95996 0.469409
14859.05957 0.47606
14859.08008 0.477169
14862.95996 0.477165
14863.08008 0.484926
14866.95020 0.484922
14867.07031 0.492683
14867.08984 0.493791
14870.95996 0.493787
14871.12988 0.504874
14871.15039 0.505982
14875.01953 0.505979
14875.23047 0.519282
14875.25000 0.520391
14875.25977 0.5215
14879.13965 0.521496
14879.36035 0.535908
14879.37988 0.537017
14879.40039 0.538125
14883.26953 0.538122
14883.44043 0.549208
14883.45996 0.550317
14887.33008 0.550313
14887.45020 0.558073
14887.49023 0.560291
14891.36035 0.560287
14891.50000 0.569156
14891.50977 0.570265
14895.38965 0.570261
14895.62988 0.585782
14899.50000 0.585778
14899.63965 0.594647
14899.66016 0.595756
14903.53027 0.595752
14903.74023 0.609056
14903.76953 0.611273
14907.65039 0.611269
14907.84961 0.624573
14907.87012 0.625682
14911.74023 0.625678
14911.91016 0.636764
14911.92969 0.637873
14915.80957 0.637869
14915.94043 0.646738
14919.82031 0.646734
14919.96973 0.656712
14919.99023 0.657821
14923.86035 0.657817
14924.03027 0.668903
14924.04980 0.670012
14927.91992 0.670008
14928.11035 0.682203
14931.99023 0.6822
14932.16016 0.693286
14936.03027 0.693282
14936.16992 0.702151
14936.19043 0.70326
14936.20020 0.704369
14940.08008 0.704365
14940.26953 0.71656
14944.13965 0.716556
14944.30957 0.727642
14948.19043 0.727639
14948.32031 0.736508
14948.33984 0.737616
14952.21973 0.737613
14952.32031 0.744264
14952.33984 0.745373
14956.20996 0.74537
14956.29980 0.750913
14956.30957 0.752021
14960.19043 0.752018
14960.30957 0.759778
14960.32031 0.760887
14964.20020 0.760883
14964.33008 0.769752
14964.34961 0.770861
14968.23047 0.770857
14968.36035 0.779726
14968.37988 0.780835
14972.25000 0.780831
14972.42969 0.791917
14972.44043 0.793026
14976.32031 0.793022
14976.41992 0.799674
14976.44043 0.800783
14980.30957 0.800779
14980.36035 0.804105
14980.40039 0.806322
14984.26953 0.806318
14984.32031 0.809644
14984.33984 0.810753
14988.20996 0.810749
14988.23047 0.811858
14992.09961 0.811854
14992.16992 0.816289
14992.19043 0.817397
14996.05957 0.817394
14996.15039 0.822937
15000.01953 0.822933
15000.17969 0.832911
15004.04980 0.832907
15004.16992 0.840668
15004.19043 0.841776
15008.05957 0.841773
15008.12988 0.846207
15012.00977 0.846203
15012.05957 0.849529
15012.07031 0.850638
15015.95020 0.850634
15015.98047 0.852851
15019.86035 0.852848
15019.87012 0.853956
15019.88965 0.855065
15023.75977 0.855061
15023.79980 0.857279
15023.82031 0.858387
15027.69043 0.858384
15027.74023 0.86171
15031.61035 0.861706
15031.66992 0.865032
15035.54004 0.865028
15035.58984 0.868354
15035.61035 0.869463
15039.48047 0.869459
15039.50000 0.870567
15039.51953 0.871676
15043.38965 0.871672
15043.41016 0.872781
15047.28027 0.872777
15047.29980 0.873886
15047.32031 0.874995
15051.19043 0.874991
15051.20996 0.8761
15055.08008 0.876096
15058.95020 0.876092
15058.96973 0.877201
15062.84961 0.877197
15062.86035 0.878306
15066.74023 0.878302
15066.75000 0.879411
15066.76953 0.880519
15070.63965 0.880516
15070.66016 0.881624
15074.54004 0.881621
15074.54980 0.882729
15078.42969 0.882726
15082.29980 0.882722
15086.16992 0.882718
15086.19043 0.883827
15090.05957 0.883823
15090.08008 0.884932
15093.95996 0.884928
15093.96973 0.886037
15097.84961 0.886033
15097.86035 0.887142
15101.74023 0.887138
15101.75000 0.888247
15105.62988 0.888243
15109.50000 0.888239
15113.37988 0.888236
15117.25000 0.888232
15117.26953 0.889341
15121.13965 0.889337
15121.16016 0.890446
15125.03027 0.890442
15128.91016 0.890438
15128.91992 0.891547
15132.79980 0.891543
15136.66992 0.891539
15140.53027 0.890427
15144.40039 0.890423
15148.26953 0.89042
15152.15039 0.890416
15156.01953 0.890412
15156.04004 0.891521
15156.05957 0.89263
15159.92969 0.892626
15159.95020 0.893735
15163.82031 0.893731
15163.83984 0.89484
15167.70996 0.894836
15171.57031 0.893724
15175.44043 0.89372
15179.29980 0.892608
15183.16992 0.892604
15183.19043 0.893713
15187.05957 0.893709
15187.08008 0.894818
15190.95020 0.894814
15190.96973 0.895922
15194.84961 0.895919
15198.71973 0.895915
15198.74023 0.897024
15198.75000 0.898132
15202.62988 0.898129
15206.46973 0.895908
15210.33984 0.895904
15214.20020 0.894792
15218.04980 0.893679
15221.91016 0.892567
15225.76953 0.891455
15229.62012 0.890343
15229.63965 0.891451
15233.45996 0.888122
15237.32031 0.887009
15241.17969 0.885897
15245.04980 0.885893
15248.88965 0.883672
15252.75977 0.883669
15256.58984 0.880339
15260.45996 0.880335
15264.32031 0.879223
15264.33008 0.880332
15268.15039 0.877002
15272.03027 0.876998
15275.88965 0.875886
15279.71973 0.873665
15283.59961 0.873662
15283.62012 0.87477
15287.41992 0.870332
15291.25977 0.868111
15295.12012 0.866999
15295.12988 0.868107
15295.15039 0.869216
15298.94043 0.863669
15302.79980 0.862557
15306.62988 0.860336
15310.46973 0.858115
15310.49023 0.859223
15310.50977 0.860332
15314.29980 0.854785
15318.15039 0.853673
15321.99023 0.851452
15325.84961 0.85034
15325.87012 0.851448
15329.65039 0.845901
15333.50977 0.844789
15337.37012 0.843677
15337.37988 0.844785
15341.19043 0.840347
15345.04980 0.839235
15348.87012 0.835905
15352.73047 0.834793
15352.74023 0.835902
15356.54980 0.831464
15360.41992 0.83146
15364.25977 0.829239
15364.28027 0.830348
15368.08008 0.825909
15371.94043 0.824797
15375.78027 0.822576
15379.59961 0.819246
15383.45996 0.818134
15383.46973 0.819243
15383.49023 0.820351
15387.28027 0.814805
15387.29980 0.815913
15387.30957 0.817022
15391.12012 0.812584
15394.98047 0.811471
15398.82031 0.80925
15402.69043 0.809247
15406.54980 0.808134
15406.55957 0.809243
15410.37012 0.804805
15414.24023 0.804801
15414.25977 0.80591
15418.08008 0.80258
15421.95020 0.802577
15425.80957 0.801464
15429.69043 0.801461
15433.54004 0.800348
15437.40039 0.799236
15441.26953 0.799232
15445.12988 0.79812
15449.00000 0.798116
15449.01953 0.799225
15452.83984 0.795895
15456.71973 0.795892
15460.58984 0.795888
15460.61035 0.796997
15464.48047 0.796993
15468.34961 0.796989
15472.23047 0.796986
15472.24023 0.798094
15476.12012 0.798091
15479.98047 0.796978
15480.00977 0.799195
15483.87988 0.799192
15483.90039 0.8003
15487.76953 0.800297
15491.65039 0.800293
15495.51953 0.800289
15495.54004 0.801398
15499.41016 0.801394
15503.29004 0.801391
15507.16016 0.801387
15511.03027 0.801383
15511.04980 0.802492
15514.92969 0.802488
15518.79980 0.802485
15518.82031 0.803593
15522.69043 0.803589
15522.70996 0.804698
15526.58008 0.804694
15526.59961 0.805803
15530.46973 0.805799
15530.49023 0.806908
15534.36035 0.806904
15534.37988 0.808013
15538.25000 0.808009
15538.29004 0.810226
15542.16016 0.810223
15542.17969 0.811331
15542.20020 0.81244
15546.07031 0.812436
15546.08984 0.813545
15549.95996 0.813541
15549.98047 0.81465
15553.84961 0.814646
15553.88965 0.816864
15557.75977 0.81686
15557.78027 0.817969
15561.65039 0.817965
15561.66992 0.819073
15561.69043 0.820182
15565.55957 0.820178
15565.58008 0.821287
15569.45020 0.821283
15569.46973 0.822392
15573.33984 0.822388
15573.36035 0.823497
15577.23047 0.823493
15577.25000 0.824602
15581.12012 0.824598
15581.13965 0.825707
15581.16016 0.826816
15585.03027 0.826812
15585.07031 0.829029
15588.94043 0.829025
15588.96973 0.831243
15588.99023 0.832351
15592.86035 0.832348
15592.87988 0.833456
15596.75977 0.833453
15596.76953 0.834561
15600.65039 0.834557
15600.67969 0.836775
15604.54980 0.836771
15604.57031 0.83788
15608.45020 0.837876
15608.45996 0.838985
15608.48047 0.840093
15612.34961 0.84009
15612.37012 0.841198
15616.24023 0.841195
15616.25977 0.842303
15620.13965 0.842299
15620.15039 0.843408
15624.03027 0.843405
15624.05957 0.845622
15627.92969 0.845618
15627.95020 0.846727
15627.96973 0.847835
15631.83984 0.847832
15635.71973 0.847828
15635.73047 0.848937
15635.75000 0.850045
15639.62012 0.850042
15643.50000 0.850038
15643.51953 0.851147
15647.38965 0.851143
15647.41016 0.852251
15651.28027 0.852248
15651.29980 0.853356
15655.16992 0.853353
15655.20996 0.85557
15659.08008 0.855566
15659.11035 0.857784
15662.99023 0.85778
15663.00000 0.858889
15663.01953 0.859997
15666.90039 0.859993
15666.91016 0.861102
15670.79004 0.861098
15674.66016 0.861095
15678.53027 0.861091
15678.54980 0.8622
15682.41992 0.862196
15682.44043 0.863305
15686.32031 0.863301
15690.19043 0.863297
15690.20996 0.864406
15694.08008 0.864402
15697.95020 0.864399
15697.96973 0.865507
15701.84961 0.865503
15701.86035 0.866612
15705.74023 0.866608
15705.75000 0.867717
15705.76953 0.868826
15709.63965 0.868822
15713.51953 0.868818
15713.54004 0.869927
15717.41016 0.869923
15721.28027 0.86992
15721.29980 0.871028
15725.16992 0.871025
15725.19043 0.872133
15729.05957 0.87213
15732.94043 0.872126
15732.95996 0.873234
15736.83008 0.873231
15740.70020 0.873227
15744.58008 0.873223
15748.45020 0.87322
15752.32031 0.873216
15756.20020 0.873212
15760.07031 0.873209
15763.92969 0.872096
15767.79980 0.872093
15771.67969 0.872089
15775.54980 0.872085
15775.57031 0.873194
15779.44043 0.87319
15783.30957 0.873187
15783.33008 0.874295
15787.20996 0.874292
15791.08008 0.874288
15794.95020 0.874284
15798.83008 0.874281
15798.83984 0.875389
15802.71973 0.875385
15806.58984 0.875382
15810.46973 0.875378
15814.33984 0.875374
15818.20020 0.874262
15822.07031 0.874258
15825.94043 0.874255
15829.82031 0.874251
15833.69043 0.874247
15837.54980 0.873135
15841.41992 0.873131
15841.44043 0.87424
15845.30957 0.874236
15845.33008 0.875345
15849.20020 0.875341
15853.08008 0.875338
15856.95020 0.875334
15860.82031 0.87533
15864.70020 0.875327
15864.71973 0.876435
15868.58984 0.876432
15872.45996 0.876428
15876.32031 0.875315
15880.19043 0.875312
15884.04980 0.8742
15887.91992 0.874196
15891.79980 0.874192
15895.66992 0.874189
15895.69043 0.875297
15899.55957 0.875293
15899.58008 0.876402
15903.45020 0.876398
15907.33008 0.876395
15907.33984 0.877503
15911.21973 0.8775
15915.08984 0.877496
15918.96973 0.877492
15922.83984 0.877489
15926.70996 0.877485
15930.58984 0.877481
15934.45996 0.877477
15934.48047 0.878586
15938.34961 0.878582
15938.37012 0.879691
15942.24023 0.879687
15946.12012 0.879684
15949.99023 0.87968
15953.86035 0.879676
15957.74023 0.879673
15961.61035 0.879669
15965.48047 0.879665
15969.36035 0.879662
15973.23047 0.879658
15973.25000 0.880767
15977.12012 0.880763
15981.00000 0.880759
15984.87012 0.880756
15984.88965 0.881864
15988.75977 0.88186
15992.63965 0.881857
15992.65039 0.882965
15992.66992 0.884074
15996.54004 0.88407
16000.41992 0.884067
16004.29004 0.884063
16008.16016 0.884059
16012.04004 0.884056
16015.91016 0.884052
16019.79004 0.884048
16023.66016 0.884045
16027.53027 0.884041
16031.41016 0.884037
16031.41992 0.885146
16035.29980 0.885142
16039.16992 0.885139
16043.04980 0.885135
16043.05957 0.886244
16043.08008 0.887352
16046.95020 0.887348
16046.96973 0.888457
16050.83984 0.888453
16054.71973 0.88845
16054.74023 0.889558
16058.61035 0.889555
16062.48047 0.889551
16066.36035 0.889547
16066.37012 0.890656
16070.25000 0.890652
16074.09961 0.88954
16077.98047 0.889536
16081.83984 0.888424
16085.70996 0.88842
16089.58008 0.888417
16093.45996 0.888413
16097.33008 0.888409
16101.20020 0.888406
16105.08008 0.888402
16108.95020 0.888398
16112.83008 0.888394
16116.70020 0.888391
16120.57031 0.888387
16124.45020 0.888384
16128.32031 0.88838
16132.19043 0.888376
16136.07031 0.888372
16139.94043 0.888369
16143.82031 0.888365
16147.66992 0.887253
16151.54980 0.887249
16155.41992 0.887245
16159.29004 0.887242
16163.16992 0.887238
16167.01953 0.886126
16170.90039 0.886122
16170.91016 0.887231
16174.79004 0.887227
16178.66016 0.887223
16182.54004 0.88722
16186.41016 0.887216
16190.28027 0.887212
16194.16016 0.887209
16198.03027 0.887205
16201.90039 0.887201
16205.78027 0.887198
16209.62988 0.886085
16213.50977 0.886082
16217.37988 0.886078
16221.24023 0.884966
16225.11035 0.884962
16228.95020 0.882741
16232.83008 0.882737
16236.70020 0.882734
16240.55957 0.881621
16244.42969 0.881618
16248.29980 0.881614
16252.17969 0.88161
16256.04980 0.881607
16259.91016 0.880494
16263.78027 0.88049
16267.66016 0.880487
16271.49023 0.878266
16275.34961 0.877154
16279.23047 0.87715
16283.09961 0.877146
16286.95996 0.876034
16290.80957 0.874922
16294.69043 0.874918
16298.55957 0.874914
16302.42969 0.874911
16306.30957 0.874907
16310.16016 0.873795
16314.04004 0.873791
16317.91016 0.873787
16321.75000 0.871566
16325.62012 0.871563
16329.50000 0.871559
16333.37012 0.871555
16337.23047 0.870443
16341.09961 0.870439
16344.98047 0.870436
16348.84961 0.870432
16352.70996 0.86932
16356.55957 0.868207
16360.44043 0.868204
16364.29004 0.867091
16368.16992 0.867088
16368.17969 0.868196
16372.05957 0.868192
16375.91016 0.86708
16379.79004 0.867077
16383.66016 0.867073
16387.53906 0.867069
16391.41016 0.867065
16395.25000 0.864845
16399.11914 0.864841
16399.14062 0.865949
16402.96094 0.86262
16406.83984 0.862616
16410.68945 0.861504
16414.57031 0.8615
16418.41016 0.859279
16422.27930 0.859276
16426.15039 0.859272
16430.02930 0.859268
16433.88086 0.858156
16437.75977 0.858152
16441.63086 0.858149
16445.50977 0.858145
16449.38086 0.858141
16453.24023 0.857029
16457.08984 0.855917
16460.97070 0.855913
16460.98047 0.857022
16464.81055 0.853692
16468.67969 0.853688
16472.53906 0.852576
16476.41016 0.852572
16480.26953 0.85146
16484.14062 0.851456
16488.00000 0.850344
16491.86914 0.85034
16495.73047 0.849228
16499.59961 0.849224
16503.47070 0.849221
16507.33008 0.848108
16511.19922 0.848105
16515.06055 0.846992
16518.93945 0.846989
16522.81055 0.846985
16526.66992 0.845873
16530.53906 0.845869
16534.41016 0.845865
16538.26953 0.844753
16542.14062 0.844749
16546.01953 0.844746
16549.89062 0.844742
16553.75000 0.84363
16557.59961 0.842517
16561.48047 0.842514
16565.32031 0.840293
16569.18945 0.840289
16573.06055 0.840285
16576.91992 0.839173
16580.77930 0.838061
16584.63086 0.836948
16588.49023 0.835836
16592.34961 0.834724
16596.22070 0.83472
16600.06055 0.832499
16603.92969 0.832495
16607.78906 0.831383
16611.66016 0.83138
16615.53906 0.831376
16619.40039 0.830263
16623.26953 0.83026
16627.13086 0.829147
16631.00000 0.829144
16634.86914 0.82914
16638.73047 0.828028
16642.59961 0.828024
16646.43945 0.825803
16650.32031 0.8258
16654.18945 0.825796
16658.05078 0.824684
16661.90039 0.823571
16665.77930 0.823568
16669.63086 0.822455
16673.49023 0.821343
16677.35938 0.821339
16681.24023 0.821335
16685.10938 0.821332
16688.97070 0.820219
16692.83984 0.820216
16696.69922 0.819103
16700.57031 0.8191
16704.44922 0.819096
16708.32031 0.819093
16712.17969 0.81798
16716.05078 0.817976
16719.91016 0.816864
16723.77930 0.81686
16727.65039 0.816857
16731.52930 0.816853
16735.36914 0.814632
16739.24023 0.814628
16743.11914 0.814625
16746.99023 0.814621
16750.85938 0.814617
16754.74023 0.814614
16758.58984 0.813501
16762.47070 0.813498
16766.32031 0.812385
16770.17969 0.811273
16774.05078 0.811269
16777.92969 0.811266
16781.77930 0.810153
16785.66016 0.81015
16789.52930 0.810146
16793.41016 0.810142
16797.27930 0.810139
16801.15039 0.810135
16801.16992 0.811244
16805.03906 0.81124
16808.91992 0.811236
16812.78906 0.811233
16816.66992 0.811229
16820.51953 0.810117
16824.40039 0.810113
16828.26953 0.810109
16832.14062 0.810106
16832.16016 0.811214
16836.02930 0.811211
16836.05078 0.812319
16839.92969 0.812316
16839.93945 0.813424
16843.82031 0.81342
16847.68945 0.813417
16851.56055 0.813413
16855.43945 0.81341
16859.31055 0.813406
16863.17969 0.813402
16863.19922 0.814511
16867.08008 0.814507
16870.94922 0.814503
16870.97070 0.815612
16874.83984 0.815608
16878.71094 0.815605
16878.73047 0.816713
16882.60938 0.81671
16886.48047 0.816706
16886.50000 0.817815
16890.36914 0.817811
16890.39062 0.818919
16894.25977 0.818916
16898.13086 0.818912
16902.00977 0.818908
16902.02930 0.820017
16905.90039 0.820013
16909.76953 0.82001
16913.65039 0.820006
16913.66016 0.821115
16917.53906 0.821111
16921.41016 0.821107
16921.42969 0.822216
16925.30078 0.822212
16925.32031 0.823321
16929.18945 0.823317
16929.21094 0.824426
16933.08008 0.824422
16936.96094 0.824419
16940.83008 0.824415
16940.84961 0.825523
16944.72070 0.82552
16944.74023 0.826628
16948.60938 0.826625
16948.63086 0.827733
16952.50000 0.82773
16956.38086 0.827726
16956.40039 0.828835
16956.41016 0.829943
16960.28906 0.829939
16960.30078 0.831048
16964.17969 0.831044
16964.18945 0.832153
16968.07031 0.832149
16971.93945 0.832146
16975.82031 0.832142
16979.68945 0.832138
16983.56055 0.832135
16983.58008 0.833243
16987.44922 0.83324
16987.47070 0.834348
16991.34961 0.834345
16991.35938 0.835453
16991.38086 0.836562
16995.25000 0.836558
16995.26953 0.837667
16999.14062 0.837663
16999.16016 0.838772
17003.03906 0.838768
17003.05078 0.839877
17006.92969 0.839873
17006.93945 0.840982
17010.82031 0.840978
17010.83008 0.842087
17014.71094 0.842083
17014.73047 0.843192
17018.59961 0.843188
17018.63086 0.845405
17022.50977 0.845401
17022.51953 0.84651
17022.53906 0.847619
17026.41992 0.847615
17026.42969 0.848724
17030.31055 0.84872
17034.17969 0.848716
17034.19922 0.849825
17038.07031 0.849821
17041.94922 0.849818
17045.82031 0.849814
17045.83984 0.850923
17049.71094 0.850919
17053.58008 0.850915
17053.59961 0.852024
17057.47070 0.85202
17061.34961 0.852016
17061.36914 0.853125
17065.24023 0.853121
17069.10938 0.853118
17072.99023 0.853114
17073.00000 0.854223
17076.88086 0.854219
17080.75000 0.854215
17080.76953 0.855324
17080.78906 0.856433
17084.66016 0.856429
17084.67969 0.857537
17088.55078 0.857534
17088.57031 0.858642
17092.43945 0.858639
17096.32031 0.858635
17100.18945 0.858631
17100.21094 0.85974
17104.08008 0.859736
17107.94922 0.859733
17111.83008 0.859729
17115.69922 0.859725
17119.58008 0.859722
17119.58984 0.86083
17123.47070 0.860827
17127.33984 0.860823
17127.35938 0.861932
17131.23047 0.861928
17135.09961 0.861924
17138.98047 0.86192
17142.84961 0.861917
17146.73047 0.861913
17150.59961 0.861909
17154.47070 0.861906
17154.49023 0.863014
17158.35938 0.863011
17162.24023 0.863007
17166.10938 0.863003
17169.99023 0.863
17173.85938 0.862996
17177.73047 0.862992
17181.60938 0.862989
17185.48047 0.862985
17189.34961 0.862981
17193.21094 0.861869
17197.08008 0.861865
17200.96094 0.861862
17204.83008 0.861858
17208.68945 0.860746
17212.56055 0.860742
17216.43945 0.860738
17220.28906 0.859626
17224.15039 0.858514
17228.01953 0.85851
17231.90039 0.858506
17235.76953 0.858503
17239.64062 0.858499
17243.51953 0.858495
17247.39062 0.858491
17251.25000 0.857379
17255.11914 0.857376
17259.00000 0.857372
17262.84961 0.85626
17266.71094 0.855147
17270.58008 0.855144
17274.41992 0.852923
17278.30078 0.852919
17282.16992 0.852915
17286.02930 0.851803
17289.88086 0.850691
17293.75977 0.850687
17293.76953 0.851796
17297.59961 0.848466
17301.44922 0.847354
17305.33008 0.84735
17309.19922 0.847346
17313.07031 0.847343
17316.94922 0.847339
17320.82031 0.847335
17324.67969 0.846223
17328.55078 0.846219
17332.42969 0.846216
17336.30078 0.846212
17340.16992 0.846208
17344.02930 0.845096
17347.90039 0.845092
17351.77930 0.845089
17355.63086 0.843976
17359.50977 0.843973
17363.38086 0.843969
17367.25977 0.843965
17371.13086 0.843962
17375.00000 0.843958
17378.88086 0.843954
17382.73047 0.842842
17386.60938 0.842838
17390.48047 0.842835
17394.34961 0.842831
17398.23047 0.842827
17402.09961 0.842823
17405.98047 0.84282
17409.84961 0.842816
17413.68945 0.840595
17417.56055 0.840592
17417.58008 0.8417
17421.44922 0.841696
17425.33008 0.841693
17425.34961 0.842801
17429.22070 0.842798
17433.08984 0.842794
17433.10938 0.843903
17436.98047 0.843899
17440.85938 0.843895
17444.71094 0.842783
17448.58984 0.842779
17452.46094 0.842776
17456.33984 0.842772
17460.21094 0.842768
17464.08008 0.842765
17467.96094 0.842761
17471.83008 0.842757
17471.84961 0.843866
17475.72070 0.843862
17479.58984 0.843859
17479.60938 0.844967
17483.49023 0.844963
17483.50000 0.846072
17487.38086 0.846068
17491.25000 0.846065
17491.26953 0.847173
17495.14062 0.84717
17495.16016 0.848278
17499.02930 0.848275
17502.91016 0.848271
17506.75977 0.847159
17510.64062 0.847155
17514.50977 0.847151
17514.52930 0.84826
17518.40039 0.848256
17522.27930 0.848252
17526.15039 0.848249
17530.01953 0.848245
17533.90039 0.848241
17537.76953 0.848238
17541.64062 0.848234
17545.51953 0.84823
17549.39062 0.848227
17549.41016 0.849335
17553.27930 0.849332
17553.30078 0.85044
17557.16992 0.850437
17561.05078 0.850433
17564.91992 0.850429
17568.78906 0.850426
17572.66992 0.850422
17576.51953 0.84931
17580.40039 0.849306
17584.26953 0.849302
17584.28906 0.850411
17588.16016 0.850407
17592.03906 0.850404
17595.89062 0.849291
17599.75000 0.848179
17603.60938 0.847067
17607.46094 0.845954
17611.33984 0.845951
17611.34961 0.847059
17615.17969 0.84373
17619.02930 0.842617
17622.91016 0.842614
17626.75977 0.841501
17630.64062 0.841498
17634.49023 0.840385
17638.34961 0.839273
17642.21094 0.838161
17646.02930 0.834831
17649.86914 0.83261
17649.89062 0.833719
17649.90039 0.834827
17653.68945 0.829281
17657.55078 0.828168
17657.56055 0.829277
17657.58008 0.830386
17661.36914 0.824839
17665.23047 0.823726
17669.05078 0.820397
17672.89062 0.818176
17676.66016 0.81152
17680.50000 0.8093
17680.52930 0.811517
17680.55078 0.812625
17684.30078 0.804861
17684.33984 0.807079
17684.34961 0.808187
17688.13086 0.801532
17691.98047 0.800419
17695.80078 0.79709
17699.58984 0.791543
17703.41016 0.788213
17707.22070 0.783775
17710.97070 0.776011
17711.03906 0.780446
17711.08008 0.782663
17711.08984 0.783771
17711.10938 0.78488
17714.67969 0.764921
17714.75977 0.770464
17714.80078 0.772682
17714.81055 0.77379
17714.83008 0.774899
17718.41016 0.756048
17722.17969 0.749393
17725.93945 0.741629
17729.71094 0.734973
17733.42969 0.724992
17737.14062 0.715011
17740.84961 0.703921
17744.59961 0.696157
17744.66992 0.700591
17744.69922 0.702808
17744.72070 0.703917
17744.74023 0.705026
17748.22070 0.679523
17751.91992 0.668433
17755.57031 0.654018
17759.24023 0.64071
17762.86914 0.625186
17763.03906 0.636272
17763.13086 0.641815
17763.17969 0.645141
17763.19922 0.64625
17763.21094 0.647358
17766.33008 0.598575
17770.11914 0.593028
17773.76953 0.578612
17773.89062 0.586373
17773.96094 0.590807
17773.99023 0.593024
17774.00977 0.594133
17777.27930 0.555327
17781.09961 0.551998
17781.16016 0.555324
17781.18945 0.557541
17781.21094 0.55865
17781.31055 0.565301
17784.63086 0.529821
17788.30078 0.516514
17791.94922 0.502098
17795.64062 0.4899
17795.74023 0.496551
17795.78906 0.499877
17795.83008 0.502095
17795.83984 0.503203
17799.41016 0.483244
17799.42969 0.484353
17799.43945 0.485461
17802.72070 0.446656
17806.42969 0.436674
17806.57031 0.445543
17806.64062 0.449978
17806.66992 0.452195
17806.68945 0.453304
17806.71094 0.454412
17809.98047 0.415607
17810.11914 0.424476
17810.18945 0.42891
17810.22070 0.431127
17810.24023 0.432236
17813.63086 0.401191
17817.39062 0.393427
17817.47070 0.39897
17817.50977 0.401187
17817.51953 0.402296
17817.53906 0.403404
17820.97070 0.374576
17824.68945 0.364595
17824.78906 0.371247
17824.83984 0.374573
17824.85938 0.375681
17824.88086 0.37679
17828.22070 0.342419
17831.97070 0.334654
17832.03906 0.339089
17832.07031 0.341306
17832.08984 0.342415
17835.77930 0.330216
17839.09961 0.294736
17842.93945 0.292515
17843.03906 0.299167
17843.08984 0.302493
17843.10938 0.303602
17843.13086 0.30471
17846.58984 0.278099
17846.67969 0.283643
17846.71094 0.28586
17846.73047 0.286969
17846.74023 0.288077
17850.25977 0.264792
17854.03906 0.259245
17854.13086 0.264789
17854.16992 0.267006
17854.17969 0.268115
17854.19922 0.269223
17857.86914 0.255916
17857.88086 0.257024
17861.28906 0.227088
17861.40039 0.23374
17861.44922 0.237066
17861.48047 0.239283
17861.50000 0.240391
17864.91016 0.210455
17868.73047 0.207125
17868.80078 0.21156
17868.83984 0.213777
17868.84961 0.214886
17872.40039 0.193818
17872.49023 0.199361
17872.50000 0.20047
17876.38086 0.200466
17879.89062 0.177181
17879.96094 0.181615
17879.99023 0.183833
17880.00977 0.184941
17880.02930 0.18605
17883.64062 0.169417
17887.41016 0.162761
17887.47070 0.166087
17887.50000 0.168305
17887.51953 0.169413
17891.11914 0.151671
17891.19922 0.157215
17891.24023 0.159432
17891.25000 0.160541
17891.26953 0.161649
17894.82031 0.140581
17898.64062 0.137252
17898.66992 0.139469
17898.68945 0.140578
17902.33008 0.125053
17902.39062 0.129488
17902.42969 0.131705
17902.44922 0.132814
17906.09961 0.118398
17906.15039 0.121724
17906.16016 0.122832
17906.17969 0.123941
17909.88086 0.112851
17909.91992 0.115068
17909.93945 0.116177
17913.66992 0.107304
17913.68945 0.108413
17917.46094 0.101757
17921.30078 0.099536
17925.09961 0.095098
17928.91016 0.09066
17928.96094 0.093986
17928.99023 0.096203
17929.00977 0.097312
17932.60938 0.07957
17936.47070 0.078458
17936.48047 0.079566
17940.25977 0.072911
17940.26953 0.074019
17940.28906 0.075128
17944.06055 0.068473
17947.91992 0.06736
17947.92969 0.068469
17951.72070 0.062922
17951.74023 0.064031
17951.75977 0.065139
17955.52930 0.058484
17959.36914 0.056263
17959.40039 0.05848
17959.41992 0.059589
17963.15039 0.050716
17963.16992 0.051825
17963.18945 0.052933
17966.99023 0.048495
17967.00977 0.049604
17970.83008 0.046274
17974.66016 0.042945
17978.50977 0.041832
17982.36914 0.04072
17986.21094 0.038499
17990.06055 0.037387
17993.90039 0.035166
17997.75977 0.034053
17997.77930 0.035162
17997.80078 0.036271
18001.58008 0.030724
18005.41992 0.028503
18009.25977 0.026282
18013.11914 0.02517
18013.14062 0.026278
18016.96094 0.022949
18020.81055 0.021836
18024.66992 0.020724
18028.52930 0.019612
18032.38086 0.018499
18036.25977 0.018496
18040.09961 0.016275
18043.97070 0.016271
18047.83984 0.016267
18051.67969 0.014047
18055.56055 0.014043
18059.41016 0.012931
18063.28906 0.012927
18067.14062 0.011815
18071.00000 0.010702
18074.88086 0.010699
18078.75000 0.010695
18082.60938 0.009583
18086.48047 0.009579
18090.33984 0.008467
18094.21094 0.008463
18098.07031 0.007351
18101.93945 0.007347
18105.81055 0.007343
18109.66992 0.006231
18113.53906 0.006227
18117.40039 0.005115
18121.26953 0.005111
19933.39648 0.0
