# %ECSV 0.9
# ---
# datatype:
# - {name: wavelength, unit: Angstrom, datatype: float32}
# - {name: response, datatype: float32}
# meta: !!omap
# - {band_name: Kp}
# - {group_name: NIRC2}
wavelength response
17140.35547 0.0
19044.83984 0.005075
19048.69922 0.005073
19052.57031 0.005071
19056.43945 0.005069
19060.31055 0.005068
19064.17969 0.005066
19068.05078 0.005064
19071.91992 0.005062
19075.78906 0.00506
19075.80078 0.006175
19079.66992 0.006173
19083.53906 0.006171
19087.41016 0.006169
19091.27930 0.006168
19091.30078 0.007282
19095.16016 0.007281
19099.02930 0.007279
19102.90039 0.007277
19106.76953 0.007275
19106.78906 0.00839
19110.66016 0.008388
19114.52930 0.008386
19118.39062 0.008384
19122.25977 0.008382
19122.27930 0.009497
19126.15039 0.009495
19130.01953 0.009494
19133.89062 0.009492
19133.90039 0.010607
19137.76953 0.010605
19141.64062 0.010603
19145.50977 0.010601
19145.51953 0.011716
19149.39062 0.011714
19153.25977 0.011712
19153.26953 0.012827
19157.14062 0.012825
19157.15039 0.01394
19161.01953 0.013938
19164.89062 0.013936
19168.75977 0.013934
19168.77930 0.015049
19172.65039 0.015047
19176.51953 0.015045
19176.52930 0.01616
19180.40039 0.016158
19180.41016 0.017273
19184.27930 0.017271
19188.15039 0.01727
19188.16016 0.018384
19192.02930 0.018383
19195.90039 0.018381
19195.91016 0.019495
19199.77930 0.019494
19199.80078 0.020608
19203.66992 0.020607
19207.53906 0.020605
19207.55078 0.02172
19211.41992 0.021718
19211.42969 0.022833
19215.30078 0.022831
19219.16992 0.022829
19219.17969 0.023944
19223.05078 0.023942
19223.07031 0.025057
19226.93945 0.025055
19226.94922 0.02617
19230.82031 0.026168
19230.83008 0.027283
19234.69922 0.027281
19234.71094 0.028396
19238.58008 0.028394
19238.59961 0.029509
19242.47070 0.029507
19242.48047 0.030622
19246.34961 0.03062
19246.35938 0.031734
19250.23047 0.031733
19250.24023 0.032847
19254.10938 0.032846
19254.13086 0.03396
19258.00000 0.033959
19258.00977 0.035073
19261.88086 0.035072
19261.90039 0.037301
19265.76953 0.037299
19265.78906 0.038414
19265.80078 0.039529
19269.66992 0.039527
19269.67969 0.040642
19269.68945 0.041757
19273.56055 0.041755
19273.58008 0.04287
19277.44922 0.042868
19277.46094 0.043983
19281.33008 0.043981
19281.33984 0.045096
19285.21094 0.045094
19285.22070 0.046209
19285.24023 0.047324
19289.10938 0.047322
19289.13086 0.049551
19293.00000 0.049549
19293.02930 0.051779
19293.03906 0.052894
19296.91016 0.052892
19296.93945 0.055122
19296.94922 0.056237
19300.82031 0.056235
19300.83008 0.05735
19300.83984 0.058464
19304.71094 0.058462
19304.74023 0.060692
19308.60938 0.06069
19308.64062 0.06292
19308.65039 0.064035
19312.51953 0.064033
19312.53906 0.066263
19316.41016 0.066261
19316.44922 0.069605
19320.32031 0.069603
19320.36914 0.074063
19320.39062 0.075177
19324.25977 0.075176
19324.31055 0.079635
19328.17969 0.079633
19328.22070 0.082977
19328.23047 0.084092
19332.09961 0.08409
19332.10938 0.085205
19332.11914 0.08632
19335.99023 0.086318
19336.06055 0.091892
19336.07031 0.093007
19339.93945 0.093005
19339.94922 0.09412
19339.97070 0.095235
19343.83984 0.095233
19343.85938 0.097463
19343.88086 0.098578
19347.74023 0.098576
19347.77930 0.10192
19347.80078 0.103035
19351.66992 0.103033
19351.75977 0.110837
19355.63086 0.110835
19355.68945 0.116409
19355.72070 0.118639
19359.58984 0.118637
19359.61914 0.121981
19359.64062 0.123096
19363.50977 0.123094
19363.55078 0.126439
19363.56055 0.127554
19367.42969 0.127552
19367.47070 0.130896
19367.48047 0.132011
19371.34961 0.132009
19371.43945 0.139813
19375.31055 0.139811
19375.40039 0.147615
19375.41016 0.14873
19379.27930 0.148728
19379.40039 0.158761
19379.41016 0.159876
19383.27930 0.159874
19383.40039 0.169908
19383.41016 0.171022
19387.27930 0.171021
19387.38086 0.179939
19387.40039 0.181054
19391.26953 0.181052
19391.33984 0.187741
19391.35938 0.188856
19395.23047 0.188854
19395.28906 0.194428
19395.30078 0.195543
19399.16992 0.195541
19399.23047 0.2
19399.24023 0.201115
19403.10938 0.201113
19403.21094 0.210032
19403.23047 0.211147
19407.08984 0.211145
19407.25000 0.224523
19407.27930 0.226752
19407.28906 0.227867
19411.16016 0.227865
19411.30078 0.240128
19415.16992 0.240127
19415.33008 0.253504
19415.33984 0.254619
19419.21094 0.254617
19419.40039 0.27134
19423.26953 0.271338
19423.41016 0.283601
19423.42969 0.284716
19427.30078 0.284714
19427.41016 0.294747
19427.43945 0.296977
19431.31055 0.296975
19431.41016 0.305894
19435.27930 0.305892
19435.41016 0.31704
19435.41992 0.318155
19439.28906 0.318153
19439.50000 0.33599
19439.50977 0.337105
19443.38086 0.337103
19443.63086 0.358285
19447.50000 0.358283
19447.77930 0.382809
19451.65039 0.382807
19451.83008 0.398415
19451.84961 0.399529
19455.72070 0.399527
19455.86914 0.412905
19455.88086 0.41402
19459.75000 0.414018
19459.91992 0.428511
19459.92969 0.429626
19463.80078 0.429624
19464.01953 0.448576
19467.89062 0.448574
19468.22070 0.476445
19468.27930 0.482019
19468.30078 0.483133
19472.16016 0.483132
19472.40039 0.503198
19476.26953 0.503197
19476.53906 0.526608
19480.41016 0.526606
19480.55078 0.538869
19484.41992 0.538867
19484.58008 0.552245
19484.58984 0.55336
19488.46094 0.553358
19488.65039 0.57008
19488.67969 0.57231
19488.68945 0.573425
19492.56055 0.573423
19492.76953 0.59126
19496.64062 0.591258
19496.91992 0.615784
19496.94922 0.618014
19500.82031 0.618012
19501.00977 0.634734
19504.88086 0.634733
19505.14062 0.657029
19505.15039 0.658144
19509.01953 0.658142
19509.13086 0.667061
19509.14062 0.668175
19513.00977 0.668173
19513.27930 0.691585
19513.28906 0.692699
19517.16016 0.692698
19517.32031 0.706076
19517.38086 0.71165
19517.40039 0.712764
19521.25977 0.712763
19521.41016 0.725026
19525.27930 0.725024
19525.46094 0.740631
19529.33008 0.740629
19529.50977 0.756237
19533.38086 0.756235
19533.51953 0.768498
19537.39062 0.768496
19537.59961 0.786333
19541.47070 0.786331
19541.63086 0.800824
19545.50000 0.800822
19545.60938 0.809741
19545.61914 0.810856
19549.49023 0.810854
19549.65039 0.824232
19549.66992 0.826461
19553.53906 0.82646
19553.64062 0.835378
19553.66016 0.836493
19557.52930 0.836491
19557.63086 0.84541
19557.64062 0.846525
19561.50977 0.846523
19561.58984 0.853212
19565.46094 0.85321
19565.61914 0.866587
19565.63086 0.867702
19569.50000 0.8677
19569.63086 0.878849
19569.64062 0.879964
19573.50977 0.879962
19573.63086 0.889995
19573.64062 0.89111
19577.50977 0.891108
19577.59961 0.898912
19581.47070 0.89891
19581.55078 0.905599
19581.56055 0.906714
19585.42969 0.906712
19585.50977 0.913401
19585.51953 0.914516
19589.39062 0.914514
19589.43945 0.918973
19589.44922 0.920088
19593.32031 0.920086
19593.38086 0.924545
19593.39062 0.92566
19597.25977 0.925658
19597.27930 0.927888
19597.30078 0.929003
19601.16992 0.929001
19601.22070 0.93346
19605.08984 0.933458
19605.10938 0.935688
19608.98047 0.935686
19609.00977 0.937916
19609.01953 0.939031
19612.89062 0.939029
19612.90039 0.940143
19612.91992 0.941258
19616.78906 0.941256
19616.80078 0.942371
19616.81055 0.943486
19620.67969 0.943484
19620.68945 0.944599
19624.56055 0.944597
19624.58008 0.945712
19628.44922 0.94571
19628.46094 0.946825
19632.33008 0.946823
19632.33984 0.947938
19636.21094 0.947936
19640.08008 0.947934
19640.08984 0.949049
19643.96094 0.949047
19647.83008 0.949045
19647.84961 0.95016
19651.72070 0.950158
19651.73047 0.951273
19655.59961 0.951271
19655.60938 0.952386
19659.48047 0.952384
19659.49023 0.953499
19663.35938 0.953497
19663.38086 0.954612
19667.25000 0.95461
19671.10938 0.954608
19674.98047 0.954607
19678.83984 0.95349
19682.71094 0.953488
19682.72070 0.954603
19686.58984 0.954601
19690.46094 0.954599
19694.33008 0.954597
19698.19922 0.954595
19702.06055 0.953479
19705.91016 0.952362
19709.76953 0.951245
19713.64062 0.951244
19717.50977 0.951242
19717.51953 0.952357
19721.39062 0.952355
19725.25977 0.952353
19729.13086 0.952351
19733.00000 0.952349
19736.86914 0.952347
19736.88086 0.953462
19740.75000 0.95346
19744.61914 0.953458
19748.49023 0.953457
19752.35938 0.953455
19752.36914 0.95457
19756.24023 0.954568
19760.10938 0.954566
19763.98047 0.954564
19764.00000 0.955679
19767.86914 0.955677
19771.74023 0.955675
19771.75000 0.95679
19775.61914 0.956788
19779.49023 0.956786
19779.50000 0.957901
19783.36914 0.957899
19783.38086 0.959014
19787.25000 0.959012
19791.11914 0.95901
19791.13086 0.960125
19795.00000 0.960123
19798.86914 0.960122
19802.74023 0.96012
19806.60938 0.960118
19810.48047 0.960116
19810.50000 0.961231
19814.35938 0.961229
19818.23047 0.961227
19822.09961 0.961225
19825.97070 0.961224
19825.99023 0.962338
19829.85938 0.962336
19829.86914 0.963451
19833.74023 0.963449
19837.60938 0.963448
19837.61914 0.964562
19841.49023 0.964561
19845.35938 0.964559
19849.22070 0.963442
19853.08984 0.96344
19856.93945 0.962323
19860.81055 0.962322
19864.67969 0.96232
19868.55078 0.962318
19872.41992 0.962316
19872.42969 0.963431
19876.30078 0.963429
19880.16992 0.963427
19884.02930 0.96231
19887.90039 0.962309
19891.76953 0.962307
19895.64062 0.962305
19899.50977 0.962303
19903.35938 0.961187
19907.23047 0.961185
19911.09961 0.961183
19914.96094 0.960066
19918.83008 0.960064
19922.69922 0.960062
19926.55078 0.958946
19930.41016 0.957829
19934.27930 0.957827
19938.15039 0.957825
19942.00977 0.956709
19945.88086 0.956707
19949.75000 0.956705
19953.59961 0.955588
19957.47070 0.955587
19961.33008 0.95447
19965.18945 0.953353
19969.05078 0.953351
19972.91016 0.952235
19976.76953 0.951118
19980.61914 0.950001
19984.48047 0.948885
19988.33984 0.947768
19992.18945 0.946651
19996.05078 0.945535
19999.91016 0.944418
20003.77930 0.944416
20007.63086 0.943299
20011.49023 0.942183
20015.33008 0.939951
20019.19922 0.939949
20023.06055 0.938833
20026.91992 0.937716
20030.76953 0.936599
20034.63086 0.935483
20038.50000 0.935481
20038.50977 0.936596
20042.33984 0.933249
20046.21094 0.933247
20050.07031 0.932131
20053.93945 0.932129
20057.77930 0.929898
20061.65039 0.929896
20065.50000 0.927664
20069.34961 0.926548
20073.21094 0.925431
20077.07031 0.924314
20080.92969 0.924312
20084.80078 0.924311
20088.66992 0.924309
20092.52930 0.923192
20096.40039 0.92319
20100.26953 0.923188
20100.27930 0.924303
20104.10938 0.920957
20107.97070 0.91984
20111.83984 0.919838
20115.71094 0.919836
20119.57031 0.91872
20123.41992 0.917603
20127.27930 0.916486
20131.15039 0.916485
20135.00000 0.915368
20138.86914 0.915366
20142.74023 0.915364
20146.60938 0.915362
20146.63086 0.916477
20150.50000 0.916475
20154.35938 0.916474
20158.23047 0.916472
20162.09961 0.91647
20165.96094 0.915353
20169.83008 0.915351
20173.69922 0.915349
20177.57031 0.915348
20181.43945 0.915346
20185.30078 0.914229
20189.16016 0.914227
20193.02930 0.914225
20196.90039 0.914223
20200.76953 0.914222
20200.78906 0.915336
20204.66016 0.915335
20208.52930 0.915333
20212.39062 0.915331
20216.25977 0.915329
20220.11914 0.914212
20223.99023 0.91421
20227.85938 0.914209
20231.73047 0.914207
20235.59961 0.914205
20239.47070 0.914203
20243.33984 0.914201
20247.21094 0.9142
20251.08008 0.914198
20254.94922 0.914196
20258.82031 0.914194
20262.68945 0.914192
20266.55078 0.91419
20270.41992 0.914188
20270.43945 0.915303
20274.31055 0.915301
20274.32031 0.916416
20278.18945 0.916414
20282.06055 0.916412
20282.07031 0.917527
20285.93945 0.917525
20285.94922 0.91864
20289.82031 0.918638
20293.68945 0.918637
20293.71094 0.919751
20297.58008 0.91975
20301.44922 0.919748
20305.30078 0.918631
20309.16992 0.918629
20313.02930 0.917512
20313.03906 0.918627
20316.91016 0.918625
20316.91992 0.91974
20320.78906 0.919738
20320.81055 0.920853
20324.67969 0.920851
20324.68945 0.921966
20324.69922 0.923081
20328.57031 0.923079
20328.58008 0.924194
20332.44922 0.924192
20336.32031 0.92419
20340.18945 0.924189
20344.06055 0.924187
20347.92969 0.924185
20351.80078 0.924183
20355.66992 0.924181
20359.53906 0.924179
20363.40039 0.923063
20363.41016 0.924177
20367.27930 0.924176
20371.15039 0.924174
20371.16016 0.925289
20375.02930 0.925287
20375.03906 0.926402
20378.91016 0.9264
20378.92969 0.927514
20382.80078 0.927513
20382.81055 0.928627
20386.67969 0.928626
20386.68945 0.92974
20390.56055 0.929739
20394.42969 0.929737
20394.43945 0.930851
20398.31055 0.93085
20402.17969 0.930848
20406.05078 0.930846
20409.91992 0.930844
20413.78906 0.930842
20417.66016 0.93084
20421.52930 0.930839
20421.53906 0.931953
20425.41016 0.931951
20425.42969 0.933066
20429.28906 0.933064
20429.31055 0.934179
20433.17969 0.934177
20433.19922 0.936407
20437.07031 0.936405
20437.08984 0.93752
20440.96094 0.937518
20440.97070 0.938633
20444.83984 0.938631
20448.71094 0.938629
20452.58008 0.938628
20456.44922 0.938626
20460.32031 0.938624
20464.18945 0.938622
20468.05078 0.93862
20468.07031 0.939735
20471.93945 0.939733
20475.81055 0.939731
20475.82031 0.940846
20479.68945 0.940844
20479.69922 0.941959
20483.57031 0.941957
20487.43945 0.941955
20491.31055 0.941953
20491.32031 0.943068
20495.18945 0.943067
20499.06055 0.943065
20502.92969 0.943063
20506.80078 0.943061
20506.81055 0.944176
20510.67969 0.944174
20510.69922 0.945289
20514.57031 0.945287
20514.58008 0.946402
20518.44922 0.9464
20522.32031 0.946398
20522.33008 0.947513
20526.19922 0.947511
20526.21094 0.948626
20530.08008 0.948624
20533.94922 0.948622
20537.82031 0.94862
20541.68945 0.948618
20545.56055 0.948616
20549.42969 0.948615
20553.30078 0.948613
20553.31055 0.949728
20557.17969 0.949726
20561.05078 0.949724
20564.91992 0.949722
20568.78906 0.94972
20568.80078 0.950835
20572.66992 0.950833
20576.53906 0.950831
20580.41016 0.95083
20580.42969 0.951944
20584.30078 0.951942
20584.31055 0.953057
20588.17969 0.953055
20592.05078 0.953054
20592.06055 0.954168
20595.92969 0.954167
20595.93945 0.955281
20599.81055 0.95528
20603.67969 0.955278
20603.68945 0.956393
20603.71094 0.957507
20607.58008 0.957506
20607.58984 0.95862
20611.46094 0.958619
20615.33008 0.958617
20619.19922 0.958615
20623.07031 0.958613
20626.92969 0.957496
20630.78906 0.957494
20634.66016 0.957493
20638.52930 0.957491
20642.40039 0.957489
20646.26953 0.957487
20650.14062 0.957485
20654.00977 0.957483
20657.88086 0.957481
20661.75000 0.95748
20661.75977 0.958594
20665.63086 0.958593
20665.65039 0.959707
20669.51953 0.959706
20669.52930 0.96082
20673.40039 0.960819
20677.26953 0.960817
20681.14062 0.960815
20684.99023 0.959698
20688.85938 0.959696
20692.73047 0.959694
20696.59961 0.959693
20700.47070 0.959691
20704.33984 0.959689
20708.21094 0.959687
20712.08008 0.959685
20715.94922 0.959683
20719.81055 0.958567
20719.82031 0.959682
20723.68945 0.95968
20727.56055 0.959678
20731.42969 0.959676
20735.30078 0.959674
20739.16992 0.959672
20743.03906 0.95967
20746.91016 0.959669
20750.75977 0.958552
20754.63086 0.95855
20758.50000 0.958548
20758.50977 0.959663
20762.38086 0.959661
20766.24023 0.958545
20770.10938 0.958543
20773.98047 0.958541
20777.84961 0.958539
20781.72070 0.958537
20785.58984 0.958535
20789.46094 0.958534
20793.33008 0.958532
20797.17969 0.957415
20797.19922 0.95853
20801.07031 0.958528
20804.93945 0.958526
20808.81055 0.958524
20812.66992 0.958522
20816.53906 0.958521
20820.41016 0.958519
20824.26953 0.957402
20824.27930 0.958517
20828.15039 0.958515
20832.01953 0.958513
20835.88086 0.957396
20839.75000 0.957395
20839.75977 0.958509
20843.63086 0.958508
20847.50000 0.958506
20851.36914 0.958504
20855.24023 0.958502
20859.10938 0.9585
20862.98047 0.958498
20866.83984 0.957382
20870.69922 0.95738
20874.57031 0.957378
20878.43945 0.957376
20882.30078 0.95626
20886.16992 0.956258
20890.03906 0.956256
20893.90039 0.955139
20897.76953 0.955137
20901.64062 0.955135
20901.65039 0.95625
20905.51953 0.956248
20909.39062 0.956246
20909.40039 0.957361
20913.26953 0.95736
20917.14062 0.957358
20921.00000 0.956241
20924.86914 0.956239
20928.72070 0.955122
20932.58008 0.954006
20936.42969 0.952889
20940.28906 0.951772
20944.15039 0.950656
20948.01953 0.950654
20951.89062 0.950652
20955.75977 0.95065
20959.63086 0.950648
20959.64062 0.951763
20963.50977 0.951761
20967.36914 0.950645
20971.23047 0.950643
20975.08984 0.949526
20978.96094 0.949524
20982.82031 0.948408
20986.66992 0.947291
20990.52930 0.946174
20994.40039 0.946172
20998.25977 0.945056
21002.13086 0.945054
21006.00000 0.945052
21009.84961 0.943935
21009.86914 0.94505
21013.73047 0.945048
21017.59961 0.945047
21017.61914 0.946161
21021.49023 0.946159
21025.35938 0.946158
21029.23047 0.946156
21033.09961 0.946154
21033.10938 0.947269
21036.93945 0.943922
21040.81055 0.943921
21044.66016 0.942804
21048.52930 0.942802
21052.40039 0.9428
21056.25977 0.941684
21060.13086 0.941682
21063.99023 0.940565
21067.85938 0.940563
21071.73047 0.940561
21075.59961 0.940559
21079.46094 0.940558
21083.33008 0.940556
21087.18945 0.939439
21091.06055 0.939437
21094.92969 0.939435
21098.80078 0.939434
21102.66992 0.939432
21106.52930 0.938315
21110.38086 0.937198
21114.25000 0.937197
21118.10938 0.93608
21121.98047 0.936078
21125.83008 0.934961
21129.69922 0.934959
21133.57031 0.934958
21137.43945 0.934956
21141.30078 0.933839
21145.16992 0.933837
21149.02930 0.932721
21152.88086 0.931604
21156.74023 0.930487
21160.59961 0.929371
21164.46094 0.929369
21168.33008 0.929367
21172.18945 0.92825
21176.06055 0.928248
21179.92969 0.928247
21183.80078 0.928245
21187.66016 0.927128
21191.50977 0.926011
21195.36914 0.924895
21199.23047 0.923778
21203.08008 0.922661
21206.94922 0.92266
21210.80078 0.920428
21214.66016 0.920426
21218.51953 0.91931
21222.38086 0.918193
21226.23047 0.917076
21230.09961 0.917074
21233.97070 0.917073
21237.83984 0.917071
21241.71094 0.917069
21245.58008 0.917067
21249.44922 0.917065
21249.46094 0.91818
21253.33008 0.918178
21257.17969 0.915947
21261.05078 0.915945
21264.91992 0.915943
21268.75977 0.913711
21272.63086 0.913709
21276.50000 0.913708
21280.35938 0.912591
21284.21094 0.911474
21288.08008 0.911473
21291.93945 0.910356
21295.81055 0.910354
21299.67969 0.910352
21303.55078 0.91035
21307.41992 0.910348
21311.28906 0.910347
21315.16016 0.910345
21319.00977 0.909228
21322.88086 0.909226
21326.75000 0.909224
21330.60938 0.908108
21334.46094 0.906991
21338.33008 0.906989
21342.19922 0.906987
21346.07031 0.906986
21349.93945 0.906984
21353.81055 0.906982
21353.83008 0.908097
21357.68945 0.908095
21361.56055 0.908093
21365.42969 0.908091
21369.28906 0.906974
21373.16016 0.906972
21377.01953 0.905856
21380.89062 0.905854
21384.75977 0.905852
21388.63086 0.90585
21392.49023 0.905849
21396.35938 0.905847
21400.23047 0.905845
21400.25000 0.90696
21404.11914 0.906958
21407.99023 0.906956
21411.85938 0.906954
21415.72070 0.906952
21419.58984 0.90695
21423.46094 0.906949
21427.32031 0.905832
21431.18945 0.90583
21435.06055 0.905828
21438.92969 0.905826
21442.78906 0.90471
21446.65039 0.904708
21450.51953 0.904706
21454.39062 0.904704
21458.25977 0.904702
21462.13086 0.9047
21462.15039 0.905815
21466.01953 0.905813
21469.89062 0.905811
21473.75000 0.90581
21477.60938 0.904693
21481.48047 0.904691
21481.49023 0.905806
21485.35938 0.905804
21489.23047 0.905802
21489.25000 0.906917
21493.11914 0.906915
21493.13086 0.90803
21497.00000 0.908028
21497.00977 0.909143
21500.88086 0.909141
21500.89062 0.910256
21504.75977 0.910254
21504.77930 0.911369
21508.64062 0.911367
21512.50977 0.911365
21516.38086 0.911363
21520.24023 0.910247
21524.09961 0.90913
21527.97070 0.909128
21531.83984 0.909126
21535.71094 0.909125
21535.72070 0.910239
21539.58984 0.910238
21539.59961 0.911352
21543.47070 0.911351
21543.48047 0.912465
21547.34961 0.912463
21547.36914 0.913578
21551.24023 0.913576
21551.25000 0.914691
21555.11914 0.914689
21555.13086 0.915804
21559.00000 0.915802
21559.00977 0.916917
21562.88086 0.916915
21566.75000 0.916914
21570.61914 0.916912
21574.48047 0.915795
21578.34961 0.915793
21582.22070 0.915791
21586.08984 0.915789
21586.09961 0.916904
21589.97070 0.916902
21593.83984 0.916901
21593.84961 0.918015
21597.72070 0.918014
21601.58984 0.918012
21601.59961 0.919126
21605.47070 0.919125
21605.49023 0.920239
21609.35938 0.920238
21613.23047 0.920236
21617.09961 0.920234
21620.94922 0.919117
21624.82031 0.919115
21628.67969 0.917999
21632.55078 0.917997
21636.41992 0.917995
21636.42969 0.91911
21640.30078 0.919108
21640.31055 0.920223
21644.17969 0.920221
21648.05078 0.920219
21648.06055 0.921334
21651.92969 0.921332
21655.80078 0.92133
21655.82031 0.922445
21659.68945 0.922443
21663.56055 0.922441
21663.57031 0.923556
21667.43945 0.923554
21671.31055 0.923552
21671.32031 0.924667
21675.18945 0.924666
21679.06055 0.924664
21679.07031 0.925778
21682.93945 0.925777
21686.81055 0.925775
21690.67969 0.925773
21694.55078 0.925771
21694.56055 0.926886
21698.42969 0.926884
21702.30078 0.926882
21706.16992 0.92688
21706.17969 0.927995
21710.05078 0.927993
21710.07031 0.929108
21713.93945 0.929106
21713.94922 0.930221
21717.82031 0.930219
21717.83008 0.931334
21721.69922 0.931332
21725.57031 0.93133
21729.43945 0.931329
21733.31055 0.931327
21737.17969 0.931325
21741.03906 0.930208
21744.91016 0.930206
21744.91992 0.931321
21748.78906 0.931319
21752.66016 0.931317
21756.52930 0.931316
21760.40039 0.931314
21764.26953 0.931312
21764.27930 0.932427
21768.15039 0.932425
21772.01953 0.932423
21772.02930 0.933538
21775.90039 0.933536
21775.91016 0.934651
21779.77930 0.934649
21783.65039 0.934647
21787.51953 0.934645
21791.39062 0.934643
21795.25000 0.933527
21799.11914 0.933525
21802.97070 0.932408
21806.83008 0.931291
21810.69922 0.93129
21814.56055 0.930173
21818.42969 0.930171
21822.30078 0.930169
21826.16992 0.930168
21826.17969 0.931282
21830.05078 0.93128
21833.91992 0.931279
21837.78906 0.931277
21841.66016 0.931275
21845.50977 0.930158
21849.36914 0.929041
21853.23047 0.927925
21857.08008 0.926808
21860.94922 0.926806
21864.81055 0.92569
21864.82031 0.926804
21868.68945 0.926803
21872.56055 0.926801
21876.42969 0.926799
21880.28906 0.925682
21884.16016 0.92568
21888.02930 0.925679
21891.90039 0.925677
21891.91016 0.926792
21895.77930 0.92679
21899.65039 0.926788
21903.50000 0.925671
21907.36914 0.925669
21911.23047 0.924553
21915.08984 0.923436
21918.93945 0.922319
21922.80078 0.921203
21926.66016 0.920086
21930.52930 0.920084
21930.53906 0.921199
21949.83008 0.91673
21953.68945 0.915614
21957.56055 0.915612
21961.41992 0.914495
21965.26953 0.913379
21969.13086 0.912262
21972.99023 0.911145
21976.83008 0.908914
21980.68945 0.907797
21984.51953 0.904451
21988.39062 0.904449
21992.25977 0.904447
21996.10938 0.90333
21999.98047 0.903329
22003.83984 0.902212
22007.69922 0.901095
22011.55078 0.899979
22015.41016 0.898862
22019.27930 0.89886
22023.15039 0.898858
22027.00977 0.897742
22030.85938 0.896625
22034.73047 0.896623
22038.58984 0.895506
22042.43945 0.89439
22046.28906 0.892158
22050.14062 0.891042
22054.00000 0.889925
22057.85938 0.888808
22061.71094 0.887691
22065.57031 0.886575
22069.43945 0.886573
22073.27930 0.884342
22077.14062 0.883225
22081.00977 0.883223
22084.83984 0.879877
22088.69922 0.87876
22092.57031 0.878758
22096.41992 0.877641
22100.27930 0.876525
22104.15039 0.876523
22108.00977 0.875406
22111.85938 0.87429
22115.72070 0.873173
22119.58008 0.872056
22119.58984 0.873171
22123.41016 0.86871
22127.27930 0.868708
22131.13086 0.867591
22135.00000 0.86759
22138.86914 0.867588
22142.74023 0.867586
22146.60938 0.867584
22146.61914 0.868699
22150.49023 0.868697
22154.35938 0.868695
22158.22070 0.867579
22162.08984 0.867577
22165.94922 0.86646
22169.80078 0.865343
22173.66992 0.865341
22177.52930 0.864225
22181.40039 0.864223
22185.25000 0.863106
22189.11914 0.863104
22192.99023 0.863103
22196.84961 0.861986
22200.71094 0.860869
22204.56055 0.859753
22208.42969 0.859751
22212.28906 0.858634
22216.16016 0.858632
22220.02930 0.85863
22223.90039 0.858628
22227.75000 0.857512
22227.76953 0.858627
22231.64062 0.858625
22235.50977 0.858623
22239.38086 0.858621
22243.25000 0.858619
22247.10938 0.858617
22250.98047 0.858616
22254.84961 0.858614
22258.71094 0.857497
22262.58008 0.857495
22266.43945 0.856379
22270.31055 0.856377
22274.17969 0.856375
22278.05078 0.856373
22281.91016 0.856371
22281.92969 0.857486
22285.80078 0.857484
22289.66992 0.857482
22293.53906 0.85748
22293.55078 0.858595
22297.41992 0.858593
22301.28906 0.858591
22301.30078 0.859706
22305.16992 0.859704
22309.03906 0.859703
22309.05078 0.860818
22312.91992 0.860816
22316.78906 0.860814
22320.66016 0.860812
22324.52930 0.86081
22328.40039 0.860808
22328.41016 0.861923
22332.27930 0.861921
22336.15039 0.861919
22336.16992 0.863034
22340.03906 0.863032
22340.05078 0.864147
22343.91992 0.864145
22343.92969 0.86526
22347.80078 0.865258
22347.81055 0.866373
22351.67969 0.866371
22355.55078 0.866369
22359.41992 0.866368
22359.42969 0.867482
22363.30078 0.867481
22363.32031 0.868595
22367.18945 0.868594
22367.19922 0.869708
22371.07031 0.869706
22374.93945 0.869705
22378.81055 0.869703
22378.82031 0.870818
22382.68945 0.870816
22382.69922 0.87193
22386.57031 0.871929
22386.59961 0.874158
22390.47070 0.874157
22390.49023 0.876386
22394.35938 0.876384
22394.39062 0.878614
22394.40039 0.879729
22398.26953 0.879727
22398.28906 0.880842
22402.15039 0.88084
22402.16992 0.881955
22406.03906 0.881953
22406.06055 0.884182
22406.08008 0.885297
22409.94922 0.885296
22409.96094 0.88641
22413.83008 0.886408
22413.83984 0.887523
22413.84961 0.888638
22417.72070 0.888636
22421.58984 0.888634
22421.60938 0.889749
22425.48047 0.889747
22425.49023 0.890862
22429.35938 0.89086
22433.23047 0.890858
22433.24023 0.891973
22437.10938 0.891971
22440.98047 0.89197
22440.99023 0.893084
22441.00977 0.894199
22444.86914 0.894197
22444.89062 0.895312
22448.75977 0.89531
22448.77930 0.89754
22448.80078 0.898655
22452.66992 0.898653
22452.67969 0.899768
22456.55078 0.899766
22456.57031 0.901996
22456.58984 0.90311
22460.46094 0.903109
22460.47070 0.904223
22460.48047 0.905338
22464.34961 0.905336
22464.35938 0.906451
22464.38086 0.907566
22468.25000 0.907564
22468.25977 0.908679
22472.13086 0.908677
22472.14062 0.909792
22476.00977 0.90979
22476.03906 0.91202
22476.05078 0.913135
22479.91992 0.913133
22479.92969 0.914247
22483.80078 0.914246
22483.82031 0.915361
22487.68945 0.915359
22487.69922 0.916474
22491.57031 0.916472
22495.43945 0.91647
22495.44922 0.917585
22495.46094 0.918699
22499.33008 0.918698
22499.34961 0.919812
22499.35938 0.920927
22503.23047 0.920925
22503.24023 0.92204
22507.10938 0.922038
22507.11914 0.923153
22507.14062 0.924268
22511.00977 0.924266
22511.01953 0.925381
22514.89062 0.925379
22514.90039 0.926494
22514.91016 0.927609
22518.77930 0.927607
22518.80078 0.928722
22522.66992 0.92872
22522.68945 0.930949
22526.56055 0.930948
22526.57031 0.932063
22526.58984 0.933177
22530.46094 0.933175
22530.47070 0.93429
22530.48047 0.935405
22534.34961 0.935403
22534.36914 0.936518
22534.38086 0.937633
22538.25000 0.937631
22538.25977 0.938746
22542.13086 0.938744
22542.14062 0.939859
22542.16016 0.940974
22546.02930 0.940972
22546.03906 0.942087
22549.91016 0.942085
22549.92969 0.944314
22553.80078 0.944313
22553.82031 0.945427
22557.68945 0.945426
22561.56055 0.945424
22565.42969 0.945422
22569.28906 0.94542
22573.16016 0.945418
22573.17969 0.946533
22577.05078 0.946531
22577.06055 0.947646
22577.07031 0.948761
22580.93945 0.948759
22580.94922 0.949874
22580.97070 0.950989
22584.83984 0.950987
22584.85938 0.953216
22588.73047 0.953214
22588.75000 0.954329
22592.61914 0.954327
22592.63086 0.955442
22596.50000 0.95544
22596.50977 0.956555
22600.38086 0.956553
22604.25000 0.956552
22608.11914 0.95655
22608.13086 0.957665
22612.00000 0.957663
22615.86914 0.957661
22619.74023 0.957659
22623.60938 0.957657
22627.48047 0.957655
22631.34961 0.957653
22635.22070 0.957652
22639.08984 0.95765
22639.09961 0.958765
22639.10938 0.959879
22642.98047 0.959878
22646.84961 0.959876
22646.86914 0.960991
22650.74023 0.960989
22654.60938 0.960987
22658.47070 0.960985
22662.33984 0.960983
22666.21094 0.960981
22670.08008 0.960979
22673.94922 0.960978
22677.82031 0.960976
22681.68945 0.960974
22685.55078 0.959857
22689.40039 0.95874
22693.26953 0.958739
22697.14062 0.958737
22697.16016 0.959852
22701.02930 0.95985
22704.90039 0.959848
22708.76953 0.959846
22712.64062 0.959844
22716.49023 0.958728
22720.35938 0.958726
22724.23047 0.958724
22728.09961 0.958722
22728.10938 0.959837
22731.98047 0.959835
22735.83984 0.958718
22739.71094 0.958716
22743.58008 0.958715
22747.42969 0.957598
22751.30078 0.957596
22755.16016 0.956479
22759.02930 0.956478
22762.90039 0.956476
22766.76953 0.956474
22770.63086 0.955357
22770.64062 0.956472
22774.50977 0.95647
22778.38086 0.956468
22782.23047 0.955352
22782.25000 0.956466
22786.11914 0.956465
22789.99023 0.956463
22793.85938 0.956461
22797.73047 0.956459
22801.58008 0.955342
22805.43945 0.954226
22809.31055 0.954224
22813.15039 0.951992
22817.00977 0.950876
22820.84961 0.948644
22824.71094 0.947528
22828.55078 0.945296
22832.41016 0.94418
22832.41992 0.945294
22832.42969 0.946409
22836.24023 0.940833
22840.08008 0.938602
22843.92969 0.93637
22847.76953 0.934139
22851.60938 0.931907
22851.63086 0.933022
22851.64062 0.934137
22855.41992 0.926331
22859.25977 0.9241
22863.10938 0.921868
22866.91992 0.917407
22870.69922 0.909601
22874.50977 0.904026
22878.31055 0.89845
22882.11914 0.892874
22885.90039 0.885068
22889.68945 0.878377
22889.73047 0.881722
22889.75000 0.883951
22889.76953 0.885066
22893.38086 0.862768
22897.17969 0.857192
22900.97070 0.850501
22904.71094 0.839351
22908.44922 0.828201
22912.21094 0.818166
22915.91992 0.804786
22919.66992 0.794751
22923.43945 0.78583
22923.53906 0.794749
22923.59961 0.799208
22923.61914 0.801438
22923.63086 0.802553
22927.08984 0.766877
22930.85938 0.757956
22934.57031 0.744577
22938.26953 0.730082
22942.00000 0.717817
22945.61914 0.696634
22949.26953 0.67768
22952.96094 0.662071
22956.65039 0.646461
22956.75000 0.65538
22956.80078 0.659839
22956.83008 0.662069
22956.83984 0.663183
22956.84961 0.664298
22960.17969 0.617474
22963.94922 0.608554
22967.64062 0.592944
22971.33984 0.57845
22975.00000 0.560611
22978.69922 0.546116
22982.32031 0.524933
22986.13086 0.519357
22986.25977 0.530505
22986.32031 0.536079
22986.35938 0.539424
22986.36914 0.540538
22986.39062 0.541653
22989.66016 0.49037
22993.40039 0.47922
22997.00977 0.456921
23000.61914 0.434623
23004.31055 0.419014
23008.06055 0.408978
23008.17969 0.419012
23008.25000 0.424586
23008.26953 0.426816
23008.27930 0.42793
23008.30078 0.429045
23011.60938 0.381106
23015.47070 0.379989
23015.50977 0.383334
23015.52930 0.385564
23015.53906 0.386678
23015.73047 0.402286
23015.74023 0.403401
23015.75000 0.404515
23019.09961 0.359921
23022.91016 0.354345
23022.96094 0.358804
23022.99023 0.361034
23023.00000 0.362149
23026.56055 0.335391
23030.38086 0.33093
23030.43945 0.336504
23030.48047 0.339848
23030.49023 0.340963
23030.50977 0.342078
23034.02930 0.311976
23037.82031 0.305285
23037.89062 0.311974
23037.92969 0.315319
23037.94922 0.316434
23037.96094 0.317548
23041.43945 0.284102
23045.23047 0.277411
23045.30078 0.282985
23045.33984 0.28633
23045.34961 0.287444
23045.35938 0.288559
23045.39062 0.290789
23048.89062 0.259572
23052.71094 0.255111
23052.74023 0.257341
23052.75000 0.258455
23052.75977 0.25957
23056.39062 0.238387
23060.21094 0.233926
23063.96094 0.22389
23064.01953 0.229465
23064.06055 0.232809
23064.08008 0.233924
23064.08984 0.235039
23067.66016 0.209396
23071.48047 0.204935
23071.51953 0.208279
23071.52930 0.209394
23071.53906 0.210509
23075.17969 0.19044
23075.25977 0.197129
23075.27930 0.199359
23079.15039 0.199357
23079.17969 0.201587
23079.18945 0.202702
23082.68945 0.17037
23086.52930 0.168138
23086.53906 0.169253
23086.55078 0.170368
23090.25977 0.155873
23094.08984 0.152527
23094.14062 0.156986
23094.16016 0.159216
23094.17969 0.160331
23094.18945 0.161446
23097.83984 0.142492
23101.66992 0.139146
23101.69922 0.141375
23101.71094 0.14249
23101.72070 0.143605
23105.41016 0.127996
23105.46094 0.132455
23105.49023 0.134684
23105.50000 0.135799
23109.19922 0.121305
23113.05078 0.119073
23113.07031 0.121303
23113.08984 0.122418
23116.83984 0.112383
23120.67969 0.110151
23120.68945 0.111266
23120.71094 0.112381
23124.44922 0.101231
23128.30078 0.100114
23132.13086 0.096768
23135.94922 0.092306
23135.99023 0.095651
23136.00000 0.096766
23139.86914 0.096764
23143.56055 0.081155
23147.41992 0.080038
23147.42969 0.081153
23151.21094 0.073347
23155.08008 0.073345
23158.89062 0.067769
23162.74023 0.066653
23162.75000 0.067767
23162.76953 0.068882
23166.55078 0.061077
23170.39062 0.058845
23170.40039 0.05996
23170.41992 0.061075
23174.21094 0.054384
23178.06055 0.053267
23178.08008 0.054382
23181.90039 0.049921
23185.75000 0.048804
23189.60938 0.047688
23193.44922 0.045456
23193.46094 0.046571
23193.48047 0.047686
23197.30078 0.043225
23197.31055 0.04434
23201.13086 0.039878
23204.98047 0.038762
23208.83984 0.037645
23208.84961 0.03876
23212.67969 0.035414
23216.53906 0.034297
23220.40039 0.03318
23224.25000 0.032064
23224.26953 0.033178
23228.09961 0.029832
23231.94922 0.028715
23235.81055 0.027599
23235.82031 0.028714
23239.65039 0.025367
23243.51953 0.025365
23247.36914 0.023134
23251.24023 0.023132
23255.08984 0.022015
23258.96094 0.022014
23262.81055 0.019782
23266.67969 0.01978
23270.52930 0.018664
23274.40039 0.018662
23278.25977 0.017545
23282.13086 0.017543
23285.97070 0.015312
23289.83984 0.01531
23293.69922 0.014193
23297.57031 0.014191
23301.41992 0.013075
23305.27930 0.011958
23309.15039 0.011956
23313.01953 0.011954
23316.88086 0.010838
23320.74023 0.010836
23324.59961 0.009719
23328.47070 0.009717
23332.33008 0.008601
23336.19922 0.008599
23340.05078 0.007482
23343.91992 0.00748
23347.78906 0.007478
23351.65039 0.006362
23355.51953 0.00636
23359.39062 0.006358
23363.24023 0.005241
23367.10938 0.005239
23370.97070 0.004123
23374.83984 0.004121
25712.32422 0.0
