# %ECSV 0.9
# ---
# datatype:
# - {name: wavelength, unit: Angstrom, datatype: float32}
# - {name: response, datatype: float32}
# meta: !!omap
# - {band_name: F475W_77}
# - {group_name: ACS_WFC}
wavelength response
3452.61597 0.0
3836.23999 0.00192834
3836.64990 0.00200067
3837.07007 0.00207315
3837.48999 0.0021461
3837.91992 0.00221923
3838.34009 0.00229251
3838.76001 0.00236524
3839.17993 0.0024388
3839.60010 0.00251288
3840.02002 0.00258641
3840.43994 0.00266037
3840.86011 0.00273407
3841.28003 0.00280834
3841.69995 0.00288237
3842.12012 0.00295687
3842.54004 0.00303121
3842.96997 0.00310642
3843.38989 0.00318099
3843.81006 0.00325614
3844.22998 0.00333103
3844.64990 0.00340645
3845.07007 0.00348162
3845.48999 0.00355736
3845.91992 0.0036332
3846.33008 0.00370848
3846.76001 0.0037846
3847.17993 0.0038613
3847.60010 0.00393775
3848.02002 0.00401363
3848.43994 0.00409035
3848.87012 0.00416727
3849.29004 0.00424432
3849.70996 0.00432115
3850.12988 0.00442079
3850.55005 0.00457286
3850.97998 0.00472366
3851.39990 0.00487555
3851.82007 0.00502775
3852.23999 0.00517955
3852.65991 0.00533156
3853.09009 0.00548477
3853.51001 0.00563829
3853.92993 0.00579131
3854.35010 0.00594474
3854.78003 0.00609998
3855.19995 0.00625483
3855.62012 0.00640918
3856.04004 0.00656392
3856.46997 0.00671969
3856.88989 0.00687578
3857.31006 0.00703146
3857.72998 0.00718745
3858.15991 0.00734537
3858.58008 0.0075028
3859.00000 0.0076598
3859.42993 0.00781712
3859.85010 0.00797558
3860.27002 0.00819198
3860.68994 0.00843956
3861.12012 0.00868774
3861.54004 0.00893753
3861.95996 0.00918794
3862.38989 0.00943882
3862.81006 0.00969017
3863.23999 0.009942
3863.65991 0.0101918
3864.08008 0.0104447
3864.51001 0.0106981
3864.92993 0.010952
3865.35010 0.0112039
3865.78003 0.01146
3866.19995 0.0117155
3866.62012 0.0119701
3867.05005 0.0122264
3867.46997 0.012482
3867.88989 0.0127395
3868.32007 0.012996
3868.73999 0.0132545
3869.15991 0.0135121
3869.59009 0.0137717
3870.01001 0.014034
3870.43994 0.0144328
3870.86011 0.0148283
3871.29004 0.0152265
3871.70996 0.0156238
3872.13989 0.0160238
3872.56006 0.0164227
3872.97998 0.0168245
3873.40991 0.0172269
3873.83008 0.0176306
3874.26001 0.0180348
3874.67993 0.0184359
3875.11011 0.0188418
3875.53003 0.0192487
3875.95996 0.0196564
3876.37988 0.0200609
3876.80005 0.0204703
3877.22998 0.0208807
3877.65991 0.0212919
3878.08008 0.0217039
3878.51001 0.0221168
3878.92993 0.0225285
3879.35010 0.0229409
3879.78003 0.0233564
3880.20996 0.0238484
3880.62988 0.0244194
3881.05005 0.0249918
3881.47998 0.025571
3881.90991 0.0261488
3882.33008 0.0267249
3882.76001 0.0273021
3883.17993 0.0278838
3883.61011 0.0284663
3884.03003 0.0290474
3884.45996 0.0296297
3884.88989 0.0302163
3885.31006 0.030804
3885.73999 0.0313932
3886.15991 0.0319807
3886.59009 0.032572
3887.02002 0.033165
3887.43994 0.0337563
3887.86011 0.0343489
3888.29004 0.0349454
3888.71997 0.0355435
3889.14990 0.0361429
3889.57007 0.0367434
3890.00000 0.0373451
3890.41992 0.0380888
3890.85010 0.0388417
3891.28003 0.039596
3891.69995 0.0403518
3892.12988 0.0411017
3892.55005 0.0418605
3892.97998 0.0426212
3893.40991 0.0433872
3893.84009 0.0441469
3894.26001 0.044908
3894.68994 0.045675
3895.12012 0.0464431
3895.54004 0.0472091
3895.96997 0.0479771
3896.39990 0.04875
3896.82007 0.0495245
3897.25000 0.0503009
3897.67993 0.0510748
3898.11011 0.0518542
3898.53003 0.052631
3898.95996 0.0534138
3899.38989 0.0541976
3899.81006 0.0549794
3900.23999 0.0557806
3900.66992 0.0566015
3901.10010 0.0574288
3901.52002 0.0582452
3901.94995 0.0590712
3902.37988 0.0598994
3902.81006 0.0607293
3903.23999 0.061557
3903.65991 0.062386
3904.09009 0.0632215
3904.52002 0.0640628
3904.94995 0.0648974
3905.37988 0.0657379
3905.80005 0.0665763
3906.22998 0.0674208
3906.65991 0.0682626
3907.09009 0.0691105
3907.51001 0.0699557
3907.93994 0.0708031
3908.37012 0.0716562
3908.80005 0.0725158
3909.22998 0.0733684
3909.65991 0.0742227
3910.09009 0.0750923
3910.51001 0.0759987
3910.93994 0.0769073
3911.37012 0.0778083
3911.80005 0.0787204
3912.22998 0.0796394
3912.65991 0.0805502
3913.09009 0.0814633
3913.51001 0.0823828
3913.93994 0.0833041
3914.37012 0.0842228
3914.80005 0.0851475
3915.22998 0.0860697
3915.65991 0.0869985
3916.09009 0.0879242
3916.52002 0.0888612
3916.94995 0.089791
3917.37988 0.0907273
3917.80005 0.0916606
3918.23999 0.0926004
3918.66992 0.093542
3919.09009 0.0944763
3919.52002 0.0954213
3919.94995 0.0963735
3920.38989 0.0972782
3920.81006 0.0981702
3921.23999 0.0990736
3921.66992 0.0999783
3922.10010 0.100885
3922.53003 0.101789
3922.95996 0.102696
3923.38989 0.103608
3923.82007 0.104522
3924.25000 0.105438
3924.67993 0.106351
3925.11011 0.10727
3925.54004 0.108188
3925.96997 0.109111
3926.39990 0.110036
3926.83008 0.110959
3927.26001 0.111883
3927.68994 0.112818
3928.12012 0.113751
3928.55005 0.114681
3928.97998 0.115613
3929.40991 0.116552
3929.85010 0.117492
3930.28003 0.118458
3930.70996 0.119441
3931.13989 0.12043
3931.57007 0.121421
3932.00000 0.122415
3932.42993 0.123405
3932.86011 0.124403
3933.29004 0.125402
3933.71997 0.126398
3934.15991 0.1274
3934.59009 0.128399
3935.02002 0.129406
3935.44995 0.130414
3935.87988 0.131425
3936.31006 0.132431
3936.73999 0.13344
3937.16992 0.134455
3937.61011 0.135473
3938.04004 0.136493
3938.46997 0.137504
3938.89990 0.138527
3939.33008 0.139552
3939.77002 0.140584
3940.18994 0.141557
3940.62988 0.142486
3941.06006 0.143417
3941.48999 0.144346
3941.91992 0.14528
3942.35010 0.146212
3942.79004 0.147151
3943.21997 0.148091
3943.64990 0.149033
3944.08008 0.149972
3944.52002 0.150918
3944.94995 0.15186
3945.37988 0.152809
3945.81006 0.153761
3946.23999 0.154709
3946.67993 0.155659
3947.11011 0.156615
3947.55005 0.157579
3947.97998 0.158534
3948.40991 0.159492
3948.84009 0.160455
3949.27002 0.161421
3949.70996 0.162384
3950.13989 0.16339
3950.57007 0.164494
3951.01001 0.1656
3951.43994 0.166708
3951.87012 0.167811
3952.30005 0.168923
3952.73999 0.170031
3953.16992 0.171147
3953.60010 0.172259
3954.04004 0.173378
3954.46997 0.174494
3954.89990 0.175618
3955.34009 0.176749
3955.77002 0.177877
3956.19995 0.178995
3956.63989 0.180128
3957.07007 0.181261
3957.51001 0.182397
3957.93994 0.183524
3958.37012 0.184663
3958.81006 0.185811
3959.23999 0.18695
3959.67993 0.188097
3960.11011 0.189225
3960.54004 0.190323
3960.97998 0.191416
3961.40991 0.192516
3961.84009 0.193614
3962.28003 0.194719
3962.70996 0.19582
3963.14990 0.196929
3963.58008 0.19804
3964.01001 0.199147
3964.44995 0.200262
3964.88989 0.201379
3965.32007 0.202493
3965.75000 0.203609
3966.18994 0.204732
3966.62012 0.205862
3967.06006 0.20699
3967.48999 0.208108
3967.92993 0.209239
3968.36011 0.210373
3968.80005 0.211508
3969.22998 0.212635
3969.66992 0.213774
3970.10010 0.214941
3970.54004 0.216191
3970.96997 0.217438
3971.40991 0.2187
3971.84009 0.219951
3972.28003 0.221204
3972.70996 0.222466
3973.14990 0.22373
3973.58008 0.22499
3974.02002 0.226251
3974.44995 0.227521
3974.88989 0.228801
3975.33008 0.230069
3975.76001 0.23134
3976.19995 0.232619
3976.63989 0.2339
3977.07007 0.235177
3977.50000 0.236457
3977.93994 0.237745
3978.37988 0.239035
3978.81006 0.24032
3979.25000 0.241615
3979.68994 0.242912
3980.12012 0.244172
3980.56006 0.245332
3980.98999 0.246493
3981.42993 0.247662
3981.87012 0.248833
3982.30005 0.25
3982.73999 0.251181
3983.17993 0.252359
3983.61011 0.253527
3984.05005 0.254708
3984.48999 0.255891
3984.91992 0.257077
3985.36011 0.258253
3985.79004 0.259444
3986.22998 0.260636
3986.66992 0.26183
3987.11011 0.263026
3987.54004 0.264219
3987.97998 0.26542
3988.41992 0.266616
3988.85010 0.267821
3989.29004 0.269022
3989.72998 0.270231
3990.15991 0.271416
3990.60010 0.272578
3991.04004 0.273731
3991.47998 0.274891
3991.90991 0.276047
3992.35010 0.277212
3992.79004 0.278371
3993.22998 0.279534
3993.65991 0.280704
3994.10010 0.281875
3994.54004 0.283049
3994.97998 0.284219
3995.41992 0.285396
3995.86011 0.286576
3996.29004 0.287757
3996.72998 0.288928
3997.16992 0.290113
3997.61011 0.2913
3998.05005 0.292489
3998.47998 0.29368
3998.91992 0.294873
3999.36011 0.296061
3999.80005 0.297252
4000.23999 0.298313
4000.67993 0.299259
4001.11011 0.3002
4001.55005 0.301143
4001.98999 0.302091
4002.42993 0.303041
4002.87012 0.303992
4003.30005 0.304939
4003.73999 0.305891
4004.17993 0.306845
4004.62012 0.307795
4005.06006 0.308746
4005.50000 0.309703
4005.93994 0.31066
4006.37988 0.311619
4006.82007 0.312574
4007.26001 0.313535
4007.69995 0.314497
4008.12988 0.315456
4008.57007 0.31642
4009.01001 0.317381
4009.44995 0.318347
4009.88989 0.31931
4010.33008 0.32027
4010.77002 0.321229
4011.20996 0.322183
4011.64990 0.323144
4012.09009 0.324106
4012.53003 0.325068
4012.96997 0.326022
4013.40991 0.326986
4013.85010 0.327952
4014.29004 0.328924
4014.72998 0.329882
4015.16992 0.330851
4015.61011 0.331821
4016.05005 0.332787
4016.48999 0.333758
4016.92993 0.334725
4017.37012 0.335699
4017.81006 0.336669
4018.25000 0.337644
4018.68994 0.338621
4019.12988 0.339599
4019.57007 0.340573
4020.01001 0.341552
4020.44995 0.342486
4020.88989 0.343417
4021.33008 0.344349
4021.77002 0.345287
4022.21997 0.34623
4022.64990 0.34716
4023.10010 0.348101
4023.54004 0.349043
4023.97998 0.349986
4024.41992 0.350921
4024.86011 0.351866
4025.30005 0.352812
4025.73999 0.35376
4026.17993 0.354703
4026.62012 0.355647
4027.07007 0.356603
4027.51001 0.357549
4027.94995 0.358501
4028.38989 0.359455
4028.83008 0.360405
4029.27002 0.361355
4029.70996 0.362312
4030.15991 0.363376
4030.60010 0.364612
4031.04004 0.365848
4031.47998 0.367092
4031.91992 0.368337
4032.36011 0.369579
4032.80005 0.37082
4033.25000 0.37207
4033.68994 0.37332
4034.12988 0.374572
4034.57007 0.375819
4035.02002 0.377074
4035.45996 0.378331
4035.89990 0.379581
4036.34009 0.380834
4036.79004 0.382094
4037.22998 0.383355
4037.66992 0.384611
4038.12012 0.385882
4038.56006 0.387147
4039.00000 0.388401
4039.43994 0.38967
4039.88989 0.390939
4040.33008 0.392169
4040.77002 0.393374
4041.20996 0.394594
4041.65991 0.395814
4042.10010 0.397035
4042.54004 0.398245
4042.98999 0.399475
4043.42993 0.400699
4043.87012 0.401926
4044.31006 0.403147
4044.76001 0.404369
4045.19995 0.405599
4045.63989 0.40683
4046.09009 0.408055
4046.53003 0.409288
4046.96997 0.410523
4047.41992 0.411752
4047.86011 0.412989
4048.30005 0.414221
4048.75000 0.41546
4049.18994 0.416694
4049.63989 0.417935
4050.08008 0.419211
4050.52002 0.420681
4050.96997 0.422153
4051.40991 0.423626
4051.86011 0.4251
4052.30005 0.42656
4052.73999 0.428037
4053.18994 0.429515
4053.62988 0.430994
4054.08008 0.432475
4054.52002 0.433957
4054.96997 0.435433
4055.40991 0.436918
4055.85010 0.438397
4056.30005 0.439884
4056.73999 0.441374
4057.18994 0.442856
4057.62988 0.444341
4058.08008 0.445834
4058.52002 0.447328
4058.96997 0.448816
4059.40991 0.450311
4059.86011 0.45181
4060.30005 0.453032
4060.75000 0.454133
4061.18994 0.455228
4061.63989 0.45633
4062.08008 0.457427
4062.53003 0.458531
4062.96997 0.459636
4063.41992 0.460742
4063.86011 0.461844
4064.31006 0.462947
4064.75000 0.464056
4065.19995 0.465166
4065.63989 0.466272
4066.09009 0.467378
4066.53003 0.468492
4066.97998 0.469612
4067.42993 0.470722
4067.87012 0.471838
4068.32007 0.472956
4068.76001 0.474063
4069.20996 0.475183
4069.65991 0.476304
4070.10010 0.477413
4070.55005 0.478478
4070.98999 0.479538
4071.43994 0.480605
4071.88989 0.481673
4072.33008 0.482736
4072.78003 0.483806
4073.21997 0.484871
4073.66992 0.485943
4074.12012 0.487011
4074.56006 0.488085
4075.01001 0.48916
4075.45996 0.490231
4075.90991 0.491309
4076.35010 0.492382
4076.80005 0.493461
4077.23999 0.494536
4077.68994 0.495618
4078.13989 0.496705
4078.59009 0.497788
4079.03003 0.498862
4079.47998 0.499947
4079.92993 0.501034
4080.37012 0.501635
4080.82007 0.502148
4081.27002 0.502661
4081.71997 0.503175
4082.15991 0.503684
4082.61011 0.504198
4083.06006 0.504716
4083.51001 0.50523
4083.94995 0.505743
4084.39990 0.506259
4084.85010 0.506775
4085.30005 0.50729
4085.73999 0.507804
4086.18994 0.508322
4086.63989 0.50884
4087.09009 0.509355
4087.53003 0.509874
4087.97998 0.510394
4088.42993 0.510911
4088.87988 0.51143
4089.32007 0.511948
4089.77002 0.51247
4090.21997 0.513044
4090.66992 0.513677
4091.12012 0.514312
4091.57007 0.514947
4092.02002 0.515579
4092.45996 0.516212
4092.90991 0.516848
4093.36011 0.517486
4093.81006 0.518121
4094.26001 0.518762
4094.70996 0.519401
4095.15991 0.520037
4095.61011 0.520672
4096.06006 0.521312
4096.50000 0.521953
4096.95020 0.522595
4097.39990 0.52323
4097.85010 0.523872
4098.29980 0.524515
4098.75000 0.525158
4099.20020 0.525798
4099.64990 0.526442
4100.10010 0.527071
4100.54980 0.52764
4100.99023 0.528208
4101.43994 0.52878
4101.89014 0.529354
4102.33984 0.529923
4102.79004 0.530496
4103.24023 0.53107
4103.68994 0.531641
4104.14014 0.532215
4104.58984 0.532788
4105.04004 0.533363
4105.49023 0.533935
4105.93994 0.534512
4106.39014 0.535085
4106.83984 0.535662
4107.29004 0.536236
4107.74023 0.536817
4108.18994 0.537395
4108.64014 0.537974
4109.08984 0.538548
4109.54004 0.539127
4109.99023 0.539706
4110.43994 0.540499
4110.89990 0.541297
4111.35010 0.542092
4111.79980 0.54289
4112.24023 0.543686
4112.70020 0.544486
4113.14990 0.545283
4113.60010 0.546085
4114.04980 0.546882
4114.50000 0.547686
4114.95020 0.548489
4115.39990 0.549289
4115.85010 0.550093
4116.29980 0.550899
4116.75000 0.551701
4117.20020 0.552504
4117.66016 0.553311
4118.10986 0.554118
4118.56006 0.554932
4119.00977 0.555734
4119.45996 0.556543
4119.91016 0.557354
4120.37012 0.558125
4120.81006 0.55888
4121.27002 0.559643
4121.72021 0.560408
4122.16992 0.561172
4122.62012 0.561928
4123.06982 0.562694
4123.52979 0.563461
4123.97998 0.564227
4124.43018 0.564993
4124.87988 0.565761
4125.33984 0.566525
4125.79004 0.567289
4126.24023 0.568058
4126.68994 0.568827
4127.14990 0.569597
4127.60010 0.570365
4128.04980 0.571136
4128.50000 0.571908
4128.95020 0.572677
4129.39990 0.573445
4129.85986 0.574219
4130.31006 0.575129
4130.75977 0.576097
4131.22021 0.577072
4131.66992 0.578044
4132.12012 0.579024
4132.56982 0.579996
4133.02979 0.580969
4133.47998 0.581947
4133.93018 0.582926
4134.39014 0.583901
4134.83984 0.58488
4135.29980 0.585866
4135.74023 0.586838
4136.20020 0.58782
4136.64990 0.588803
4137.10986 0.589788
4137.56006 0.590763
4138.00977 0.591748
4138.47021 0.592734
4138.91992 0.593719
4139.37012 0.594698
4139.81982 0.595687
4140.27979 0.596396
4140.72998 0.596926
4141.18994 0.597458
4141.64014 0.597988
4142.10010 0.598522
4142.54980 0.599052
4143.00000 0.599586
4143.45996 0.60012
4143.91016 0.600654
4144.37012 0.601187
4144.81982 0.601723
4145.27002 0.602256
4145.72998 0.602792
4146.18018 0.603326
4146.64014 0.603863
4147.08984 0.604402
4147.54004 0.604934
4148.00000 0.605473
4148.45996 0.606013
4148.91016 0.606552
4149.35986 0.607086
4149.81982 0.607627
4150.27002 0.608118
4150.72998 0.608579
4151.18018 0.609038
4151.64014 0.609497
4152.10010 0.609958
4152.54980 0.610417
4153.00977 0.610879
4153.45996 0.61134
4153.91016 0.611799
4154.37012 0.612258
4154.81982 0.612722
4155.27979 0.613184
4155.72998 0.613645
4156.18994 0.614105
4156.64990 0.614571
4157.10010 0.615035
4157.56006 0.615497
4158.00977 0.615959
4158.47021 0.616423
4158.93018 0.616886
4159.37988 0.617349
4159.83984 0.617814
4160.29004 0.617963
4160.75000 0.617936
4161.20020 0.617909
4161.66016 0.617882
4162.12012 0.617855
4162.56982 0.617827
4163.02979 0.617799
4163.47998 0.617771
4163.93994 0.617743
4164.39990 0.617715
4164.85010 0.617687
4165.31006 0.617658
4165.77002 0.61763
4166.22021 0.617602
4166.68018 0.617574
4167.14014 0.617545
4167.58984 0.617516
4168.04980 0.617487
4168.50977 0.617457
4168.97021 0.617427
4169.41992 0.617398
4169.87988 0.617369
4170.33008 0.617531
4170.79004 0.617762
4171.25000 0.617994
4171.70996 0.618227
4172.16016 0.618459
4172.62012 0.618691
4173.08008 0.618923
4173.54004 0.619156
4173.99023 0.619388
4174.45020 0.619621
4174.91016 0.619852
4175.35986 0.620085
4175.81982 0.620318
4176.27979 0.62055
4176.74023 0.620784
4177.20020 0.621017
4177.64990 0.621251
4178.10986 0.621483
4178.56982 0.621716
4179.02979 0.62195
4179.49023 0.622183
4179.93994 0.622416
4180.39990 0.622435
4180.85986 0.622423
4181.31982 0.622411
4181.77979 0.622399
4182.22998 0.622386
4182.68994 0.622374
4183.14990 0.622361
4183.60986 0.622348
4184.06982 0.622336
4184.52979 0.622323
4184.97998 0.62231
4185.43994 0.622297
4185.89990 0.622283
4186.35986 0.62227
4186.81982 0.622256
4187.27979 0.622243
4187.74023 0.622229
4188.20020 0.622215
4188.64990 0.622202
4189.10986 0.622188
4189.56982 0.622172
4190.02979 0.622201
4190.49023 0.622798
4190.95020 0.623398
4191.41016 0.623998
4191.87012 0.624595
4192.33008 0.625197
4192.79004 0.625799
4193.25000 0.626397
4193.70996 0.626999
4194.16992 0.627601
4194.62988 0.628203
4195.08984 0.628799
4195.54980 0.629402
4196.00977 0.630006
4196.47021 0.63061
4196.91992 0.631207
4197.37988 0.631811
4197.85010 0.632419
4198.31006 0.633024
4198.77002 0.633627
4199.22998 0.634229
4199.68994 0.634835
4200.14990 0.63538
4200.60986 0.635794
4201.06982 0.63621
4201.52979 0.636625
4201.99023 0.637039
4202.45020 0.637457
4202.91016 0.637872
4203.37012 0.638289
4203.83008 0.638704
4204.29004 0.639122
4204.75000 0.63954
4205.20996 0.639956
4205.66992 0.640372
4206.12988 0.64079
4206.60010 0.641211
4207.06006 0.641626
4207.52002 0.642045
4207.97998 0.642465
4208.43994 0.642884
4208.89990 0.643302
4209.35986 0.643722
4209.81982 0.644142
4210.29004 0.644894
4210.75000 0.645846
4211.20996 0.646801
4211.66992 0.647753
4212.12988 0.648711
4212.58984 0.649663
4213.06006 0.650623
4213.52002 0.651577
4213.97998 0.652533
4214.43994 0.653494
4214.89990 0.654459
4215.35986 0.655415
4215.81982 0.656371
4216.29004 0.657333
4216.75000 0.658297
4217.20996 0.659261
4217.66992 0.660219
4218.14014 0.661184
4218.60010 0.66215
4219.06006 0.663111
4219.52002 0.664073
4219.97998 0.66504
4220.45020 0.665549
4220.91016 0.66604
4221.37012 0.666534
4221.83008 0.667026
4222.29980 0.66752
4222.75977 0.668014
4223.22998 0.668512
4223.68994 0.669006
4224.14990 0.6695
4224.60986 0.669993
4225.06982 0.67049
4225.54004 0.670986
4226.00000 0.671479
4226.47021 0.671976
4226.93018 0.672473
4227.39014 0.672971
4227.85010 0.673466
4228.31982 0.673962
4228.77979 0.67446
4229.25000 0.674959
4229.70996 0.675454
4230.16992 0.676113
4230.62988 0.677042
4231.10010 0.677975
4231.56006 0.67891
4232.02979 0.679841
4232.49023 0.680775
4232.95020 0.681705
4233.41992 0.682641
4233.87988 0.683572
4234.35010 0.684508
4234.81006 0.685446
4235.27002 0.686383
4235.74023 0.68732
4236.20020 0.688249
4236.66992 0.689189
4237.12988 0.690128
4237.60010 0.691067
4238.06006 0.691998
4238.52002 0.692939
4238.99023 0.69388
4239.45020 0.694821
4239.91992 0.695764
4240.37988 0.696343
4240.85010 0.696844
4241.31006 0.697347
4241.77979 0.697848
4242.24023 0.698353
4242.70996 0.698858
4243.16992 0.69936
4243.64014 0.699865
4244.10010 0.70037
4244.56982 0.700872
4245.02979 0.701374
4245.50000 0.70188
4245.95996 0.702386
4246.43018 0.702889
4246.89014 0.703395
4247.35986 0.703898
4247.81982 0.704405
4248.29004 0.704912
4248.75000 0.705417
4249.22021 0.705924
4249.68994 0.706431
4250.14990 0.707026
4250.62012 0.707806
4251.08008 0.70859
4251.54980 0.709378
4252.02002 0.710158
4252.47998 0.710944
4252.95020 0.711728
4253.41016 0.712511
4253.87988 0.713293
4254.35010 0.714079
4254.81006 0.714866
4255.27979 0.715653
4255.74023 0.716432
4256.20996 0.71722
4256.68018 0.718013
4257.14990 0.718797
4257.60986 0.719582
4258.08008 0.720372
4258.54980 0.721162
4259.00977 0.721948
4259.47998 0.722738
4259.95020 0.723528
4260.41016 0.723842
4260.87988 0.724095
4261.33984 0.724346
4261.81006 0.724599
4262.27979 0.724851
4262.75000 0.725104
4263.20996 0.725355
4263.68018 0.725607
4264.14990 0.725858
4264.60986 0.726112
4265.08008 0.726366
4265.54980 0.726619
4266.02002 0.72687
4266.47998 0.727124
4266.95020 0.727378
4267.41992 0.727632
4267.89014 0.727883
4268.35986 0.728138
4268.81982 0.728391
4269.29004 0.728644
4269.75977 0.728899
4270.22998 0.729348
4270.70020 0.730006
4271.16016 0.730662
4271.62988 0.73132
4272.10010 0.73198
4272.56982 0.732637
4273.02979 0.733294
4273.50000 0.733953
4273.97021 0.734613
4274.43994 0.73527
4274.91016 0.735931
4275.37988 0.736592
4275.85010 0.73725
4276.31006 0.737912
4276.77979 0.738574
4277.25000 0.739236
4277.72021 0.739898
4278.18994 0.740554
4278.66016 0.741218
4279.12988 0.741882
4279.60010 0.742546
4280.06006 0.743145
4280.52979 0.743385
4281.00000 0.743625
4281.47021 0.743864
4281.93994 0.744106
4282.41016 0.744346
4282.87988 0.744586
4283.35010 0.744824
4283.81982 0.745065
4284.29004 0.745306
4284.75977 0.745546
4285.22998 0.745786
4285.70020 0.746027
4286.16992 0.746266
4286.64014 0.746508
4287.10986 0.746749
4287.58008 0.746988
4288.04980 0.747229
4288.52002 0.747469
4288.99023 0.747711
4289.45996 0.747952
4289.93018 0.748194
4290.39990 0.748683
4290.87012 0.749221
4291.33984 0.749759
4291.81006 0.750298
4292.27979 0.750834
4292.75000 0.75137
4293.22021 0.751909
4293.68994 0.752448
4294.16016 0.752988
4294.62988 0.753528
4295.10010 0.754068
4295.56982 0.754604
4296.04004 0.755145
4296.50977 0.755685
4296.99023 0.756225
4297.45020 0.756762
4297.93018 0.757304
4298.39990 0.757847
4298.87012 0.758389
4299.33984 0.758931
4299.81006 0.75947
4300.27979 0.75973
4300.75000 0.759801
4301.22998 0.759872
4301.70020 0.759943
4302.16992 0.760013
4302.64014 0.760083
4303.10986 0.760154
4303.58008 0.760225
4304.04980 0.760297
4304.52002 0.760367
4305.00000 0.760438
4305.47021 0.760509
4305.93994 0.760579
4306.41016 0.76065
4306.87988 0.760721
4307.35986 0.760792
4307.83008 0.760864
4308.29980 0.760935
4308.77002 0.761006
4309.25000 0.761077
4309.72021 0.761148
4310.18994 0.761383
4310.66016 0.761869
4311.14014 0.76235
4311.60986 0.762834
4312.08008 0.763319
4312.54980 0.763801
4313.02002 0.764284
4313.50000 0.76477
4313.97021 0.765256
4314.43994 0.765742
4314.91016 0.766224
4315.39014 0.76671
4315.85986 0.767197
4316.33984 0.767683
4316.81006 0.768168
4317.27979 0.768655
4317.75000 0.769142
4318.22998 0.769629
4318.70020 0.770117
4319.18018 0.770605
4319.64990 0.771093
4320.12012 0.771484
4320.58984 0.7716
4321.06982 0.771716
4321.54004 0.771832
4322.00977 0.771947
4322.49023 0.772063
4322.95996 0.77218
4323.43994 0.772297
4323.91016 0.772412
4324.37988 0.772529
4324.85986 0.772646
4325.33008 0.772761
4325.81006 0.772877
4326.27979 0.772993
4326.75977 0.77311
4327.22998 0.773225
4327.70020 0.773341
4328.18018 0.773458
4328.64990 0.773575
4329.12988 0.773692
4329.60010 0.773807
4330.06982 0.773955
4330.54980 0.774272
4331.02002 0.77459
4331.50000 0.77491
4331.97021 0.775227
4332.43994 0.775544
4332.91992 0.775864
4333.39990 0.776183
4333.87012 0.776502
4334.35010 0.776821
4334.81982 0.77714
4335.29980 0.777458
4335.77002 0.777778
4336.24023 0.778096
4336.72021 0.778417
4337.20020 0.778737
4337.66992 0.779054
4338.14990 0.779374
4338.62012 0.779694
4339.10010 0.780015
4339.56982 0.780333
4340.04980 0.780635
4340.52002 0.780777
4341.00000 0.780918
4341.47998 0.781058
4341.95020 0.781199
4342.43018 0.78134
4342.89990 0.781482
4343.37988 0.781622
4343.85986 0.781762
4344.33008 0.781903
4344.81006 0.782044
4345.29004 0.782186
4345.75977 0.782328
4346.24023 0.782469
4346.70996 0.782609
4347.18994 0.782751
4347.66992 0.782892
4348.14014 0.783033
4348.62012 0.783174
4349.10010 0.783316
4349.56982 0.783458
4350.04980 0.783624
4350.52002 0.783985
4351.00000 0.784348
4351.47998 0.784711
4351.95996 0.785073
4352.43018 0.785435
4352.91016 0.785799
4353.39014 0.786164
4353.87012 0.786528
4354.33984 0.786893
4354.81982 0.787257
4355.29980 0.787617
4355.77002 0.787982
4356.25000 0.788347
4356.72998 0.788713
4357.20020 0.789074
4357.68018 0.78944
4358.16016 0.789805
4358.64014 0.79017
4359.12012 0.790536
4359.58984 0.790899
4360.06982 0.791247
4360.54980 0.791503
4361.02979 0.791758
4361.50000 0.792011
4361.97998 0.792265
4362.45996 0.792521
4362.93994 0.792776
4363.41992 0.79303
4363.89990 0.793285
4364.37012 0.793539
4364.85010 0.793795
4365.33008 0.794051
4365.81006 0.794305
4366.29004 0.794559
4366.77002 0.794815
4367.24023 0.795072
4367.72021 0.795327
4368.20020 0.795583
4368.68018 0.795839
4369.16016 0.796096
4369.64014 0.796351
4370.12012 0.796608
4370.60010 0.796872
4371.08008 0.797137
4371.56006 0.797399
4372.02979 0.797662
4372.50977 0.797925
4372.99023 0.79819
4373.47021 0.798453
4373.95020 0.798717
4374.43018 0.798981
4374.91016 0.799244
4375.39014 0.799509
4375.87012 0.799774
4376.35010 0.800038
4376.83008 0.800301
4377.31006 0.800566
4377.79004 0.800832
4378.27002 0.801098
4378.74023 0.801361
4379.22998 0.801626
4379.70996 0.801892
4380.18994 0.802121
4380.66016 0.802296
4381.14990 0.802472
4381.62988 0.802647
4382.10986 0.802823
4382.58984 0.802999
4383.06982 0.803174
4383.54980 0.80335
4384.02979 0.803526
4384.50977 0.803701
4384.99023 0.803877
4385.47021 0.804053
4385.95020 0.804228
4386.43018 0.804405
4386.91016 0.804581
4387.39014 0.804756
4387.87012 0.804931
4388.35010 0.805109
4388.83984 0.805286
4389.31006 0.80546
4389.79980 0.805636
4390.27979 0.805671
4390.75977 0.805604
4391.24023 0.805536
4391.72021 0.805469
4392.20020 0.805402
4392.68994 0.805334
4393.16016 0.805267
4393.64990 0.805198
4394.12988 0.80513
4394.60986 0.805063
4395.08984 0.804996
4395.56982 0.804928
4396.06006 0.804861
4396.52979 0.804794
4397.02002 0.804726
4397.50000 0.804658
4397.97998 0.804591
4398.45996 0.804523
4398.95020 0.804455
4399.43018 0.804387
4399.91016 0.80432
4400.39014 0.804214
4400.87012 0.804098
4401.35986 0.803982
4401.83984 0.803867
4402.31982 0.803752
4402.81006 0.803636
4403.29004 0.803521
4403.77002 0.803407
4404.25000 0.803291
4404.72998 0.803175
4405.22021 0.803059
4405.70020 0.802942
4406.18994 0.802826
4406.66992 0.80271
4407.14990 0.802594
4407.62988 0.802479
4408.12012 0.802363
4408.60010 0.802247
4409.08008 0.802131
4409.56006 0.802015
4410.04980 0.801925
4410.52979 0.802082
4411.00977 0.802237
4411.50000 0.802393
4411.97998 0.80255
4412.45996 0.802706
4412.95020 0.802864
4413.43018 0.80302
4413.91992 0.803177
4414.39990 0.803333
4414.89014 0.80349
4415.37012 0.803647
4415.85010 0.803803
4416.33008 0.803959
4416.81982 0.804116
4417.31006 0.804273
4417.79004 0.804429
4418.27002 0.804585
4418.75977 0.804743
4419.24023 0.804901
4419.72998 0.805057
4420.20996 0.805097
4420.68994 0.804981
4421.18018 0.804865
4421.66016 0.804748
4422.14990 0.804632
4422.62988 0.804515
4423.12012 0.804398
4423.60010 0.804281
4424.08984 0.804165
4424.56982 0.804048
4425.04980 0.803931
4425.54004 0.803814
4426.02002 0.803696
4426.50977 0.803579
4426.99023 0.803463
4427.47998 0.803346
4427.97021 0.803228
4428.45020 0.803111
4428.93994 0.802993
4429.41992 0.802875
4429.91016 0.802757
4430.39990 0.802953
4430.87988 0.80322
4431.35986 0.80349
4431.85010 0.803761
4432.33984 0.804029
4432.81982 0.804299
4433.31006 0.804568
4433.79004 0.804837
4434.27979 0.805105
4434.77002 0.805375
4435.25000 0.805643
4435.74023 0.805912
4436.22021 0.806181
4436.70996 0.80645
4437.18994 0.806721
4437.68018 0.806991
4438.16992 0.807261
4438.64990 0.807531
4439.14014 0.807799
4439.62012 0.808067
4440.10986 0.808323
4440.60010 0.808532
4441.08984 0.808743
4441.56982 0.808951
4442.06006 0.809162
4442.54980 0.809371
4443.04004 0.809581
4443.52002 0.809787
4444.00977 0.809996
4444.49023 0.810206
4444.97998 0.810415
4445.47021 0.810624
4445.95020 0.810833
4446.43994 0.811043
4446.93018 0.811252
4447.41992 0.811462
4447.91016 0.811671
4448.39014 0.811879
4448.87988 0.812087
4449.37012 0.812297
4449.85986 0.812508
4450.35010 0.812845
4450.83008 0.813232
4451.31982 0.813622
4451.81006 0.814013
4452.29004 0.814402
4452.77979 0.814791
4453.27002 0.815181
4453.75977 0.815571
4454.25000 0.81596
4454.72998 0.81635
4455.22021 0.816741
4455.70996 0.817132
4456.20020 0.817522
4456.68994 0.81791
4457.18018 0.818301
4457.66016 0.81869
4458.14990 0.819081
4458.64014 0.819474
4459.12988 0.819865
4459.62012 0.820252
4460.10986 0.820634
4460.60010 0.820985
4461.08984 0.821335
4461.56982 0.821681
4462.06006 0.82203
4462.54980 0.822381
4463.04004 0.822732
4463.52979 0.823079
4464.02002 0.82343
4464.50977 0.823781
4465.00000 0.82413
4465.49023 0.824481
4465.97998 0.824831
4466.47021 0.82518
4466.95020 0.82553
4467.43994 0.825881
4467.93994 0.826232
4468.43018 0.826583
4468.91016 0.826933
4469.39990 0.827284
4469.89014 0.827634
4470.37988 0.828028
4470.87012 0.828431
4471.35986 0.828836
4471.85010 0.82924
4472.33984 0.829645
4472.83008 0.83005
4473.31982 0.830456
4473.81982 0.830862
4474.29980 0.831264
4474.79004 0.83167
4475.27979 0.832076
4475.77979 0.832482
4476.27002 0.832888
4476.75977 0.833295
4477.25000 0.833699
4477.74023 0.834104
4478.22998 0.83451
4478.72021 0.834916
4479.20996 0.835322
4479.70020 0.835726
4480.18994 0.836103
4480.68018 0.836436
4481.18018 0.836769
4481.66992 0.8371
4482.16016 0.837433
4482.64990 0.837766
4483.14014 0.838097
4483.62988 0.83843
4484.12012 0.83876
4484.60986 0.839094
4485.10010 0.839425
4485.60010 0.839758
4486.08984 0.840091
4486.58008 0.840424
4487.06982 0.840756
4487.56006 0.841087
4488.06006 0.841421
4488.54980 0.841753
4489.04004 0.842083
4489.52979 0.842415
4490.02002 0.84275
4490.50977 0.843121
4491.00977 0.84349
4491.50000 0.843862
4491.99023 0.844233
4492.47998 0.844599
4492.97998 0.84497
4493.47021 0.84534
4493.95996 0.845712
4494.45020 0.846081
4494.95020 0.846449
4495.43994 0.846821
4495.93018 0.847191
4496.43018 0.847562
4496.91992 0.847933
4497.41016 0.848302
4497.89990 0.848671
4498.39990 0.849043
4498.89014 0.849415
4499.37988 0.849785
4499.87988 0.850154
4500.37012 0.850354
4500.85986 0.850496
4501.35010 0.850637
4501.85010 0.850778
4502.33984 0.85092
4502.83984 0.851062
4503.33008 0.851202
4503.81982 0.851342
4504.31982 0.851484
4504.81006 0.851626
4505.29980 0.851766
4505.79980 0.851907
4506.29004 0.852048
4506.77979 0.852189
4507.27002 0.852329
4507.77002 0.85247
4508.27002 0.852612
4508.75977 0.852753
4509.25000 0.852894
4509.75000 0.853035
4510.24023 0.853231
4510.72998 0.85348
4511.22998 0.853731
4511.72998 0.853983
4512.22021 0.854234
4512.70996 0.854485
4513.20996 0.854737
4513.70020 0.854989
4514.20020 0.855239
4514.68994 0.85549
4515.18994 0.855741
4515.68018 0.855993
4516.18018 0.856244
4516.66992 0.856496
4517.16992 0.856748
4517.66016 0.856999
4518.16016 0.857248
4518.64990 0.857499
4519.14990 0.857751
4519.64014 0.858003
4520.14014 0.858198
4520.64014 0.858248
4521.12988 0.858298
4521.62012 0.858348
4522.12012 0.858399
4522.62012 0.858449
4523.10986 0.8585
4523.60010 0.858549
4524.10010 0.858599
4524.60010 0.85865
4525.10010 0.8587
4525.58984 0.85875
4526.08008 0.858801
4526.58008 0.858851
4527.08008 0.858901
4527.56982 0.85895
4528.06982 0.859
4528.56982 0.85905
4529.06006 0.8591
4529.56006 0.85915
4530.06006 0.859195
4530.54980 0.859193
4531.04980 0.859191
4531.54980 0.859188
4532.04004 0.859186
4532.54004 0.859183
4533.02979 0.85918
4533.52979 0.859178
4534.02979 0.859174
4534.52002 0.859172
4535.02002 0.85917
4535.52002 0.859167
4536.02002 0.859165
4536.50977 0.859162
4537.00977 0.859159
4537.50977 0.859155
4538.00977 0.859152
4538.50977 0.859149
4539.00000 0.859146
4539.50000 0.859144
4540.00000 0.859141
4540.49023 0.85911
4540.99023 0.859078
4541.49023 0.859049
4541.99023 0.85902
4542.47998 0.85899
4542.97998 0.85896
4543.47998 0.858929
4543.97998 0.858898
4544.47998 0.858867
4544.97998 0.858837
4545.47021 0.858805
4545.97021 0.858774
4546.47021 0.858744
4546.97021 0.858714
4547.47021 0.858682
4547.95996 0.85865
4548.45996 0.85862
4548.95996 0.85859
4549.45996 0.858558
4549.95996 0.858526
4550.45020 0.858315
4550.95020 0.858085
4551.45020 0.857856
4551.95020 0.857626
4552.45020 0.857397
4552.95020 0.857167
4553.45020 0.856937
4553.95020 0.856707
4554.45020 0.856477
4554.93994 0.856249
4555.43994 0.856018
4555.93994 0.855787
4556.43994 0.855558
4556.93994 0.855328
4557.43994 0.855098
4557.93994 0.854868
4558.43994 0.854636
4558.93994 0.854406
4559.43994 0.854177
4559.93994 0.853946
4560.43994 0.853866
4560.93994 0.853806
4561.43994 0.853745
4561.93994 0.853683
4562.43994 0.853623
4562.93994 0.853563
4563.43994 0.853503
4563.93994 0.853442
4564.43994 0.853381
4564.93994 0.85332
4565.43994 0.853259
4565.93994 0.853197
4566.43994 0.853137
4566.93994 0.853077
4567.43994 0.853015
4567.93994 0.852953
4568.43994 0.852892
4568.93994 0.85283
4569.43994 0.852769
4569.93994 0.852708
4570.43994 0.852473
4570.93994 0.852216
4571.45020 0.851957
4571.95020 0.851701
4572.45020 0.851442
4572.95020 0.851184
4573.45020 0.850928
4573.95020 0.850672
4574.45020 0.850414
4574.95996 0.850155
4575.45996 0.849898
4575.95996 0.849639
4576.45996 0.849381
4576.95996 0.849123
4577.45996 0.848866
4577.95996 0.848608
4578.47021 0.848349
4578.97021 0.848091
4579.47021 0.847832
4579.97021 0.847573
4580.47998 0.847637
4580.97998 0.84772
4581.47998 0.847802
4581.97998 0.847885
4582.47998 0.847968
4582.97998 0.848052
4583.49023 0.848135
4583.99023 0.848218
4584.49023 0.848301
4584.99023 0.848384
4585.50000 0.848467
4586.00000 0.84855
4586.50000 0.848632
4587.00000 0.848714
4587.50977 0.848797
4588.00977 0.84888
4588.50977 0.848962
4589.00977 0.849045
4589.52002 0.849128
4590.02002 0.849206
4590.52002 0.849193
4591.02979 0.84918
4591.52979 0.849167
4592.02979 0.849155
4592.54004 0.849143
4593.04004 0.84913
4593.54980 0.849116
4594.04980 0.849103
4594.54980 0.849091
4595.04980 0.849079
4595.56006 0.849066
4596.06006 0.849052
4596.56006 0.849039
4597.06982 0.849025
4597.56982 0.849012
4598.06982 0.848998
4598.58008 0.848985
4599.08984 0.848971
4599.58984 0.848958
4600.08984 0.84904
4600.60010 0.849554
4601.10010 0.850067
4601.60986 0.85058
4602.10986 0.85109
4602.60986 0.851603
4603.12012 0.852116
4603.62012 0.852627
4604.12988 0.853139
4604.62988 0.853651
4605.14014 0.854164
4605.64014 0.854675
4606.14990 0.855188
4606.64990 0.855699
4607.14990 0.856212
4607.66016 0.856726
4608.16992 0.857241
4608.66992 0.857754
4609.16992 0.858264
4609.68018 0.858779
4610.18994 0.859116
4610.68994 0.859147
4611.20020 0.859178
4611.70020 0.859208
4612.20996 0.859239
4612.72021 0.859269
4613.22021 0.8593
4613.72021 0.85933
4614.22998 0.859362
4614.74023 0.859393
4615.24023 0.859424
4615.74023 0.859455
4616.25000 0.859485
4616.75977 0.859515
4617.25977 0.859545
4617.77002 0.859577
4618.27979 0.859607
4618.77979 0.859638
4619.29004 0.859668
4619.79980 0.859698
4620.29980 0.860068
4620.81006 0.860664
4621.31006 0.861262
4621.81982 0.861861
4622.33008 0.862457
4622.83984 0.863057
4623.33984 0.863655
4623.85010 0.864255
4624.35010 0.864851
4624.85986 0.86545
4625.37012 0.866048
4625.87012 0.86665
4626.37988 0.867246
4626.89014 0.867846
4627.39990 0.868446
4627.89990 0.869047
4628.41016 0.869645
4628.91992 0.870251
4629.43018 0.870852
4629.93018 0.871447
4630.43994 0.871917
4630.95020 0.872366
4631.45996 0.872816
4631.95996 0.873261
4632.47021 0.873709
4632.97998 0.874158
4633.49023 0.874608
4633.99023 0.875054
4634.50000 0.875504
4635.00977 0.875953
4635.52002 0.876402
4636.02002 0.876851
4636.52979 0.877301
4637.04004 0.877749
4637.54980 0.878197
4638.06006 0.878647
4638.56982 0.879096
4639.06982 0.879545
4639.58008 0.879994
4640.08984 0.880422
4640.60010 0.880737
4641.10010 0.881053
4641.60986 0.881371
4642.12012 0.881689
4642.62988 0.882005
4643.14014 0.882322
4643.64990 0.882639
4644.16016 0.882956
4644.66992 0.883276
4645.18018 0.883593
4645.68994 0.883911
4646.20020 0.884229
4646.70996 0.884546
4647.22021 0.884865
4647.72998 0.885183
4648.22998 0.8855
4648.74023 0.885817
4649.25000 0.886136
4649.75977 0.886455
4650.27002 0.886748
4650.77979 0.887022
4651.29004 0.887297
4651.79980 0.887573
4652.31006 0.887848
4652.81982 0.888121
4653.33008 0.888396
4653.83984 0.88867
4654.35010 0.888945
4654.85986 0.88922
4655.37012 0.889495
4655.87988 0.88977
4656.39014 0.890045
4656.89990 0.890321
4657.41016 0.890596
4657.91992 0.890871
4658.43018 0.891146
4658.93994 0.891421
4659.45020 0.891697
4659.97021 0.891972
4660.47021 0.892497
4660.97998 0.89304
4661.49023 0.893585
4662.00977 0.89413
4662.52002 0.894672
4663.02979 0.895218
4663.54004 0.895766
4664.04980 0.896307
4664.56006 0.896853
4665.06982 0.897399
4665.58984 0.897946
4666.10010 0.898494
4666.60986 0.899037
4667.12012 0.899583
4667.62988 0.900126
4668.14014 0.900673
4668.64990 0.901218
4669.16992 0.901765
4669.68018 0.90231
4670.18994 0.9027
4670.70020 0.902821
4671.20996 0.902941
4671.72021 0.903061
4672.22998 0.903181
4672.75000 0.903302
4673.25977 0.903422
4673.77002 0.903541
4674.27979 0.903662
4674.79980 0.903782
4675.31006 0.903902
4675.81982 0.904024
4676.33984 0.904144
4676.85010 0.904264
4677.35986 0.904384
4677.87012 0.904505
4678.39014 0.904625
4678.89990 0.904744
4679.41016 0.904864
4679.91992 0.904985
4680.43994 0.90489
4680.95020 0.904757
4681.45996 0.904626
4681.97998 0.904494
4682.49023 0.904362
4683.00000 0.904231
4683.50977 0.904097
4684.02979 0.903963
4684.54004 0.90383
4685.04980 0.903698
4685.56982 0.903565
4686.08008 0.903431
4686.60010 0.903298
4687.10986 0.903166
4687.62012 0.903033
4688.14014 0.902899
4688.64990 0.902765
4689.16016 0.902633
4689.68018 0.902499
4690.18994 0.902405
4690.70020 0.902377
4691.22021 0.902349
4691.72998 0.90232
4692.25000 0.902293
4692.75977 0.902266
4693.27979 0.902238
4693.79004 0.90221
4694.31006 0.902182
4694.81982 0.902154
4695.33984 0.902126
4695.85010 0.902097
4696.35986 0.902069
4696.87988 0.902041
4697.39014 0.902013
4697.91016 0.901985
4698.41992 0.901957
4698.93994 0.901929
4699.45020 0.9019
4699.97021 0.901871
4700.47998 0.901913
4701.00000 0.90196
4701.50977 0.902006
4702.02979 0.902052
4702.54004 0.902098
4703.06006 0.902144
4703.58008 0.902192
4704.08984 0.902238
4704.60986 0.902285
4705.12012 0.902331
4705.64014 0.902377
4706.14990 0.902424
4706.66992 0.90247
4707.18018 0.902516
4707.70020 0.902562
4708.20996 0.902607
4708.72998 0.902653
4709.25000 0.902699
4709.75977 0.902744
4710.27979 0.90295
4710.79980 0.903292
4711.31006 0.903634
4711.83008 0.903976
4712.35010 0.904318
4712.85986 0.904661
4713.37988 0.905005
4713.89990 0.905347
4714.41016 0.905689
4714.93018 0.90603
4715.43994 0.906372
4715.95996 0.906712
4716.47998 0.907055
4716.99023 0.907396
4717.50977 0.907735
4718.02979 0.908077
4718.54980 0.908419
4719.06006 0.908761
4719.58008 0.909103
4720.10010 0.90932
4720.60986 0.90899
4721.12988 0.908661
4721.64990 0.908333
4722.16992 0.908003
4722.68994 0.907674
4723.20020 0.907345
4723.72021 0.907016
4724.24023 0.906686
4724.75977 0.906357
4725.27002 0.906028
4725.79004 0.905697
4726.31006 0.905366
4726.83008 0.905034
4727.33984 0.904703
4727.85986 0.904372
4728.37988 0.904039
4728.89990 0.90371
4729.41992 0.90338
4729.93994 0.903048
4730.45020 0.903118
4730.97021 0.903245
4731.49023 0.903373
4732.00977 0.903501
4732.52979 0.903629
4733.04980 0.903757
4733.56006 0.903885
4734.08008 0.904013
4734.60010 0.90414
4735.12012 0.904266
4735.64014 0.904394
4736.16016 0.904523
4736.68018 0.904651
4737.20020 0.904778
4737.72021 0.904906
4738.24023 0.905034
4738.75000 0.905161
4739.27002 0.905288
4739.79980 0.905416
4740.31006 0.90543
4740.83008 0.905368
4741.35010 0.905307
4741.87988 0.905245
4742.39014 0.905183
4742.91016 0.905121
4743.43018 0.90506
4743.95020 0.904999
4744.47021 0.904936
4744.99023 0.904873
4745.50977 0.904811
4746.02979 0.904748
4746.54980 0.904687
4747.06982 0.904625
4747.58984 0.904562
4748.10986 0.904499
4748.62988 0.904437
4749.14990 0.904374
4749.68018 0.904312
4750.18994 0.904493
4750.72021 0.905086
4751.24023 0.905678
4751.75977 0.906268
4752.27002 0.906858
4752.79980 0.90745
4753.31982 0.908044
4753.83984 0.908637
4754.35986 0.909224
4754.87988 0.909818
4755.39990 0.910412
4755.91992 0.911007
4756.43994 0.911599
4756.97021 0.912194
4757.49023 0.912787
4758.00977 0.913378
4758.52979 0.913973
4759.04980 0.914568
4759.56982 0.915162
4760.10010 0.91565
4760.62012 0.91567
4761.14014 0.91569
4761.66016 0.91571
4762.18018 0.915729
4762.70020 0.915749
4763.22998 0.915769
4763.75000 0.915788
4764.27002 0.915807
4764.79004 0.915826
4765.31006 0.915845
4765.83984 0.915865
4766.35986 0.915884
4766.87988 0.915904
4767.39990 0.915923
4767.93018 0.915941
4768.45020 0.915961
4768.97021 0.91598
4769.49023 0.915999
4770.02002 0.916039
4770.54004 0.916681
4771.06006 0.917326
4771.58008 0.91797
4772.10986 0.918616
4772.62988 0.919263
4773.14990 0.919906
4773.66992 0.920549
4774.20020 0.921197
4774.72021 0.921844
4775.24023 0.922489
4775.77002 0.923137
4776.29004 0.923785
4776.81982 0.924433
4777.33984 0.925081
4777.85986 0.925727
4778.39014 0.926376
4778.91016 0.927026
4779.43994 0.927671
4779.95996 0.92832
4780.47998 0.928334
4781.00977 0.928296
4781.52979 0.928259
4782.06006 0.928221
4782.58008 0.928183
4783.10010 0.928146
4783.62012 0.928107
4784.14990 0.928069
4784.68018 0.92803
4785.20020 0.927992
4785.72021 0.927955
4786.25000 0.927917
4786.77002 0.927878
4787.29980 0.92784
4787.81982 0.927801
4788.35010 0.927763
4788.87988 0.927725
4789.39990 0.927687
4789.91992 0.927649
4790.45020 0.927805
4790.97021 0.927996
4791.49023 0.928185
4792.02002 0.928376
4792.54980 0.928567
4793.06982 0.928757
4793.60010 0.928949
4794.12012 0.929139
4794.64990 0.92933
4795.16992 0.92952
4795.70020 0.92971
4796.22998 0.929901
4796.75000 0.930093
4797.27979 0.930283
4797.79980 0.930474
4798.33008 0.930666
4798.85010 0.930857
4799.37988 0.931047
4799.91016 0.931239
4800.43018 0.931316
4800.95996 0.931368
4801.47998 0.931419
4802.00977 0.93147
4802.54004 0.931522
4803.06006 0.931573
4803.58984 0.931626
4804.12012 0.931678
4804.64014 0.931729
4805.16992 0.93178
4805.68994 0.931832
4806.22021 0.931884
4806.75000 0.931936
4807.27979 0.931987
4807.79980 0.932039
4808.33008 0.932091
4808.85010 0.932144
4809.37988 0.932196
4809.91016 0.932247
4810.43994 0.932393
4810.95996 0.932556
4811.49023 0.932722
4812.02002 0.932888
4812.54980 0.933054
4813.06982 0.933218
4813.60010 0.933384
4814.12988 0.93355
4814.64990 0.933716
4815.18018 0.933883
4815.70996 0.934049
4816.24023 0.934215
4816.77002 0.93438
4817.29980 0.934546
4817.81982 0.934711
4818.35010 0.934878
4818.87988 0.935044
4819.41016 0.93521
4819.93018 0.935375
4820.45996 0.935171
4820.99023 0.934917
4821.52002 0.93466
4822.04980 0.934403
4822.58008 0.934148
4823.10010 0.933892
4823.64014 0.933635
4824.16016 0.933378
4824.68994 0.933123
4825.22021 0.932864
4825.75000 0.932606
4826.27979 0.93235
4826.81006 0.932094
4827.33984 0.931836
4827.85986 0.931579
4828.39014 0.931321
4828.91992 0.931063
4829.45020 0.930804
4829.97998 0.930546
4830.50977 0.930619
4831.04004 0.930703
4831.56982 0.930785
4832.10010 0.930867
4832.62988 0.93095
4833.16016 0.931033
4833.68994 0.931115
4834.22021 0.931197
4834.75000 0.93128
4835.27979 0.931363
4835.81006 0.931445
4836.33984 0.931527
4836.87012 0.931609
4837.39990 0.931691
4837.93018 0.931773
4838.45996 0.931856
4838.99023 0.931939
4839.52002 0.932022
4840.04980 0.932085
4840.58008 0.93194
4841.10986 0.931796
4841.64014 0.931651
4842.16992 0.931506
4842.70020 0.931362
4843.22998 0.931218
4843.77002 0.931073
4844.29004 0.930929
4844.83008 0.930783
4845.35986 0.930638
4845.89014 0.930493
4846.41992 0.930348
4846.95020 0.930203
4847.47998 0.930057
4848.00977 0.929912
4848.54004 0.929768
4849.06982 0.929623
4849.60010 0.929479
4850.14014 0.929416
4850.66992 0.929596
4851.20020 0.929776
4851.72998 0.929957
4852.25977 0.930136
4852.79980 0.930318
4853.33008 0.930498
4853.85986 0.930678
4854.39014 0.930858
4854.93018 0.931037
4855.45996 0.931218
4855.97998 0.931397
4856.52002 0.931578
4857.04980 0.93176
4857.58984 0.93194
4858.10986 0.932119
4858.64990 0.9323
4859.18018 0.932481
4859.70996 0.932662
4860.24023 0.93268
4860.77979 0.932505
4861.31006 0.932331
4861.83984 0.932157
4862.37988 0.931982
4862.91016 0.931807
4863.43994 0.931632
4863.97998 0.931458
4864.50977 0.931283
4865.04004 0.931108
4865.58008 0.930932
4866.10986 0.930756
4866.64014 0.930582
4867.18018 0.930406
4867.70996 0.930231
4868.24023 0.930055
4868.77002 0.92988
4869.31006 0.929704
4869.83984 0.929528
4870.37988 0.929534
4870.91016 0.929618
4871.43994 0.929701
4871.97998 0.929783
4872.50977 0.929867
4873.04980 0.929951
4873.58008 0.930034
4874.10986 0.930118
4874.64990 0.930202
4875.18994 0.930286
4875.72021 0.930368
4876.25000 0.930452
4876.79004 0.930535
4877.31982 0.930619
4877.85010 0.9307
4878.39014 0.930785
4878.91992 0.930869
4879.45996 0.930953
4879.99023 0.931036
4880.52002 0.931139
4881.06006 0.931242
4881.60010 0.931345
4882.12988 0.931448
4882.66992 0.931552
4883.20020 0.931657
4883.74023 0.93176
4884.27002 0.931862
4884.81006 0.931965
4885.35010 0.932068
4885.87988 0.932171
4886.41016 0.932276
4886.95020 0.932379
4887.47998 0.932483
4888.02002 0.932586
4888.56006 0.932688
4889.08984 0.932791
4889.62988 0.932895
4890.16016 0.933085
4890.70020 0.933465
4891.24023 0.933847
4891.77002 0.934225
4892.31006 0.934607
4892.85010 0.934991
4893.37988 0.935374
4893.91992 0.935754
4894.45996 0.936137
4894.99023 0.93652
4895.52979 0.936901
4896.06006 0.937282
4896.60010 0.937664
4897.14014 0.938047
4897.66992 0.938427
4898.20996 0.938812
4898.75000 0.939195
4899.27979 0.939578
4899.81982 0.939958
4900.35986 0.940304
4900.89014 0.940627
4901.43018 0.94095
4901.97021 0.941273
4902.50977 0.941596
4903.04980 0.941918
4903.58008 0.942239
4904.12012 0.942563
4904.64990 0.942887
4905.18994 0.943211
4905.72998 0.943532
4906.27002 0.943856
4906.81006 0.94418
4907.33984 0.944504
4907.87988 0.944825
4908.41992 0.945149
4908.95020 0.945474
4909.49023 0.945799
4910.02979 0.946143
4910.56982 0.946797
4911.10986 0.947452
4911.64990 0.948101
4912.18018 0.948757
4912.72998 0.949417
4913.25977 0.95007
4913.79980 0.950726
4914.33984 0.951382
4914.87988 0.952036
4915.41992 0.952689
4915.95996 0.953345
4916.50000 0.954005
4917.02979 0.954664
4917.56982 0.955318
4918.10986 0.955972
4918.64990 0.95663
4919.18994 0.957289
4919.72998 0.957945
4920.27002 0.958307
4920.81006 0.958364
4921.35010 0.958421
4921.89014 0.958478
4922.43018 0.958535
4922.97021 0.958592
4923.50977 0.958649
4924.04004 0.958705
4924.58008 0.958763
4925.12012 0.958821
4925.66016 0.958877
4926.20020 0.958934
4926.74023 0.958991
4927.27979 0.959048
4927.81982 0.959104
4928.35986 0.959162
4928.89990 0.95922
4929.43994 0.959278
4929.97998 0.959334
4930.52002 0.95943
4931.06006 0.959527
4931.60986 0.959624
4932.14014 0.95972
4932.68018 0.959818
4933.22998 0.959915
4933.77002 0.960012
4934.31006 0.960109
4934.85010 0.960206
4935.39014 0.960304
4935.93018 0.960401
4936.47021 0.960498
4937.00977 0.960593
4937.54980 0.960691
4938.08984 0.960788
4938.62988 0.960886
4939.18018 0.960983
4939.70996 0.961079
4940.25977 0.961323
4940.79980 0.961732
4941.33984 0.962142
4941.87988 0.962552
4942.43018 0.962961
4942.97021 0.963371
4943.50977 0.96378
4944.04980 0.964186
4944.58984 0.964596
4945.12988 0.965006
4945.68018 0.965419
4946.22021 0.965827
4946.75977 0.966236
4947.29980 0.966646
4947.85010 0.967056
4948.37988 0.967463
4948.93018 0.967877
4949.47021 0.968286
4950.00977 0.968691
4950.56006 0.968825
4951.10010 0.968959
4951.64014 0.969091
4952.18018 0.969224
4952.72998 0.969357
4953.27002 0.969489
4953.81006 0.969622
4954.35010 0.969755
4954.89990 0.969889
4955.43994 0.970022
4955.97998 0.970155
4956.52002 0.970288
4957.06982 0.970422
4957.60986 0.970554
4958.14990 0.970687
4958.70020 0.970821
4959.24023 0.970955
4959.79004 0.971089
4960.33008 0.97121
4960.87012 0.971324
4961.41992 0.971438
4961.95996 0.971551
4962.50977 0.971666
4963.04980 0.971781
4963.58984 0.971894
4964.14014 0.972008
4964.68018 0.972122
4965.22998 0.972237
4965.77002 0.972351
4966.31006 0.972465
4966.85986 0.972579
4967.39990 0.972693
4967.95020 0.972808
4968.49023 0.972922
4969.02979 0.973036
4969.58008 0.97315
4970.12012 0.973262
4970.66992 0.973363
4971.22021 0.973463
4971.75977 0.973563
4972.29980 0.973662
4972.85010 0.973763
4973.39014 0.973864
4973.93994 0.973964
4974.47998 0.974063
4975.02979 0.974164
4975.56982 0.974263
4976.12012 0.974364
4976.66016 0.974464
4977.20996 0.974565
4977.75000 0.974665
4978.29980 0.974765
4978.85010 0.974865
4979.39014 0.974965
4979.93994 0.975065
4980.47998 0.975184
4981.02979 0.975309
4981.58008 0.975432
4982.12012 0.975555
4982.66992 0.975679
4983.20996 0.975801
4983.75977 0.975924
4984.31006 0.976047
4984.85010 0.976171
4985.39990 0.976294
4985.93994 0.976416
4986.49023 0.97654
4987.04004 0.976663
4987.58008 0.976786
4988.12988 0.97691
4988.66992 0.977034
4989.22021 0.977158
4989.77002 0.977281
4990.31982 0.977508
4990.87012 0.97781
4991.41016 0.978113
4991.95996 0.978415
4992.50977 0.978716
4993.04980 0.97902
4993.60010 0.979323
4994.14990 0.979626
4994.68994 0.979926
4995.24023 0.98023
4995.79004 0.980534
4996.33984 0.980838
4996.87988 0.981139
4997.43018 0.981442
4997.97998 0.981746
4998.52979 0.982049
4999.08008 0.982352
4999.62012 0.982657
5000.16992 0.982761
5000.72021 0.982431
5001.27002 0.982097
5001.81006 0.981763
5002.35986 0.981429
5002.91016 0.981097
5003.45996 0.980763
5004.00977 0.980427
5004.56006 0.980092
5005.10986 0.979757
5005.64990 0.979425
5006.20020 0.97909
5006.75000 0.978754
5007.29980 0.978419
5007.85010 0.978085
5008.39990 0.977748
5008.93994 0.977414
5009.49023 0.977078
5010.04004 0.976775
5010.58984 0.976882
5011.14014 0.976988
5011.68994 0.977094
5012.24023 0.9772
5012.79004 0.977305
5013.33984 0.977412
5013.89014 0.977519
5014.43994 0.977626
5014.99023 0.977732
5015.54004 0.97784
5016.08984 0.977947
5016.64014 0.978052
5017.18018 0.978157
5017.72998 0.978263
5018.27979 0.978369
5018.83984 0.978477
5019.39014 0.978583
5019.93994 0.978689
5020.49023 0.978515
5021.02979 0.978307
5021.58984 0.978098
5022.14014 0.977889
5022.68994 0.977681
5023.22998 0.977473
5023.79004 0.977264
5024.33984 0.977054
5024.89014 0.976845
5025.43994 0.976636
5025.99023 0.976425
5026.54004 0.976214
5027.08984 0.976004
5027.64014 0.975795
5028.20020 0.975583
5028.75000 0.975371
5029.29980 0.975162
5029.85010 0.97495
5030.39990 0.974835
5030.95020 0.974757
5031.50000 0.974678
5032.06006 0.9746
5032.60986 0.974523
5033.16016 0.974445
5033.70996 0.974366
5034.25977 0.974288
5034.81006 0.97421
5035.35986 0.974131
5035.91016 0.974051
5036.47021 0.973971
5037.02002 0.973891
5037.56982 0.973814
5038.12012 0.973735
5038.66992 0.973655
5039.22998 0.973574
5039.77979 0.973494
5040.33008 0.973137
5040.89014 0.972592
5041.43994 0.972053
5041.99023 0.971507
5042.54004 0.970962
5043.10010 0.970417
5043.64990 0.969878
5044.20020 0.969333
5044.75000 0.968786
5045.31006 0.96824
5045.85010 0.967699
5046.41016 0.967152
5046.95996 0.966606
5047.52002 0.966058
5048.06982 0.96551
5048.62012 0.964961
5049.18018 0.964412
5049.72998 0.963867
5050.27979 0.963772
5050.83984 0.964113
5051.39014 0.964452
5051.95020 0.964791
5052.50000 0.96513
5053.04980 0.965468
5053.60986 0.965808
5054.16016 0.966148
5054.70996 0.966486
5055.27002 0.966826
5055.81982 0.967164
5056.37988 0.967504
5056.93018 0.967845
5057.47998 0.968184
5058.04004 0.968522
5058.58984 0.968863
5059.14990 0.969204
5059.70020 0.969546
5060.25977 0.969697
5060.81006 0.969626
5061.37012 0.969554
5061.91992 0.969484
5062.47998 0.969413
5063.02979 0.969343
5063.58984 0.969272
5064.14014 0.969201
5064.68994 0.96913
5065.25000 0.969058
5065.81006 0.968986
5066.35986 0.968915
5066.91016 0.968844
5067.47021 0.968772
5068.02002 0.968699
5068.58008 0.968626
5069.14014 0.968553
5069.68994 0.968482
5070.25000 0.968668
5070.79980 0.969173
5071.35986 0.969681
5071.91992 0.970188
5072.47021 0.970693
5073.02002 0.971198
5073.58008 0.971706
5074.14014 0.972215
5074.68994 0.97272
5075.25000 0.973228
5075.81006 0.973734
5076.35986 0.974243
5076.91992 0.974752
5077.47021 0.97526
5078.02979 0.975773
5078.58984 0.976277
5079.14014 0.976786
5079.70020 0.977296
5080.25977 0.977494
5080.81982 0.977332
5081.37988 0.977172
5081.93018 0.977011
5082.49023 0.97685
5083.04004 0.976689
5083.60010 0.976528
5084.16016 0.976366
5084.70996 0.976207
5085.27002 0.976045
5085.83008 0.975883
5086.39014 0.975721
5086.93994 0.97556
5087.50000 0.975397
5088.06006 0.975234
5088.62012 0.975073
5089.18018 0.97491
5089.72998 0.974749
5090.29004 0.974798
5090.85010 0.975042
5091.39990 0.975288
5091.95996 0.975533
5092.52002 0.975779
5093.08008 0.976024
5093.64014 0.976269
5094.18994 0.976515
5094.75977 0.976759
5095.31006 0.977004
5095.87012 0.977249
5096.43018 0.977496
5096.99023 0.977743
5097.54004 0.977988
5098.10010 0.978235
5098.66992 0.978483
5099.22021 0.978727
5099.77979 0.978972
5100.33984 0.979363
5100.89990 0.979848
5101.45996 0.980333
5102.02002 0.980816
5102.58008 0.981302
5103.14014 0.981787
5103.70020 0.98227
5104.25977 0.982755
5104.81006 0.983238
5105.37988 0.983725
5105.93018 0.98421
5106.49023 0.984697
5107.04980 0.985181
5107.60986 0.985667
5108.16992 0.986152
5108.72998 0.986638
5109.29004 0.987126
5109.85010 0.98761
5110.41016 0.987956
5110.97998 0.988253
5111.54004 0.988546
5112.08984 0.988836
5112.64990 0.98913
5113.20996 0.989424
5113.77002 0.989715
5114.33008 0.990009
5114.89014 0.990303
5115.45020 0.990598
5116.00977 0.99089
5116.56982 0.991184
5117.12988 0.991478
5117.70020 0.991772
5118.25977 0.992065
5118.81982 0.992361
5119.37988 0.992655
5119.93994 0.992948
5120.50000 0.992998
5121.06006 0.99302
5121.62012 0.993041
5122.18994 0.993063
5122.75000 0.993085
5123.31006 0.993105
5123.87012 0.993126
5124.43018 0.993147
5124.99023 0.993167
5125.56006 0.993188
5126.10986 0.993209
5126.68018 0.99323
5127.24023 0.993251
5127.79980 0.993271
5128.35986 0.993291
5128.91992 0.993311
5129.49023 0.993332
5130.04980 0.993384
5130.60986 0.99376
5131.18018 0.994139
5131.74023 0.994517
5132.29980 0.994893
5132.85986 0.99527
5133.43018 0.995648
5133.99023 0.996026
5134.54980 0.996404
5135.10986 0.996779
5135.68018 0.997157
5136.24023 0.997536
5136.79980 0.997914
5137.35986 0.99829
5137.93018 0.99867
5138.49023 0.999049
5139.04980 0.999429
5139.60986 0.999807
5140.18018 1.0
5140.74023 0.999793
5141.31006 0.999587
5141.87012 0.99938
5142.43994 0.999174
5143.00000 0.998969
5143.56006 0.998761
5144.12012 0.998554
5144.68994 0.998346
5145.25000 0.99814
5145.81006 0.997933
5146.37988 0.997726
5146.93994 0.997516
5147.50000 0.997308
5148.06982 0.997098
5148.64014 0.996889
5149.20020 0.996679
5149.75977 0.996472
5150.33008 0.996453
5150.89014 0.996573
5151.45996 0.996692
5152.02002 0.99681
5152.58984 0.996929
5153.14990 0.997048
5153.72021 0.997167
5154.27979 0.997286
5154.85010 0.997405
5155.41016 0.997523
5155.97998 0.99764
5156.54004 0.99776
5157.10986 0.997878
5157.66992 0.997996
5158.22998 0.998114
5158.79980 0.998233
5159.37012 0.998352
5159.93018 0.998469
5160.50000 0.998368
5161.06006 0.998236
5161.62988 0.998104
5162.18994 0.997971
5162.75977 0.997838
5163.33008 0.997705
5163.89990 0.997572
5164.45996 0.99744
5165.02002 0.997307
5165.58984 0.997173
5166.16016 0.99704
5166.72021 0.996906
5167.29004 0.996774
5167.85010 0.99664
5168.41992 0.996507
5168.99023 0.996372
5169.56006 0.996236
5170.12012 0.996067
5170.68994 0.99577
5171.25000 0.995471
5171.81982 0.995172
5172.39014 0.994872
5172.95020 0.994574
5173.52002 0.994273
5174.08984 0.993973
5174.66016 0.993673
5175.22021 0.993373
5175.79004 0.993072
5176.35986 0.992771
5176.91992 0.992472
5177.49023 0.992169
5178.06006 0.991867
5178.62988 0.991563
5179.18994 0.991261
5179.75977 0.990958
5180.33008 0.990598
5180.89990 0.990196
5181.45996 0.989796
5182.02979 0.989394
5182.60010 0.98899
5183.16992 0.988591
5183.74023 0.988188
5184.31006 0.987785
5184.87988 0.98738
5185.43994 0.98698
5186.00977 0.986575
5186.58008 0.986171
5187.14990 0.985766
5187.70996 0.985365
5188.27979 0.98496
5188.85010 0.984554
5189.41992 0.984148
5189.99023 0.983742
5190.56006 0.983556
5191.12988 0.983373
5191.68994 0.983191
5192.27002 0.983007
5192.83984 0.982823
5193.39990 0.982639
5193.97021 0.982456
5194.54004 0.982273
5195.10986 0.98209
5195.68018 0.981908
5196.25000 0.981723
5196.81982 0.981539
5197.39014 0.981354
5197.95020 0.981172
5198.52002 0.980987
5199.10010 0.980803
5199.66992 0.980619
5200.22998 0.980473
5200.81006 0.980381
5201.37988 0.980287
5201.95020 0.980193
5202.52002 0.9801
5203.08984 0.980006
5203.66016 0.979912
5204.22998 0.979819
5204.79980 0.979724
5205.37012 0.97963
5205.93994 0.979536
5206.50977 0.979441
5207.08008 0.979346
5207.64990 0.979251
5208.22021 0.979157
5208.79004 0.979062
5209.35986 0.978968
5209.93018 0.978873
5210.50977 0.978948
5211.06982 0.979044
5211.64990 0.97914
5212.22021 0.979237
5212.79004 0.979333
5213.35986 0.97943
5213.93018 0.979527
5214.50977 0.979625
5215.08008 0.979722
5215.64990 0.979818
5216.22021 0.979915
5216.79004 0.980011
5217.35986 0.980107
5217.93018 0.980204
5218.50000 0.9803
5219.08008 0.980397
5219.64990 0.980494
5220.22021 0.980429
5220.79004 0.980104
5221.35986 0.979778
5221.93994 0.979451
5222.50977 0.979124
5223.08008 0.978797
5223.64990 0.978472
5224.22998 0.978145
5224.79980 0.977819
5225.37012 0.977493
5225.95020 0.977166
5226.52002 0.97684
5227.08984 0.976512
5227.66016 0.976184
5228.24023 0.975857
5228.81006 0.97553
5229.37988 0.975202
5229.95020 0.974874
5230.52979 0.975262
5231.10010 0.975715
5231.68018 0.976168
5232.25000 0.976618
5232.81982 0.977071
5233.39990 0.977524
5233.97021 0.977974
5234.54004 0.978428
5235.12012 0.978882
5235.68994 0.979336
5236.25977 0.979788
5236.83984 0.98024
5237.41016 0.980694
5237.99023 0.981147
5238.56006 0.9816
5239.12988 0.982052
5239.70996 0.982507
5240.27979 0.982653
5240.85010 0.982477
5241.43018 0.9823
5242.00977 0.982124
5242.58008 0.981948
5243.14990 0.98177
5243.72998 0.981593
5244.31006 0.981415
5244.87988 0.981239
5245.45020 0.981061
5246.02979 0.980883
5246.60010 0.980706
5247.18018 0.980528
5247.75000 0.98035
5248.33008 0.980172
5248.89990 0.979993
5249.47998 0.979815
5250.04980 0.979705
5250.62988 0.9803
5251.20020 0.980892
5251.77979 0.981487
5252.35010 0.982083
5252.93018 0.982679
5253.50977 0.983273
5254.08008 0.98387
5254.66016 0.984468
5255.22998 0.985061
5255.81006 0.985658
5256.39014 0.986254
5256.97021 0.986852
5257.54004 0.987444
5258.10986 0.988043
5258.68994 0.988642
5259.27002 0.989241
5259.83984 0.989832
5260.41992 0.989597
5260.99023 0.989044
5261.56982 0.988491
5262.14990 0.987941
5262.72998 0.987384
5263.29980 0.986828
5263.87988 0.986272
5264.45996 0.985719
5265.02979 0.985164
5265.60986 0.984608
5266.18994 0.984054
5266.77002 0.983494
5267.33984 0.982939
5267.91992 0.982379
5268.49023 0.981825
5269.06982 0.981266
5269.64990 0.980707
5270.22998 0.980352
5270.79980 0.980304
5271.37988 0.980256
5271.95996 0.980206
5272.54004 0.980158
5273.12012 0.980109
5273.68994 0.980058
5274.27002 0.980008
5274.85010 0.979959
5275.43018 0.979909
5276.00977 0.979858
5276.58984 0.979809
5277.16016 0.979759
5277.74023 0.97971
5278.31982 0.97966
5278.89990 0.979609
5279.47998 0.979559
5280.06006 0.979484
5280.64014 0.979199
5281.20996 0.978916
5281.79004 0.978632
5282.37012 0.978346
5282.95020 0.978059
5283.52979 0.977775
5284.10986 0.97749
5284.68994 0.977204
5285.27002 0.976918
5285.85010 0.976632
5286.43018 0.976345
5287.00977 0.976058
5287.58008 0.975773
5288.16016 0.975488
5288.74023 0.9752
5289.31982 0.974912
5289.89990 0.974626
5290.47998 0.974301
5291.06006 0.973969
5291.64014 0.973633
5292.22021 0.973299
5292.79980 0.972964
5293.37988 0.972629
5293.95996 0.972291
5294.54004 0.971956
5295.12012 0.971619
5295.70020 0.971283
5296.27979 0.970949
5296.85986 0.970609
5297.43994 0.970272
5298.02979 0.969933
5298.60986 0.969597
5299.18994 0.969259
5299.77002 0.96892
5300.35010 0.968378
5300.93018 0.967704
5301.50977 0.967027
5302.08984 0.966352
5302.66992 0.965671
5303.25000 0.964995
5303.83008 0.964315
5304.41016 0.963637
5304.99023 0.962961
5305.58008 0.96228
5306.16016 0.961603
5306.74023 0.960921
5307.31982 0.960239
5307.89990 0.959556
5308.49023 0.958873
5309.06006 0.958197
5309.64990 0.957514
5310.22998 0.956776
5310.81006 0.955953
5311.39014 0.955139
5311.97021 0.954317
5312.56006 0.953492
5313.14014 0.952666
5313.72021 0.951845
5314.29980 0.951024
5314.89014 0.950194
5315.47021 0.949366
5316.04980 0.948542
5316.64014 0.947714
5317.22021 0.946885
5317.79980 0.946061
5318.39014 0.945231
5318.97021 0.944399
5319.54980 0.943573
5320.12988 0.942684
5320.72021 0.941571
5321.29980 0.940458
5321.87988 0.939351
5322.47021 0.938238
5323.04980 0.937131
5323.62988 0.936015
5324.22021 0.9349
5324.79980 0.93379
5325.37988 0.932673
5325.97021 0.931558
5326.54980 0.930447
5327.12988 0.929335
5327.72021 0.928217
5328.29980 0.927093
5328.89014 0.925979
5329.47021 0.924859
5330.06006 0.923796
5330.64014 0.923265
5331.22021 0.922735
5331.81006 0.922202
5332.39014 0.921668
5332.97998 0.921134
5333.56006 0.920605
5334.14014 0.920069
5334.72998 0.919534
5335.31006 0.918998
5335.89990 0.918463
5336.47998 0.917927
5337.06982 0.917392
5337.64990 0.916858
5338.24023 0.916322
5338.81982 0.915784
5339.41016 0.915249
5339.99023 0.91471
5340.58008 0.914126
5341.16016 0.91354
5341.75000 0.912957
5342.33008 0.91237
5342.91992 0.911785
5343.50000 0.911196
5344.08984 0.91061
5344.66992 0.910021
5345.25977 0.909432
5345.85010 0.908845
5346.43018 0.908255
5347.02002 0.907664
5347.60986 0.907072
5348.18994 0.90648
5348.77002 0.905895
5349.35986 0.905299
5349.95020 0.904705
5350.54004 0.904734
5351.12012 0.904819
5351.70996 0.904903
5352.29980 0.904986
5352.87988 0.905069
5353.47021 0.905152
5354.06006 0.905236
5354.64014 0.905319
5355.22998 0.905402
5355.81006 0.905486
5356.39990 0.90557
5356.99023 0.905653
5357.58008 0.905736
5358.16016 0.90582
5358.75000 0.905903
5359.33984 0.905986
5359.93018 0.906068
5360.52002 0.905871
5361.10010 0.905633
5361.68994 0.905397
5362.27979 0.905159
5362.85986 0.904922
5363.45020 0.904683
5364.04004 0.904446
5364.62012 0.904207
5365.20996 0.903968
5365.79980 0.903729
5366.39014 0.903491
5366.97998 0.903251
5367.56006 0.903012
5368.14990 0.902772
5368.74023 0.902532
5369.33008 0.90229
5369.91992 0.902048
5370.50977 0.902897
5371.10010 0.903916
5371.68994 0.904932
5372.27979 0.905953
5372.87012 0.906973
5373.45020 0.907988
5374.04004 0.909009
5374.62988 0.910025
5375.22021 0.911047
5375.81006 0.912064
5376.39990 0.913087
5376.97998 0.914105
5377.58008 0.915128
5378.16992 0.916151
5378.75977 0.917176
5379.33984 0.918195
5379.93018 0.919215
5380.52002 0.920261
5381.10986 0.92131
5381.70020 0.922363
5382.29980 0.923414
5382.89014 0.924466
5383.47021 0.925507
5384.06006 0.92656
5384.64990 0.927614
5385.24023 0.928668
5385.83008 0.929712
5386.41992 0.930766
5387.00977 0.93182
5387.60010 0.932877
5388.18994 0.933923
5388.77979 0.934978
5389.37988 0.93604
5389.97021 0.937092
5390.56006 0.938946
5391.14990 0.940848
5391.74023 0.942751
5392.33008 0.944644
5392.91992 0.946541
5393.50977 0.948444
5394.10010 0.95035
5394.68994 0.952248
5395.27979 0.954156
5395.87988 0.956056
5396.47021 0.957964
5397.06006 0.959863
5397.64990 0.961774
5398.24023 0.963677
5398.83008 0.965589
5399.43018 0.967501
5400.02002 0.969384
5400.60986 0.970252
5401.20020 0.971114
5401.79004 0.971982
5402.39014 0.972857
5402.97998 0.973722
5403.56982 0.974592
5404.16016 0.975462
5404.75977 0.976332
5405.33984 0.977195
5405.93994 0.978068
5406.52979 0.97894
5407.12012 0.979811
5407.70996 0.980674
5408.31006 0.981547
5408.89990 0.982422
5409.49023 0.983296
5410.08008 0.984148
5410.68018 0.98494
5411.27002 0.985724
5411.85986 0.986514
5412.45996 0.987303
5413.04980 0.988093
5413.64990 0.988882
5414.24023 0.989664
5414.83008 0.990455
5415.43018 0.991246
5416.02002 0.992037
5416.60986 0.992819
5417.20020 0.99361
5417.79980 0.994403
5418.39014 0.995194
5418.97998 0.995979
5419.58008 0.996769
5420.16992 0.997104
5420.77002 0.996311
5421.35986 0.99552
5421.95996 0.994729
5422.54980 0.993936
5423.14014 0.993151
5423.74023 0.992357
5424.33984 0.991558
5424.93018 0.990766
5425.52002 0.989969
5426.12012 0.989173
5426.70996 0.988383
5427.31006 0.987591
5427.89990 0.986793
5428.50000 0.985995
5429.08984 0.985197
5429.68994 0.984407
5430.27979 0.983519
5430.87988 0.982531
5431.47021 0.981542
5432.06982 0.980558
5432.66016 0.979572
5433.25977 0.978582
5433.85010 0.977591
5434.45020 0.976599
5435.04980 0.975605
5435.64014 0.974612
5436.22998 0.973628
5436.83008 0.972635
5437.43018 0.97164
5438.02002 0.970644
5438.62012 0.969657
5439.20996 0.968661
5439.81006 0.967663
5440.41016 0.965071
5441.00000 0.961767
5441.60010 0.95843
5442.18994 0.95509
5442.79004 0.95175
5443.39014 0.948407
5443.99023 0.945062
5444.58984 0.941717
5445.18018 0.938404
5445.77979 0.935037
5446.37012 0.931706
5446.97021 0.928354
5447.56982 0.924999
5448.16016 0.921659
5448.75977 0.918319
5449.35986 0.914962
5449.95996 0.911604
5450.54980 0.906946
5451.14990 0.902209
5451.74023 0.897465
5452.33984 0.892697
5452.93994 0.887928
5453.54004 0.883156
5454.12988 0.878425
5454.72998 0.873649
5455.33008 0.868867
5455.93018 0.864087
5456.52979 0.859302
5457.12988 0.854515
5457.72998 0.849722
5458.31982 0.844977
5458.91992 0.840184
5459.52002 0.835384
5460.12012 0.829951
5460.70996 0.822037
5461.31006 0.814043
5461.91016 0.806046
5462.50977 0.798047
5463.10986 0.790123
5463.70996 0.782112
5464.31006 0.774059
5464.91016 0.766088
5465.50977 0.758068
5466.10986 0.750047
5466.70996 0.742023
5467.29980 0.734074
5467.89990 0.726038
5468.50000 0.718005
5469.10010 0.709964
5469.70020 0.701959
5470.29980 0.693297
5470.89990 0.683921
5471.50000 0.674541
5472.10010 0.665157
5472.68994 0.655854
5473.29004 0.646462
5473.89990 0.637059
5474.50000 0.627652
5475.10010 0.618241
5475.70020 0.608825
5476.29004 0.599497
5476.89990 0.590066
5477.50000 0.580639
5478.10010 0.5712
5478.70020 0.561758
5479.29980 0.552312
5479.89990 0.542861
5480.50977 0.532733
5481.10010 0.522581
5481.70020 0.512327
5482.29980 0.502062
5482.89990 0.491903
5483.50000 0.481631
5484.10010 0.471357
5484.70996 0.461072
5485.29980 0.450891
5485.89990 0.440609
5486.50977 0.430315
5487.10986 0.420018
5487.70996 0.409718
5488.31006 0.399415
5488.91992 0.389109
5489.50977 0.3789
5490.12012 0.368972
5490.72021 0.360632
5491.31982 0.35229
5491.91992 0.344033
5492.52002 0.335686
5493.12012 0.327337
5493.72998 0.318985
5494.33008 0.310712
5494.93018 0.302349
5495.52979 0.293983
5496.14014 0.285622
5496.74023 0.277252
5497.33984 0.26888
5497.95020 0.260498
5498.54004 0.252202
5499.14990 0.243823
5499.75000 0.235434
5500.35986 0.228589
5500.95996 0.222824
5501.56006 0.21705
5502.16992 0.21127
5502.77002 0.205547
5503.37012 0.199766
5503.97998 0.193978
5504.58008 0.188192
5505.18018 0.182455
5505.77979 0.176659
5506.39014 0.17086
5506.99023 0.165059
5507.60010 0.159256
5508.18994 0.153501
5508.79980 0.147692
5509.39990 0.141876
5510.00977 0.136091
5510.60986 0.132573
5511.22021 0.129055
5511.81982 0.125535
5512.41992 0.122046
5513.02979 0.118525
5513.62988 0.115
5514.22998 0.111512
5514.83984 0.107985
5515.43994 0.104458
5516.04980 0.100927
5516.64990 0.0974324
5517.25977 0.0939028
5517.85986 0.0903696
5518.47021 0.0868355
5519.06982 0.0833004
5519.68018 0.0797646
5520.27979 0.0769663
5520.89014 0.0749991
5521.49023 0.0730518
5522.10010 0.0710848
5522.70020 0.0691156
5523.31006 0.0671458
5523.91016 0.0651849
5524.52002 0.0632233
5525.12012 0.0612517
5525.72998 0.0592777
5526.33984 0.0573047
5526.93994 0.0553502
5527.54004 0.0533744
5528.14990 0.0513979
5528.75977 0.0494208
5529.35986 0.0474526
5529.97021 0.0454822
5530.56982 0.0443318
5531.18018 0.0432281
5531.79004 0.0421241
5532.39990 0.0410198
5533.00000 0.0399151
5533.60986 0.03881
5534.22021 0.0377045
5534.81982 0.0366094
5535.43018 0.0355024
5536.04004 0.0343951
5536.64014 0.0332875
5537.24023 0.032191
5537.85010 0.0310818
5538.45996 0.029973
5539.06982 0.0288639
5539.66992 0.0277653
5540.27979 0.0268729
5540.89014 0.0262366
5541.50000 0.0256002
5542.10010 0.0249637
5542.70996 0.0243269
5543.31982 0.0236926
5543.93018 0.0230587
5544.52979 0.022421
5545.14014 0.0217837
5545.75000 0.0211488
5546.35010 0.0205138
5546.95996 0.0198755
5547.56982 0.0192366
5548.18018 0.018598
5548.79004 0.0179619
5549.39014 0.0173261
5550.00000 0.016688
5550.60986 0.01634
5551.22021 0.0159936
5551.83008 0.0156434
5552.43994 0.0152951
5553.04004 0.0149499
5553.64990 0.0146009
5554.25977 0.0142518
5554.87012 0.0139026
5555.47998 0.0135533
5556.08984 0.0132038
5556.70020 0.0128558
5557.31006 0.0125074
5557.91992 0.0121575
5558.52979 0.0118071
5559.14014 0.0114566
5559.74023 0.0111093
5560.35010 0.0108369
5560.95996 0.0106213
5561.56982 0.0104055
5562.18018 0.0101919
5562.79004 0.00997597
5563.39990 0.00976
5564.00977 0.00954396
5564.62012 0.00932787
5565.22998 0.00911275
5565.85010 0.00889532
5566.45020 0.00868112
5567.06006 0.00846463
5567.66992 0.00824806
5568.27979 0.00803143
5568.89014 0.007817
5569.50000 0.00760009
5570.10986 0.00741477
5570.72021 0.00737024
5571.33008 0.00732568
5571.93994 0.00728089
5572.54980 0.00723609
5573.16016 0.00719154
5573.77979 0.00714647
5574.39014 0.00710165
5575.00000 0.00705677
5575.60986 0.00701237
5576.22021 0.0069675
5576.83008 0.0069226
5577.43994 0.0068777
5578.06006 0.0068328
5578.66016 0.00678809
5579.27002 0.00674337
5579.89014 0.0066984
5580.50000 0.00665372
5581.10986 0.00660934
5581.72021 0.00656465
5582.33008 0.00652025
5582.93994 0.00647554
5583.56006 0.00643087
5584.16992 0.00638635
5584.77979 0.00634185
5585.39014 0.00629709
5586.00977 0.00625232
5586.60986 0.00620775
5587.22998 0.00616295
5587.85010 0.00611788
5588.45996 0.00607306
5589.06982 0.00602865
5589.68018 0.00598377
5590.29004 0.00593121
5590.91016 0.00587026
5591.52002 0.00580987
5592.12988 0.00574888
5592.74023 0.00568783
5593.35986 0.00562674
5593.97021 0.00556627
5594.58008 0.00550514
5595.18994 0.00544398
5595.81006 0.0053828
5596.41992 0.00532161
5597.04004 0.00526033
5597.64990 0.00519938
5598.25977 0.00513835
5598.87988 0.005077
5599.49023 0.00501564
5600.10010 0.00495424
5600.72021 0.00489307
5601.33008 0.00483187
5601.93994 0.00477032
5602.56006 0.00470878
5603.16992 0.00464747
5603.79004 0.00458585
5604.39990 0.0045245
5605.00977 0.00446283
5605.62988 0.00440114
5606.24023 0.00433967
5606.85986 0.00427759
5607.47021 0.00421642
5608.08984 0.00415459
5608.70020 0.00409275
5609.31982 0.00403088
5609.93018 0.00396893
5610.54980 0.0039071
5611.16016 0.00384521
5611.77002 0.00378393
5612.39014 0.00372199
5613.00977 0.00366002
5613.62012 0.00359802
5614.22998 0.0035366
5614.85010 0.00347451
5615.47021 0.00341244
5616.08008 0.0033503
5616.68994 0.00328877
5617.31006 0.00322658
5617.93018 0.00316437
5618.54004 0.00310208
5619.16016 0.00303981
5619.77002 0.00297776
5620.39014 0.00291532
6182.42920 0.0
