# %ECSV 0.9
# ---
# datatype:
# - {name: wavelength, unit: Angstrom, datatype: float32}
# - {name: response, datatype: float32}
# meta: !!omap
# - {band_name: F606W_77}
# - {group_name: ACS_WFC}
wavelength response
4144.84180 0.0
4605.37988 0.00143324
4605.95996 0.00152159
4606.52979 0.00161032
4607.10986 0.00169944
4607.68994 0.0017882
4608.27002 0.00187697
4608.85010 0.00196621
4609.41992 0.00205502
4610.00000 0.00214429
4610.58008 0.00223311
4611.16016 0.00232194
4611.72998 0.00241077
4612.31006 0.00249999
4612.89014 0.00258846
4613.47021 0.00267739
4614.04980 0.0027667
4614.62012 0.00285565
4615.20020 0.00294423
4615.77979 0.00303394
4616.35010 0.00312253
4616.93018 0.00321158
4617.50977 0.00330094
4618.08984 0.00339
4618.66992 0.00347907
4619.25000 0.00356853
4619.83008 0.00365761
4620.41016 0.00390724
4620.99023 0.00422232
4621.56982 0.00453773
4622.14990 0.00485323
4622.72998 0.00517013
4623.29980 0.00548445
4623.87988 0.00580018
4624.45996 0.00611758
4625.04004 0.00643345
4625.62012 0.00674835
4626.20020 0.00706732
4626.77979 0.00738234
4627.35986 0.00769879
4627.93994 0.00801665
4628.52002 0.00833353
4629.10010 0.00865022
4629.68018 0.00896858
4630.25977 0.00920407
4630.83984 0.00933936
4631.41992 0.0094741
4632.00000 0.00960898
4632.58008 0.00974373
4633.16016 0.00987918
4633.74023 0.0100134
4634.31982 0.0101483
4634.89990 0.010284
4635.47998 0.0104189
4636.06006 0.0105533
4636.64990 0.0106895
4637.22021 0.0108239
4637.81006 0.0109591
4638.39014 0.0110948
4638.97021 0.0112299
4639.54980 0.0113652
4640.12988 0.011634
4640.70996 0.0123537
4641.29980 0.0130766
4641.87988 0.0137959
4642.45996 0.0145159
4643.04004 0.0152367
4643.62012 0.01596
4644.20020 0.0166774
4644.77979 0.0173986
4645.37012 0.0181229
4645.95020 0.0188442
4646.52979 0.019562
4647.10986 0.0202903
4647.68994 0.0210089
4648.27979 0.0217314
4648.85986 0.0224563
4649.43994 0.023179
4650.02002 0.023961
4650.60986 0.026133
4651.18994 0.0282983
4651.77002 0.0304621
4652.35986 0.0326372
4652.93994 0.0348036
4653.52002 0.0369685
4654.10986 0.0391465
4654.68994 0.0413032
4655.27002 0.043473
4655.85010 0.0456503
4656.43994 0.0478209
4657.02002 0.0499918
4657.60986 0.0521722
4658.18994 0.0543348
4658.77002 0.056507
4659.35986 0.0586885
4659.93994 0.0608632
4660.52002 0.0615161
4661.10986 0.0619952
4661.68994 0.0624724
4662.27002 0.0629497
4662.85986 0.0634296
4663.43994 0.0639071
4664.02979 0.0643851
4664.62012 0.0648653
4665.20020 0.0653411
4665.77979 0.0658195
4666.37012 0.0662999
4666.95020 0.0667788
4667.54004 0.0672574
4668.12012 0.0677384
4668.70020 0.0682152
4669.29004 0.0686946
4669.87988 0.0691764
4670.45996 0.0695219
4671.04980 0.0698315
4671.62988 0.0701426
4672.22021 0.0704523
4672.79980 0.0707623
4673.39014 0.0710735
4673.97021 0.0713835
4674.56006 0.0716939
4675.14990 0.0720054
4675.72998 0.0723144
4676.31006 0.0726249
4676.89990 0.0729367
4677.49023 0.0732474
4678.06982 0.0735581
4678.66016 0.0738703
4679.24023 0.0741797
4679.83008 0.0744906
4680.41992 0.0775011
4681.00977 0.0815865
4681.58984 0.0856728
4682.18018 0.0897803
4682.77002 0.0938681
4683.35010 0.09796
4683.93994 0.102066
4684.52979 0.10616
4685.10986 0.110254
4685.70020 0.114366
4686.29004 0.118444
4686.87012 0.122544
4687.45996 0.126662
4688.04980 0.13076
4688.64014 0.134862
4689.22021 0.138965
4689.81006 0.143069
4690.39990 0.146057
4690.99023 0.148523
4691.56982 0.150978
4692.16016 0.153432
4692.75000 0.155902
4693.33984 0.158359
4693.93018 0.160816
4694.52002 0.163284
4695.10010 0.165745
4695.68994 0.168204
4696.27979 0.170677
4696.87012 0.173127
4697.45020 0.175589
4698.04980 0.178064
4698.62988 0.180528
4699.22021 0.182993
4699.81006 0.185458
4700.39990 0.184859
4700.99023 0.182793
4701.58008 0.180716
4702.16992 0.178648
4702.75000 0.17658
4703.35010 0.174502
4703.93994 0.172432
4704.52002 0.17036
4705.10986 0.16828
4705.70020 0.166208
4706.29004 0.164134
4706.89014 0.162051
4707.47021 0.159985
4708.06006 0.157909
4708.64990 0.155824
4709.24023 0.153747
4709.83008 0.151669
4710.41992 0.152512
4711.00977 0.154526
4711.60010 0.156542
4712.18994 0.158567
4712.77979 0.160583
4713.37012 0.162599
4713.97021 0.164626
4714.56006 0.166642
4715.14990 0.168661
4715.74023 0.170688
4716.33008 0.172706
4716.91992 0.174725
4717.50977 0.176753
4718.10010 0.178772
4718.68994 0.180783
4719.27979 0.182812
4719.87012 0.184833
4720.47021 0.190116
4721.06006 0.196285
4721.64990 0.202455
4722.24023 0.208631
4722.83008 0.214834
4723.41992 0.221008
4724.00977 0.227188
4724.60986 0.233401
4725.20020 0.239585
4725.79004 0.245769
4726.39014 0.251985
4726.97998 0.258177
4727.56982 0.264366
4728.16016 0.270592
4728.75000 0.276789
4729.33984 0.282962
4729.93994 0.289192
4730.52979 0.289618
4731.12012 0.289374
4731.72021 0.28913
4732.31006 0.288886
4732.89990 0.288642
4733.49023 0.288397
4734.08984 0.288153
4734.68018 0.287908
4735.27002 0.287662
4735.87012 0.287418
4736.45996 0.287173
4737.06006 0.286928
4737.64990 0.286683
4738.24023 0.286438
4738.83984 0.286191
4739.43018 0.285946
4740.02002 0.285615
4740.62012 0.282941
4741.20996 0.280278
4741.79980 0.277612
4742.39990 0.274945
4742.99023 0.272281
4743.58984 0.269615
4744.18018 0.266935
4744.77002 0.264267
4745.37012 0.261599
4745.97021 0.258918
4746.56006 0.256248
4747.14990 0.253579
4747.75000 0.250895
4748.35010 0.248223
4748.93994 0.245552
4749.54004 0.242867
4750.12988 0.241543
4750.72021 0.245065
4751.31982 0.248602
4751.91016 0.252125
4752.50977 0.25565
4753.10010 0.259178
4753.70020 0.262705
4754.29980 0.266235
4754.89014 0.269781
4755.49023 0.273314
4756.08008 0.276847
4756.68018 0.280399
4757.27979 0.283935
4757.87012 0.287474
4758.47021 0.291028
4759.06982 0.29457
4759.66016 0.298112
4760.25977 0.303264
4760.85010 0.310434
4761.45020 0.317642
4762.04980 0.32488
4762.64014 0.332084
4763.24023 0.339295
4763.83984 0.346513
4764.43018 0.353727
4765.02979 0.360941
4765.62988 0.368193
4766.22998 0.375417
4766.81982 0.382642
4767.41992 0.389897
4768.02002 0.397124
4768.60986 0.404359
4769.20996 0.411589
4769.81006 0.418855
4770.41016 0.420146
4771.00977 0.418667
4771.60010 0.4172
4772.20020 0.415726
4772.79980 0.414244
4773.39990 0.412769
4773.99023 0.411293
4774.58984 0.409816
4775.18994 0.408339
4775.79004 0.406862
4776.39014 0.405377
4776.97998 0.403898
4777.58008 0.402418
4778.18018 0.400932
4778.77979 0.399451
4779.37988 0.39797
4779.97998 0.396488
4780.58008 0.392868
4781.18018 0.389184
4781.77979 0.385484
4782.37988 0.381816
4782.97021 0.37813
4783.56982 0.374425
4784.16992 0.370737
4784.77002 0.367048
4785.37012 0.363341
4785.97021 0.359664
4786.56982 0.355971
4787.16992 0.352262
4787.77002 0.348567
4788.37012 0.344869
4788.97021 0.341155
4789.56982 0.337459
4790.16992 0.335741
4790.77002 0.33901
4791.37012 0.342265
4791.97021 0.34552
4792.56982 0.348792
4793.16992 0.352035
4793.77002 0.355295
4794.37988 0.358569
4794.97998 0.36183
4795.58008 0.365094
4796.18018 0.368369
4796.77979 0.371622
4797.37988 0.374886
4797.97998 0.378165
4798.58008 0.381433
4799.18018 0.384705
4799.77979 0.387987
4800.39014 0.393079
4800.97998 0.399161
4801.58984 0.405329
4802.18994 0.41144
4802.79004 0.417562
4803.39990 0.423705
4803.99023 0.429801
4804.60010 0.435928
4805.20020 0.44208
4805.79980 0.44821
4806.39990 0.454312
4807.00977 0.4605
4807.60986 0.46661
4808.20996 0.472751
4808.81006 0.478919
4809.41016 0.485059
4810.02002 0.49102
4810.62012 0.490289
4811.22021 0.48956
4811.81982 0.488835
4812.43018 0.4881
4813.02979 0.487371
4813.64014 0.486642
4814.24023 0.485908
4814.83984 0.485183
4815.43994 0.484452
4816.04980 0.483719
4816.64990 0.482988
4817.25000 0.48226
4817.85986 0.481522
4818.45996 0.480793
4819.06006 0.480061
4819.66992 0.479326
4820.27002 0.47918
4820.87988 0.479745
4821.47998 0.480313
4822.08984 0.480878
4822.68994 0.481442
4823.29980 0.482013
4823.89990 0.48258
4824.50000 0.483146
4825.10986 0.483714
4825.70996 0.484279
4826.31006 0.484847
4826.91992 0.485417
4827.52979 0.485985
4828.12988 0.48655
4828.74023 0.487123
4829.33984 0.487689
4829.93994 0.488257
4830.54980 0.490104
4831.16016 0.49207
4831.75977 0.494037
4832.37012 0.496016
4832.97021 0.497984
4833.56982 0.499946
4834.18994 0.501934
4834.79004 0.503906
4835.39990 0.50588
4836.00000 0.507863
4836.60986 0.509828
4837.20996 0.511804
4837.81982 0.513787
4838.43018 0.515766
4839.02979 0.517737
4839.64014 0.519733
4840.24023 0.521447
4840.85010 0.522787
4841.45996 0.524132
4842.06006 0.525473
4842.66992 0.526814
4843.27979 0.528161
4843.87988 0.529502
4844.49023 0.530839
4845.10010 0.532193
4845.70996 0.533536
4846.31006 0.534879
4846.91992 0.536228
4847.52979 0.537566
4848.12988 0.53891
4848.74023 0.540261
4849.35010 0.541607
4849.95020 0.542947
4850.56982 0.542636
4851.16992 0.542196
4851.77979 0.541754
4852.39014 0.54131
4853.00000 0.540868
4853.60010 0.540426
4854.20996 0.539981
4854.81982 0.539538
4855.43018 0.539097
4856.04004 0.53865
4856.64990 0.538207
4857.25977 0.537764
4857.85986 0.537321
4858.47021 0.536877
4859.08008 0.536433
4859.68994 0.535988
4860.29980 0.536017
4860.89990 0.536536
4861.52002 0.537062
4862.12012 0.537583
4862.72998 0.538105
4863.33984 0.53863
4863.95020 0.539152
4864.56006 0.539675
4865.16992 0.540201
4865.77979 0.540724
4866.39014 0.541245
4867.00000 0.541774
4867.60986 0.542298
4868.22021 0.542823
4868.83008 0.543348
4869.43994 0.543872
4870.04980 0.544419
4870.66016 0.545216
4871.27002 0.546009
4871.87988 0.546799
4872.49023 0.5476
4873.10010 0.548391
4873.70996 0.549186
4874.31982 0.549984
4874.93018 0.55078
4875.54004 0.551574
4876.16016 0.552374
4876.77002 0.553169
4877.37988 0.553961
4877.99023 0.554764
4878.60010 0.555561
4879.20996 0.556358
4879.81982 0.557155
4880.43018 0.555296
4881.04980 0.552354
4881.66016 0.549396
4882.27002 0.546453
4882.87988 0.543521
4883.49023 0.540547
4884.10010 0.537613
4884.72021 0.534661
4885.33008 0.531699
4885.93994 0.528747
4886.54980 0.525796
4887.16992 0.52283
4887.77979 0.519874
4888.39014 0.51693
4889.00000 0.513947
4889.62012 0.51099
4890.22998 0.508404
4890.83984 0.506447
4891.45020 0.50449
4892.06006 0.502532
4892.68018 0.500563
4893.29004 0.498603
4893.89990 0.49665
4894.52002 0.49467
4895.12988 0.492715
4895.74023 0.49075
4896.35986 0.488776
4896.97021 0.486808
4897.58008 0.484842
4898.20020 0.482865
4898.81006 0.480894
4899.41992 0.478932
4900.04004 0.477077
4900.66016 0.47704
4901.27002 0.477003
4901.87988 0.476966
4902.50000 0.476928
4903.10986 0.47689
4903.72998 0.476853
4904.33984 0.476816
4904.95020 0.476779
4905.56982 0.476741
4906.18018 0.476704
4906.79980 0.476666
4907.41016 0.476628
4908.02979 0.47659
4908.64014 0.476553
4909.25977 0.476515
4909.87012 0.476477
4910.47998 0.477248
4911.10010 0.478244
4911.72021 0.479231
4912.33984 0.48022
4912.95020 0.481209
4913.56006 0.482197
4914.18018 0.483186
4914.79980 0.48418
4915.41016 0.485166
4916.02979 0.486156
4916.64990 0.487156
4917.25977 0.488144
4917.87988 0.489136
4918.49023 0.490132
4919.10986 0.491125
4919.72998 0.492118
4920.33984 0.493686
4920.95996 0.49569
4921.56982 0.497706
4922.18994 0.499741
4922.81006 0.501758
4923.43018 0.503775
4924.04004 0.505794
4924.66016 0.507813
4925.27002 0.509833
4925.89990 0.511864
4926.50977 0.513876
4927.12012 0.515899
4927.75000 0.517939
4928.35986 0.519964
4928.97998 0.521981
4929.60010 0.524015
4930.22021 0.52616
4930.83008 0.528528
4931.45020 0.530908
4932.06982 0.533266
4932.68018 0.535639
4933.31006 0.538031
4933.91992 0.540405
4934.54004 0.54278
4935.16016 0.545156
4935.77979 0.547532
4936.39990 0.549909
4937.02002 0.552299
4937.62988 0.554669
4938.25000 0.557051
4938.87012 0.559455
4939.49023 0.561838
4940.10986 0.563984
4940.72998 0.565047
4941.35010 0.566106
4941.97021 0.567166
4942.58984 0.56823
4943.20020 0.569286
4943.81982 0.570347
4944.43994 0.571417
4945.06006 0.57248
4945.68018 0.573544
4946.29980 0.574607
4946.91992 0.57567
4947.54004 0.576734
4948.16016 0.577803
4948.77979 0.578864
4949.39990 0.57993
4950.02002 0.580905
4950.64014 0.579334
4951.25977 0.577769
4951.87988 0.576191
4952.50000 0.574617
4953.12012 0.573043
4953.74023 0.571463
4954.35986 0.569896
4954.97998 0.568321
4955.60986 0.566732
4956.22998 0.565156
4956.85010 0.56358
4957.47021 0.562003
4958.08984 0.560426
4958.70996 0.558848
4959.33008 0.557263
4959.95020 0.555691
4960.56982 0.553483
4961.20020 0.551203
4961.81982 0.548939
4962.43994 0.546684
4963.06006 0.544411
4963.68018 0.542143
4964.31006 0.539876
4964.93018 0.537607
4965.54980 0.535336
4966.16992 0.533065
4966.79980 0.530773
4967.41992 0.5285
4968.04004 0.526224
4968.66016 0.523949
4969.27979 0.521671
4969.91016 0.519392
4970.52979 0.519974
4971.14990 0.521064
4971.77002 0.522154
4972.39990 0.523253
4973.02002 0.524345
4973.64014 0.525428
4974.27002 0.526529
4974.89014 0.527622
4975.50977 0.528714
4976.14014 0.529808
4976.75977 0.530904
4977.37988 0.531999
4978.00977 0.533103
4978.62988 0.534198
4979.25977 0.535294
4979.87988 0.536391
4980.50000 0.538722
4981.12988 0.541348
4981.75000 0.543975
4982.37012 0.546603
4983.00000 0.549232
4983.62988 0.551886
4984.25000 0.554518
4984.87012 0.557126
4985.50000 0.559782
4986.12012 0.562416
4986.75000 0.565053
4987.37012 0.567689
4988.00000 0.570328
4988.62012 0.572966
4989.25000 0.575629
4989.87012 0.578269
4990.50000 0.579667
4991.12012 0.580751
4991.75000 0.581835
4992.37012 0.582921
4993.00000 0.584008
4993.62012 0.585094
4994.25000 0.586181
4994.87988 0.587278
4995.50000 0.588366
4996.12012 0.589446
4996.75977 0.590545
4997.37988 0.591635
4998.00977 0.592725
4998.62988 0.593815
4999.25977 0.594906
4999.87988 0.595999
5000.50977 0.596832
5001.14014 0.597596
5001.77002 0.598359
5002.39014 0.599124
5003.02002 0.599889
5003.64990 0.600653
5004.27002 0.601418
5004.89990 0.602184
5005.52002 0.60295
5006.16016 0.603722
5006.77979 0.604489
5007.39990 0.605249
5008.04004 0.606024
5008.66016 0.606791
5009.29004 0.607559
5009.91992 0.608327
5010.54004 0.607645
5011.16992 0.606741
5011.79980 0.605829
5012.43018 0.604924
5013.06006 0.604019
5013.68994 0.603114
5014.31006 0.602209
5014.93994 0.601302
5015.56982 0.600397
5016.20020 0.599489
5016.81982 0.598581
5017.45996 0.597664
5018.08984 0.596754
5018.70996 0.595854
5019.33984 0.594936
5019.97021 0.594025
5020.60010 0.591928
5021.22998 0.589774
5021.85986 0.587617
5022.47998 0.585461
5023.12012 0.583285
5023.75000 0.581127
5024.37988 0.578967
5025.00977 0.576806
5025.64014 0.574642
5026.25977 0.572479
5026.89014 0.570316
5027.52002 0.56815
5028.14990 0.565984
5028.79004 0.563797
5029.41992 0.561627
5030.04004 0.559458
5030.68018 0.556968
5031.31006 0.554497
5031.93994 0.552025
5032.56006 0.549552
5033.18994 0.547079
5033.81982 0.544603
5034.45996 0.542104
5035.08984 0.539626
5035.72021 0.537147
5036.35010 0.534666
5036.97998 0.532183
5037.60986 0.529699
5038.24023 0.527216
5038.87012 0.524728
5039.50000 0.52224
5040.14014 0.520106
5040.77002 0.519303
5041.39990 0.518507
5042.02979 0.517695
5042.66016 0.51689
5043.29980 0.516085
5043.93018 0.51528
5044.56006 0.514473
5045.18994 0.513667
5045.83008 0.512852
5046.45996 0.512045
5047.08984 0.511237
5047.72021 0.510429
5048.35010 0.509619
5048.99023 0.508809
5049.62012 0.507999
5050.25000 0.507581
5050.87988 0.507764
5051.52002 0.507947
5052.14990 0.508129
5052.77979 0.508309
5053.41992 0.508493
5054.04980 0.508675
5054.68018 0.508857
5055.31006 0.509039
5055.95020 0.509221
5056.58008 0.509403
5057.22021 0.509588
5057.85010 0.50977
5058.47998 0.509951
5059.12012 0.510135
5059.75000 0.510318
5060.39014 0.512912
5061.02002 0.517059
5061.64990 0.521211
5062.29004 0.525362
5062.93018 0.529553
5063.56006 0.533711
5064.18994 0.537853
5064.83008 0.542033
5065.45996 0.546195
5066.10010 0.550362
5066.72998 0.554527
5067.35986 0.558698
5068.00000 0.562869
5068.62988 0.567046
5069.27002 0.571256
5069.89990 0.575417
5070.54004 0.576482
5071.18018 0.576983
5071.81006 0.577485
5072.43994 0.577987
5073.08008 0.578489
5073.72021 0.578992
5074.35010 0.579494
5074.99023 0.580002
5075.62012 0.580502
5076.25977 0.581008
5076.89990 0.581511
5077.52979 0.582016
5078.16992 0.582521
5078.79980 0.583024
5079.43994 0.583528
5080.06982 0.584181
5080.72021 0.585956
5081.35010 0.587709
5081.99023 0.589478
5082.62012 0.59124
5083.25977 0.593003
5083.89990 0.594766
5084.52979 0.596531
5085.16992 0.598297
5085.81006 0.600062
5086.45020 0.601837
5087.08008 0.603604
5087.72021 0.60538
5088.35986 0.607149
5089.00000 0.60892
5089.62988 0.610691
5090.27002 0.610543
5090.91016 0.607792
5091.54980 0.60504
5092.18994 0.602275
5092.81982 0.59952
5093.45996 0.59675
5094.10010 0.593993
5094.74023 0.591232
5095.37988 0.58847
5096.00977 0.585706
5096.64990 0.582942
5097.29004 0.580176
5097.93018 0.577397
5098.56982 0.574627
5099.20996 0.571843
5099.85010 0.56907
5100.49023 0.568651
5101.12012 0.56897
5101.75977 0.569288
5102.39990 0.569608
5103.04004 0.569927
5103.68018 0.570247
5104.31982 0.570566
5104.95996 0.570886
5105.60010 0.571207
5106.24023 0.571527
5106.87988 0.571847
5107.52002 0.572166
5108.16016 0.572486
5108.79980 0.572807
5109.43994 0.573127
5110.08008 0.573378
5110.72021 0.573137
5111.35986 0.572894
5112.00000 0.572652
5112.64014 0.57241
5113.27979 0.572168
5113.91992 0.571925
5114.56006 0.571682
5115.20020 0.57144
5115.85010 0.571197
5116.49023 0.570953
5117.12988 0.570709
5117.77002 0.570466
5118.41016 0.570222
5119.04980 0.569978
5119.68994 0.569734
5120.33984 0.569774
5120.97998 0.570075
5121.62012 0.570377
5122.25977 0.570679
5122.89990 0.570982
5123.54004 0.571284
5124.18994 0.571586
5124.83008 0.571888
5125.47021 0.57219
5126.10986 0.572494
5126.75000 0.572797
5127.39990 0.5731
5128.04004 0.573404
5128.68018 0.573706
5129.31982 0.574009
5129.97021 0.574313
5130.60986 0.575954
5131.25000 0.577657
5131.89990 0.579375
5132.54004 0.581086
5133.18018 0.582799
5133.81982 0.584513
5134.47021 0.586235
5135.10986 0.587949
5135.75000 0.589666
5136.39990 0.591382
5137.04004 0.593101
5137.68994 0.594828
5138.33008 0.596548
5138.97021 0.598269
5139.62012 0.599997
5140.25977 0.601218
5140.89990 0.601704
5141.54980 0.602189
5142.18994 0.602678
5142.83984 0.603163
5143.47998 0.603652
5144.12988 0.604139
5144.77002 0.604626
5145.41016 0.605113
5146.06006 0.605603
5146.70020 0.606089
5147.35010 0.606578
5147.99023 0.607065
5148.64014 0.607553
5149.27979 0.608044
5149.93018 0.608532
5150.56982 0.610154
5151.22021 0.611922
5151.87012 0.613684
5152.50977 0.615446
5153.16016 0.61721
5153.79980 0.618982
5154.45020 0.620741
5155.10010 0.622515
5155.74023 0.62428
5156.39014 0.626049
5157.02979 0.627818
5157.68018 0.629595
5158.31982 0.631358
5158.97021 0.633137
5159.62012 0.63491
5160.25977 0.635115
5160.91016 0.633017
5161.56006 0.630925
5162.20020 0.628831
5162.85010 0.626728
5163.50000 0.624633
5164.14990 0.622536
5164.79004 0.620438
5165.43994 0.618329
5166.08008 0.616239
5166.72998 0.614129
5167.37988 0.612025
5168.02979 0.609921
5168.66992 0.607818
5169.31982 0.605701
5169.97021 0.603601
5170.62012 0.603552
5171.27002 0.603608
5171.91016 0.603665
5172.56006 0.603721
5173.20996 0.603777
5173.85986 0.603833
5174.50977 0.603889
5175.16016 0.603945
5175.79980 0.604001
5176.45020 0.604057
5177.10010 0.604113
5177.75000 0.604168
5178.39990 0.604223
5179.04980 0.604278
5179.68994 0.604334
5180.33984 0.60382
5180.99023 0.602797
5181.64014 0.601783
5182.29004 0.600759
5182.93994 0.599738
5183.58984 0.598717
5184.24023 0.597691
5184.89014 0.596668
5185.54004 0.595645
5186.18994 0.594617
5186.83984 0.593592
5187.49023 0.592567
5188.14014 0.591542
5188.79004 0.590512
5189.43994 0.589489
5190.08984 0.589255
5190.74023 0.593963
5191.39014 0.598675
5192.04004 0.60339
5192.68994 0.608126
5193.33984 0.612821
5193.99023 0.617561
5194.64014 0.622285
5195.29004 0.627011
5195.95020 0.631756
5196.60010 0.636485
5197.25000 0.641218
5197.89990 0.645971
5198.54980 0.650704
5199.20020 0.655443
5199.85010 0.660183
5200.50000 0.659242
5201.14990 0.656635
5201.81006 0.654014
5202.45996 0.651401
5203.10986 0.648789
5203.77002 0.646162
5204.41992 0.643544
5205.06006 0.640935
5205.72021 0.638304
5206.37012 0.635682
5207.02002 0.633056
5207.66992 0.63043
5208.33008 0.627791
5208.97998 0.625161
5209.64014 0.622519
5210.29004 0.621529
5210.93994 0.622617
5211.58984 0.623706
5212.24023 0.624795
5212.89990 0.625887
5213.54980 0.626978
5214.20020 0.628074
5214.85986 0.629168
5215.50977 0.630266
5216.16992 0.63136
5216.81982 0.632449
5217.47021 0.633549
5218.12012 0.634645
5218.77979 0.635742
5219.43018 0.636839
5220.08984 0.637219
5220.74023 0.632934
5221.39990 0.628631
5222.04980 0.624346
5222.70020 0.620056
5223.35986 0.615765
5224.00977 0.611473
5224.66992 0.60718
5225.31982 0.602881
5225.97998 0.598566
5226.62988 0.594265
5227.29004 0.589943
5227.93994 0.585638
5228.60010 0.581352
5229.25000 0.577026
5229.91016 0.572715
5230.56006 0.571612
5231.22021 0.571042
5231.87012 0.570469
5232.52979 0.569897
5233.18994 0.569323
5233.83984 0.568751
5234.50000 0.568179
5235.14990 0.567607
5235.81006 0.567034
5236.45996 0.566461
5237.12012 0.565887
5237.77979 0.56531
5238.43018 0.564736
5239.08984 0.564158
5239.75000 0.563583
5240.39990 0.56598
5241.06006 0.570304
5241.70996 0.574609
5242.37012 0.578919
5243.02979 0.583231
5243.68994 0.587565
5244.33984 0.591881
5245.00000 0.596223
5245.66016 0.600544
5246.31006 0.60487
5246.97021 0.609199
5247.62988 0.61353
5248.27979 0.617864
5248.93994 0.622202
5249.60010 0.626558
5250.25977 0.628161
5250.91992 0.625544
5251.58008 0.622939
5252.22998 0.620344
5252.89014 0.617723
5253.54980 0.615114
5254.20996 0.612503
5254.85986 0.60989
5255.52002 0.607263
5256.18018 0.604647
5256.83984 0.602016
5257.50000 0.599398
5258.16016 0.596777
5258.81982 0.594155
5259.47998 0.591531
5260.14014 0.590158
5260.79004 0.593663
5261.45020 0.597188
5262.10986 0.600698
5262.77002 0.604222
5263.43018 0.607738
5264.08984 0.611236
5264.75000 0.614769
5265.41016 0.618289
5266.06982 0.621811
5266.72998 0.625333
5267.39014 0.628873
5268.04980 0.632398
5268.70996 0.635945
5269.37012 0.639474
5270.02979 0.642779
5270.68994 0.641487
5271.35010 0.640195
5272.00977 0.638894
5272.66992 0.637605
5273.33008 0.636303
5273.99023 0.635006
5274.66016 0.633702
5275.31006 0.632409
5275.97021 0.63111
5276.64014 0.629803
5277.29980 0.628501
5277.95996 0.6272
5278.62012 0.625897
5279.27979 0.624586
5279.93994 0.623281
5280.60986 0.625762
5281.27002 0.628579
5281.93018 0.631399
5282.58984 0.63422
5283.25000 0.637043
5283.91992 0.639878
5284.56982 0.642691
5285.24023 0.645528
5285.89990 0.648355
5286.56006 0.651194
5287.22021 0.65401
5287.89014 0.656842
5288.54980 0.659684
5289.20996 0.662517
5289.87988 0.66535
5290.54004 0.664558
5291.20020 0.662914
5291.85986 0.661273
5292.52979 0.659626
5293.18994 0.657985
5293.85010 0.656341
5294.52002 0.654698
5295.18018 0.653052
5295.85010 0.6514
5296.50977 0.649759
5297.16992 0.648103
5297.83984 0.646455
5298.50000 0.644796
5299.16016 0.643152
5299.81982 0.641499
5300.49023 0.640416
5301.14990 0.639542
5301.81982 0.638668
5302.47998 0.637792
5303.14990 0.636912
5303.81006 0.636035
5304.47998 0.635156
5305.14014 0.63428
5305.81006 0.633402
5306.47021 0.632524
5307.14014 0.631645
5307.79980 0.630762
5308.45996 0.629886
5309.12988 0.629006
5309.79980 0.628122
5310.45996 0.62631
5311.12988 0.624108
5311.79004 0.621897
5312.45996 0.619672
5313.12012 0.617456
5313.79004 0.615239
5314.45020 0.613021
5315.12012 0.610802
5315.79004 0.608568
5316.45996 0.606335
5317.12012 0.60411
5317.79004 0.601884
5318.45020 0.599656
5319.12012 0.597427
5319.79004 0.595187
5320.45020 0.597209
5321.12012 0.601264
5321.77979 0.605339
5322.45020 0.609416
5323.12012 0.613462
5323.77979 0.617523
5324.45020 0.621607
5325.12012 0.625674
5325.79004 0.629743
5326.45020 0.633814
5327.12012 0.637889
5327.79004 0.641983
5328.45996 0.646075
5329.12012 0.650154
5329.79004 0.654235
5330.45996 0.653742
5331.12988 0.651184
5331.79004 0.648624
5332.45996 0.646063
5333.12988 0.6435
5333.79980 0.640924
5334.47021 0.638348
5335.14014 0.635791
5335.79980 0.633221
5336.47021 0.630639
5337.14014 0.628069
5337.81006 0.625496
5338.47998 0.622923
5339.14990 0.620346
5339.81982 0.617756
5340.49023 0.620358
5341.16016 0.624884
5341.83008 0.629409
5342.49023 0.633936
5343.16016 0.638467
5343.83008 0.643001
5344.50000 0.647537
5345.16992 0.652075
5345.83984 0.656636
5346.50977 0.661198
5347.18018 0.665745
5347.85010 0.670274
5348.52002 0.674846
5349.18994 0.6794
5349.85986 0.683955
5350.52979 0.684121
5351.20020 0.68314
5351.87012 0.682154
5352.54980 0.681167
5353.22021 0.680184
5353.89014 0.6792
5354.56006 0.678216
5355.22998 0.67723
5355.89990 0.676245
5356.56982 0.675259
5357.24023 0.674273
5357.91016 0.673281
5358.58984 0.672289
5359.25977 0.6713
5359.91992 0.670314
5360.60010 0.669846
5361.27002 0.669445
5361.93994 0.669044
5362.60986 0.668643
5363.27979 0.668241
5363.95996 0.667837
5364.62988 0.667433
5365.29980 0.66703
5365.97021 0.666625
5366.64990 0.666223
5367.31982 0.665819
5367.99023 0.665416
5368.66016 0.665011
5369.33008 0.664606
5370.00977 0.664207
5370.68018 0.664504
5371.35986 0.664801
5372.02002 0.665097
5372.70020 0.665394
5373.37012 0.665691
5374.04980 0.665987
5374.72021 0.666283
5375.39014 0.66658
5376.06982 0.666878
5376.74023 0.667176
5377.41992 0.667473
5378.08984 0.667769
5378.75977 0.668066
5379.43994 0.668364
5380.10986 0.668412
5380.77979 0.667178
5381.45996 0.665944
5382.12988 0.664704
5382.81006 0.663462
5383.47998 0.662225
5384.14990 0.660993
5384.83008 0.65975
5385.50977 0.65851
5386.18018 0.657271
5386.85010 0.65603
5387.52979 0.654788
5388.20020 0.653542
5388.87988 0.652293
5389.56006 0.651048
5390.22998 0.649257
5390.91016 0.646423
5391.58008 0.643584
5392.25977 0.640742
5392.93018 0.637902
5393.60986 0.635061
5394.27979 0.632203
5394.95996 0.629357
5395.64014 0.626498
5396.31006 0.623662
5396.99023 0.620797
5397.66016 0.617946
5398.33984 0.615093
5399.02002 0.612238
5399.68994 0.609381
5400.37012 0.607832
5401.04980 0.607385
5401.72998 0.606936
5402.39990 0.606489
5403.08008 0.606041
5403.75000 0.605593
5404.43018 0.605144
5405.10986 0.604694
5405.77979 0.604246
5406.45996 0.603794
5407.14014 0.603344
5407.81982 0.60289
5408.49023 0.602442
5409.16992 0.601989
5409.85010 0.601537
5410.52979 0.603422
5411.20020 0.605968
5411.87988 0.608519
5412.56006 0.611079
5413.24023 0.613632
5413.91992 0.616194
5414.60010 0.618749
5415.27979 0.621305
5415.95020 0.623863
5416.62988 0.62642
5417.31006 0.628981
5417.99023 0.631543
5418.66992 0.634115
5419.35010 0.636679
5420.02979 0.639225
5420.70020 0.641288
5421.39014 0.643363
5422.06006 0.645432
5422.74023 0.647499
5423.41992 0.649568
5424.10010 0.651636
5424.77979 0.653715
5425.45996 0.655786
5426.14014 0.657859
5426.81982 0.659942
5427.50000 0.662016
5428.18018 0.66409
5428.85986 0.666167
5429.54004 0.668253
5430.22021 0.67018
5430.89990 0.671826
5431.58008 0.673467
5432.25977 0.675107
5432.93994 0.676749
5433.62988 0.678399
5434.31006 0.680043
5434.99023 0.681687
5435.66992 0.683332
5436.35010 0.684979
5437.02979 0.686635
5437.70996 0.688281
5438.39014 0.68993
5439.08008 0.691588
5439.75977 0.693238
5440.43994 0.694765
5441.12012 0.696223
5441.79980 0.697687
5442.47998 0.69914
5443.16992 0.700608
5443.85010 0.702067
5444.52979 0.703528
5445.20996 0.704989
5445.89014 0.706458
5446.58008 0.707922
5447.25977 0.709387
5447.93994 0.71085
5448.62012 0.712315
5449.31006 0.713787
5449.99023 0.715254
5450.66992 0.714803
5451.35986 0.714316
5452.04004 0.713831
5452.72021 0.713346
5453.39990 0.712861
5454.08984 0.712373
5454.77002 0.711889
5455.45020 0.7114
5456.14014 0.710913
5456.81982 0.710426
5457.50000 0.709939
5458.18994 0.709448
5458.87012 0.70896
5459.56006 0.708471
5460.24023 0.708257
5460.91992 0.70855
5461.60986 0.708844
5462.29004 0.709138
5462.97998 0.709432
5463.66016 0.709727
5464.35010 0.71002
5465.02979 0.710313
5465.72021 0.710607
5466.39990 0.710902
5467.08008 0.711195
5467.77002 0.711489
5468.45996 0.711783
5469.14014 0.712077
5469.81982 0.71237
5470.50977 0.713157
5471.20020 0.714108
5471.87988 0.715057
5472.56982 0.716009
5473.25000 0.716961
5473.93994 0.717917
5474.62988 0.71887
5475.31006 0.719822
5476.00000 0.72078
5476.68994 0.721733
5477.37012 0.722687
5478.06006 0.723641
5478.74023 0.724601
5479.43018 0.725552
5480.12012 0.726275
5480.79980 0.725831
5481.49023 0.725388
5482.18018 0.724945
5482.85986 0.7245
5483.54980 0.724056
5484.24023 0.723611
5484.91992 0.723166
5485.60986 0.722721
5486.29980 0.722274
5486.99023 0.721829
5487.66992 0.721384
5488.35986 0.720935
5489.04980 0.720488
5489.74023 0.720041
5490.41992 0.719695
5491.10986 0.719411
5491.79980 0.719129
5492.49023 0.718843
5493.18018 0.718559
5493.85986 0.718275
5494.54980 0.71799
5495.24023 0.717703
5495.93018 0.717419
5496.62012 0.717133
5497.31006 0.716848
5497.99023 0.716562
5498.68994 0.716275
5499.37988 0.715989
5500.06006 0.715506
5500.75000 0.713061
5501.43994 0.710623
5502.12988 0.708183
5502.81982 0.705742
5503.50977 0.703288
5504.20020 0.700856
5504.89014 0.698398
5505.58008 0.695951
5506.27002 0.693502
5506.95996 0.69104
5507.64990 0.688587
5508.33984 0.686133
5509.02979 0.683677
5509.72021 0.68122
5510.41016 0.68059
5511.10010 0.681226
5511.79004 0.681858
5512.47998 0.682491
5513.16992 0.683127
5513.85986 0.68376
5514.54980 0.684394
5515.24023 0.685028
5515.93994 0.685664
5516.62012 0.686295
5517.31006 0.68693
5518.00977 0.687568
5518.70020 0.688202
5519.39014 0.688839
5520.08984 0.689511
5520.77979 0.690445
5521.47021 0.691377
5522.16016 0.69231
5522.85010 0.693244
5523.54004 0.694179
5524.22998 0.695117
5524.93018 0.696052
5525.62012 0.696992
5526.31006 0.697927
5527.00000 0.698864
5527.70020 0.6998
5528.39014 0.70074
5529.08008 0.701673
5529.77002 0.702611
5530.47021 0.703528
5531.16016 0.704429
5531.85010 0.705334
5532.54980 0.706237
5533.24023 0.707135
5533.93018 0.708041
5534.62012 0.708943
5535.31982 0.709845
5536.00977 0.71075
5536.70996 0.711657
5537.39990 0.712562
5538.10010 0.71347
5538.79004 0.714374
5539.47998 0.715279
5540.18018 0.716147
5540.87012 0.716912
5541.56006 0.71767
5542.25977 0.718432
5542.95020 0.719197
5543.64990 0.719959
5544.35010 0.720724
5545.04004 0.721486
5545.72998 0.722244
5546.43018 0.72301
5547.12012 0.723773
5547.81982 0.724536
5548.50977 0.725299
5549.20996 0.726066
5549.89990 0.72683
5550.60010 0.725742
5551.29980 0.724357
5551.99023 0.722971
5552.68994 0.721585
5553.37988 0.72019
5554.06982 0.718807
5554.77002 0.717418
5555.47021 0.716022
5556.16016 0.714631
5556.85986 0.713233
5557.56006 0.71184
5558.25000 0.710451
5558.95020 0.709051
5559.64990 0.707654
5560.33984 0.707571
5561.04004 0.708853
5561.74023 0.710141
5562.43018 0.711424
5563.12988 0.712713
5563.83008 0.713997
5564.52002 0.715281
5565.22021 0.716566
5565.91992 0.717855
5566.60986 0.719136
5567.31006 0.720423
5568.00977 0.721714
5568.70996 0.723001
5569.41016 0.724295
5570.10986 0.725452
5570.79980 0.725872
5571.50000 0.726296
5572.20020 0.726719
5572.89990 0.727142
5573.58984 0.727564
5574.29004 0.727988
5574.99023 0.72841
5575.68994 0.728837
5576.39014 0.72926
5577.08984 0.729682
5577.79004 0.730105
5578.49023 0.730529
5579.18994 0.730952
5579.87988 0.731373
5580.58008 0.731005
5581.27979 0.730477
5581.97998 0.729946
5582.68018 0.72942
5583.37988 0.728892
5584.08008 0.728361
5584.77979 0.72783
5585.47998 0.7273
5586.18018 0.72677
5586.87988 0.726237
5587.58008 0.725706
5588.27979 0.725172
5588.97998 0.724641
5589.68018 0.724109
5590.37988 0.723666
5591.08008 0.723297
5591.77979 0.722929
5592.47998 0.722563
5593.18018 0.722194
5593.87988 0.721826
5594.58008 0.721458
5595.29004 0.721087
5595.99023 0.720717
5596.68994 0.720348
5597.39014 0.719979
5598.08984 0.719609
5598.79004 0.719235
5599.50000 0.718863
5600.18994 0.718021
5600.89990 0.715896
5601.60010 0.713769
5602.29980 0.71165
5603.00000 0.70952
5603.70020 0.707408
5604.39990 0.705287
5605.10986 0.703154
5605.81006 0.701018
5606.50977 0.698911
5607.20996 0.696774
5607.91992 0.694637
5608.62012 0.692507
5609.31982 0.690376
5610.02002 0.688324
5610.72998 0.688465
5611.43018 0.688608
5612.14014 0.68875
5612.83008 0.68889
5613.54004 0.689032
5614.25000 0.689174
5614.95020 0.689316
5615.64990 0.689457
5616.35010 0.689598
5617.06006 0.689739
5617.75977 0.689882
5618.47021 0.690024
5619.16992 0.690164
5619.87012 0.690306
5620.58008 0.691943
5621.27979 0.693898
5621.99023 0.695855
5622.68994 0.697812
5623.39990 0.699769
5624.10010 0.701738
5624.81006 0.703705
5625.50977 0.70565
5626.20996 0.707619
5626.91992 0.709591
5627.62012 0.711553
5628.33008 0.713518
5629.02979 0.715483
5629.74023 0.717448
5630.45020 0.719167
5631.14990 0.720737
5631.85010 0.72229
5632.56006 0.723863
5633.27002 0.725437
5633.97998 0.727005
5634.68018 0.728574
5635.39014 0.730144
5636.08984 0.731713
5636.79980 0.73329
5637.50977 0.734869
5638.20996 0.736427
5638.91992 0.738006
5639.62012 0.739587
5640.33008 0.74055
5641.04004 0.740823
5641.74023 0.741097
5642.45020 0.741372
5643.16016 0.741648
5643.87012 0.741923
5644.56982 0.742195
5645.27979 0.742471
5645.99023 0.742747
5646.68994 0.74302
5647.39990 0.743295
5648.10986 0.74357
5648.81982 0.743845
5649.52979 0.744121
5650.24023 0.743985
5650.93994 0.74303
5651.64990 0.742062
5652.35986 0.741094
5653.06982 0.740129
5653.77002 0.739165
5654.47998 0.738199
5655.18994 0.737233
5655.89990 0.736263
5656.60986 0.735292
5657.31006 0.734333
5658.02002 0.733361
5658.74023 0.732389
5659.43994 0.731421
5660.14990 0.73044
5660.85986 0.729415
5661.56982 0.72839
5662.27979 0.727359
5662.99023 0.726329
5663.70020 0.725311
5664.41016 0.724279
5665.12012 0.723247
5665.83008 0.722219
5666.54004 0.721189
5667.25000 0.72016
5667.95996 0.719129
5668.66992 0.718095
5669.37988 0.717058
5670.08984 0.716185
5670.79980 0.716392
5671.50977 0.7166
5672.22021 0.716808
5672.93018 0.717016
5673.64014 0.717223
5674.35010 0.717431
5675.06006 0.717639
5675.77979 0.717847
5676.47998 0.718053
5677.20020 0.718263
5677.91016 0.718471
5678.62012 0.71868
5679.33008 0.718888
5680.04004 0.71914
5680.75000 0.720087
5681.47021 0.721039
5682.18018 0.721983
5682.89014 0.72293
5683.60010 0.723885
5684.31982 0.724838
5685.02979 0.725788
5685.74023 0.726739
5686.45020 0.72769
5687.16016 0.728643
5687.87988 0.729599
5688.58984 0.730547
5689.29980 0.731501
5690.00977 0.732465
5690.72998 0.733704
5691.43994 0.734937
5692.14990 0.736171
5692.87012 0.737407
5693.58008 0.738643
5694.29980 0.739885
5695.00977 0.741117
5695.72021 0.742355
5696.43018 0.743598
5697.14990 0.744843
5697.85986 0.746083
5698.58008 0.747323
5699.29004 0.748563
5700.00000 0.749802
5700.72021 0.750328
5701.43018 0.75085
5702.14014 0.751375
5702.85986 0.751903
5703.58008 0.752431
5704.29004 0.752956
5705.00977 0.753482
5705.72021 0.754008
5706.43018 0.754535
5707.14990 0.755065
5707.85986 0.755589
5708.58008 0.756116
5709.29980 0.756646
5710.00977 0.757149
5710.72998 0.756132
5711.43994 0.755112
5712.16016 0.754092
5712.87012 0.753073
5713.58984 0.752048
5714.29980 0.751032
5715.02002 0.750011
5715.74023 0.748985
5716.45020 0.747959
5717.16992 0.746936
5717.89014 0.745913
5718.60010 0.744889
5719.31982 0.743866
5720.04004 0.742891
5720.75000 0.742895
5721.47021 0.742901
5722.18994 0.742908
5722.89990 0.742913
5723.62012 0.742918
5724.33984 0.742923
5725.04980 0.742929
5725.77002 0.742935
5726.49023 0.742941
5727.20020 0.742947
5727.91992 0.742955
5728.64014 0.742961
5729.35986 0.742967
5730.08008 0.74312
5730.79980 0.74447
5731.50977 0.745819
5732.22998 0.747169
5732.95020 0.748527
5733.66992 0.749873
5734.37988 0.751226
5735.10010 0.752585
5735.83008 0.753946
5736.54004 0.755301
5737.25977 0.756658
5737.97998 0.758017
5738.70020 0.759375
5739.41992 0.76074
5740.14014 0.76119
5740.85010 0.75773
5741.56982 0.754258
5742.29980 0.750784
5743.02002 0.747323
5743.72998 0.743859
5744.45020 0.740396
5745.16992 0.736931
5745.89990 0.733451
5746.60986 0.729998
5747.33008 0.726531
5748.04980 0.723047
5748.77979 0.719561
5749.49023 0.716091
5750.22021 0.713652
5750.93994 0.713642
5751.64990 0.713631
5752.37988 0.71362
5753.10010 0.713608
5753.81006 0.713596
5754.54004 0.713586
5755.25977 0.713575
5755.97998 0.713564
5756.70020 0.713553
5757.41992 0.713542
5758.14014 0.713531
5758.87012 0.71352
5759.58984 0.71351
5760.31006 0.713383
5761.02979 0.713098
5761.75977 0.712813
5762.47998 0.71253
5763.20020 0.712247
5763.91992 0.711962
5764.64014 0.711679
5765.35986 0.711394
5766.08008 0.711111
5766.81006 0.710828
5767.52979 0.710544
5768.25977 0.710259
5768.97998 0.709975
5769.70020 0.709691
5770.41992 0.71002
5771.14990 0.710787
5771.87012 0.711558
5772.58984 0.712322
5773.31006 0.71309
5774.04004 0.713862
5774.75977 0.714634
5775.49023 0.715403
5776.20996 0.716174
5776.93018 0.716944
5777.66016 0.717716
5778.37988 0.718492
5779.10010 0.719261
5779.83008 0.720034
5780.54980 0.721387
5781.27979 0.722921
5782.00000 0.724449
5782.72998 0.725981
5783.45020 0.727511
5784.16992 0.729043
5784.89990 0.730582
5785.62012 0.73211
5786.35010 0.733643
5787.06982 0.735184
5787.79980 0.736726
5788.52979 0.738262
5789.25000 0.739799
5789.97998 0.741338
5790.70020 0.743207
5791.43018 0.745098
5792.14990 0.746972
5792.87988 0.748857
5793.60010 0.75075
5794.33008 0.752646
5795.06006 0.754534
5795.77979 0.756421
5796.50977 0.758312
5797.22998 0.760204
5797.95996 0.762105
5798.68994 0.763991
5799.41016 0.765886
5800.14014 0.767613
5800.87012 0.768593
5801.60010 0.769569
5802.31982 0.770545
5803.04980 0.771523
5803.77002 0.7725
5804.50000 0.773483
5805.22998 0.774456
5805.95020 0.775434
5806.68018 0.776418
5807.41016 0.777403
5808.14014 0.778384
5808.87012 0.779365
5809.60010 0.780346
5810.31982 0.781094
5811.04980 0.781547
5811.77979 0.781999
5812.50000 0.782452
5813.22998 0.782908
5813.97021 0.783363
5814.68994 0.783818
5815.41992 0.784273
5816.14990 0.784729
5816.87988 0.785183
5817.60010 0.785639
5818.33008 0.786096
5819.06006 0.786551
5819.79004 0.787012
5820.52002 0.786148
5821.25000 0.78477
5821.97998 0.78339
5822.70996 0.782011
5823.43994 0.780631
5824.16992 0.779251
5824.89990 0.777869
5825.62988 0.776486
5826.35986 0.775097
5827.08984 0.773707
5827.81982 0.772321
5828.54980 0.770936
5829.27979 0.76955
5830.00977 0.768183
5830.74023 0.768157
5831.47021 0.768134
5832.20020 0.76811
5832.93018 0.768086
5833.66992 0.768062
5834.39990 0.768038
5835.12988 0.768014
5835.85986 0.767992
5836.58984 0.767968
5837.31982 0.767943
5838.04980 0.76792
5838.77979 0.767897
5839.50977 0.767874
5840.25000 0.767357
5840.97998 0.76588
5841.70996 0.764403
5842.43994 0.762925
5843.16992 0.761446
5843.89990 0.759967
5844.64014 0.758487
5845.37012 0.757006
5846.10010 0.755517
5846.83984 0.754028
5847.56982 0.752546
5848.29980 0.751063
5849.02979 0.749579
5849.77002 0.748095
5850.50000 0.749232
5851.22998 0.751604
5851.95996 0.753978
5852.70020 0.756364
5853.43994 0.75875
5854.16992 0.761126
5854.89990 0.763504
5855.62988 0.765883
5856.37012 0.768264
5857.10010 0.770646
5857.83008 0.77303
5858.56006 0.775415
5859.29980 0.77781
5860.04004 0.780068
5860.77002 0.779801
5861.50977 0.779534
5862.24023 0.779266
5862.97021 0.778999
5863.70996 0.778731
5864.43994 0.778463
5865.18018 0.778195
5865.91016 0.777926
5866.64990 0.777656
5867.37988 0.777388
5868.12012 0.777119
5868.85010 0.77685
5869.58984 0.776582
5870.31982 0.776465
5871.06006 0.77654
5871.79004 0.776615
5872.52979 0.776692
5873.27002 0.776768
5874.00000 0.776844
5874.74023 0.77692
5875.47998 0.776996
5876.20996 0.777074
5876.95020 0.77715
5877.68018 0.777226
5878.41992 0.777303
5879.16016 0.77738
5879.89990 0.777458
5880.62988 0.77626
5881.37012 0.774848
5882.10010 0.773436
5882.83984 0.772023
5883.58008 0.770608
5884.31006 0.769193
5885.04980 0.767779
5885.79004 0.766356
5886.52979 0.764932
5887.27002 0.763514
5888.00000 0.762096
5888.74023 0.760676
5889.47998 0.759256
5890.20996 0.759424
5890.95020 0.763474
5891.68994 0.767529
5892.43018 0.771602
5893.16992 0.775678
5893.91016 0.779737
5894.64990 0.783801
5895.37988 0.78787
5896.12012 0.791939
5896.85986 0.796011
5897.60010 0.800088
5898.33984 0.804166
5899.08008 0.808265
5899.81982 0.812368
5900.56006 0.811448
5901.29980 0.808907
5902.04004 0.806363
5902.77002 0.803821
5903.50977 0.801278
5904.25000 0.798733
5904.99023 0.796186
5905.72998 0.793628
5906.47998 0.791067
5907.22021 0.788517
5907.95020 0.785963
5908.68994 0.783413
5909.43018 0.780859
5910.16992 0.779543
5910.91016 0.782264
5911.64990 0.784986
5912.39990 0.787722
5913.14014 0.79046
5913.87988 0.793187
5914.62012 0.795916
5915.35986 0.798646
5916.10010 0.801376
5916.83984 0.80411
5917.58008 0.806844
5918.31982 0.809579
5919.06982 0.812329
5919.81006 0.81508
5920.54980 0.814853
5921.29004 0.813612
5922.02979 0.81237
5922.77979 0.811128
5923.52002 0.809884
5924.25977 0.80864
5925.00000 0.807396
5925.75000 0.806144
5926.49023 0.804893
5927.22998 0.803645
5927.97021 0.802398
5928.72021 0.801148
5929.45996 0.799899
5930.20020 0.798505
5930.93994 0.796719
5931.68994 0.794933
5932.43018 0.793137
5933.18018 0.791341
5933.91992 0.789551
5934.66016 0.787761
5935.39990 0.785969
5936.14990 0.784177
5936.89014 0.782384
5937.62988 0.780589
5938.37988 0.778794
5939.12012 0.776988
5939.87012 0.77519
5940.60986 0.772399
5941.35986 0.769407
5942.10010 0.766414
5942.85010 0.763418
5943.58984 0.760423
5944.33008 0.757424
5945.08008 0.754423
5945.81982 0.751407
5946.56982 0.748405
5947.31982 0.745387
5948.06006 0.742379
5948.81006 0.739372
5949.54980 0.736362
5950.29980 0.736119
5951.04004 0.740092
5951.77979 0.744069
5952.52979 0.748065
5953.27979 0.752047
5954.02979 0.75605
5954.77002 0.760037
5955.52002 0.764027
5956.25977 0.768019
5957.00977 0.772015
5957.75000 0.776012
5958.50000 0.780013
5959.25000 0.784033
5959.99023 0.788039
5960.74023 0.786816
5961.49023 0.785563
5962.24023 0.784309
5962.97998 0.783054
5963.72998 0.781799
5964.47998 0.780542
5965.22021 0.779285
5965.97021 0.77802
5966.72021 0.776761
5967.47021 0.775495
5968.22021 0.774234
5968.95996 0.772972
5969.70996 0.771709
5970.45996 0.771758
5971.20996 0.772635
5971.95020 0.773512
5972.70020 0.774393
5973.45020 0.775271
5974.20020 0.776155
5974.95020 0.777034
5975.70020 0.777914
5976.45020 0.778794
5977.18994 0.779675
5977.93994 0.780556
5978.68994 0.781438
5979.43994 0.782325
5980.18994 0.782978
5980.93994 0.782955
5981.68994 0.782934
5982.43994 0.782912
5983.18994 0.78289
5983.93994 0.782869
5984.68994 0.782846
5985.43994 0.782823
5986.18994 0.782799
5986.93994 0.782777
5987.68994 0.782756
5988.43994 0.782733
5989.18994 0.782709
5989.93994 0.782686
5990.68994 0.782539
5991.43994 0.782381
5992.18994 0.782224
5992.93994 0.782066
5993.68994 0.781906
5994.45020 0.781747
5995.20020 0.78159
5995.95020 0.78143
5996.70020 0.781271
5997.45020 0.781112
5998.20020 0.780953
5998.95020 0.780793
5999.70020 0.780633
6000.45020 0.781095
6001.20996 0.781966
6001.95996 0.782835
6002.70996 0.783704
6003.45996 0.784573
6004.22021 0.785442
6004.97021 0.786311
6005.72021 0.787181
6006.47021 0.788056
6007.22998 0.788927
6007.97998 0.789803
6008.72998 0.790673
6009.47998 0.791546
6010.24023 0.792271
6010.99023 0.792673
6011.74023 0.793074
6012.49023 0.793476
6013.25000 0.79388
6014.00000 0.794283
6014.75977 0.794687
6015.50977 0.79509
6016.27002 0.795494
6017.02002 0.795897
6017.77002 0.796299
6018.52002 0.796702
6019.27979 0.797106
6020.02979 0.797514
6020.79004 0.797967
6021.54004 0.798423
6022.29980 0.798878
6023.04980 0.799332
6023.81006 0.799785
6024.56006 0.80024
6025.31006 0.800694
6026.06982 0.80115
6026.83008 0.801607
6027.58008 0.802063
6028.33984 0.802521
6029.08984 0.802976
6029.85010 0.803434
6030.60010 0.803818
6031.35986 0.804185
6032.10986 0.804553
6032.87012 0.80492
6033.62988 0.805289
6034.37988 0.805657
6035.14014 0.806026
6035.89990 0.806393
6036.64990 0.806762
6037.41016 0.80713
6038.16016 0.807498
6038.91992 0.807868
6039.66992 0.808237
6040.43018 0.809376
6041.18994 0.81109
6041.95020 0.812813
6042.70020 0.814528
6043.45996 0.816243
6044.22021 0.817961
6044.97998 0.819678
6045.72998 0.821397
6046.49023 0.823117
6047.25000 0.824844
6048.00977 0.826565
6048.77002 0.828295
6049.52002 0.830018
6050.27979 0.830984
6051.04004 0.83066
6051.79980 0.830337
6052.54980 0.830014
6053.31006 0.82969
6054.06982 0.829364
6054.83008 0.829042
6055.58984 0.828715
6056.35010 0.82839
6057.10986 0.828065
6057.85986 0.827739
6058.62012 0.827414
6059.37988 0.827087
6060.14014 0.826662
6060.89990 0.825797
6061.66016 0.824933
6062.41992 0.824066
6063.18018 0.823203
6063.93994 0.822337
6064.70020 0.821471
6065.45996 0.820606
6066.22021 0.819739
6066.97998 0.81887
6067.74023 0.818
6068.50000 0.817132
6069.25977 0.816258
6070.02002 0.815388
6070.77979 0.814528
6071.54004 0.813666
6072.29980 0.812804
6073.06006 0.811942
6073.81982 0.811078
6074.58984 0.810212
6075.35010 0.809349
6076.10986 0.808479
6076.87012 0.807614
6077.62988 0.806749
6078.39014 0.805883
6079.14990 0.805016
6079.91016 0.804148
6080.66992 0.805684
6081.43994 0.807538
6082.20020 0.809384
6082.97021 0.81124
6083.72998 0.813089
6084.49023 0.814938
6085.25000 0.81679
6086.00977 0.818643
6086.77002 0.820494
6087.52979 0.82235
6088.29980 0.824215
6089.06006 0.826071
6089.83008 0.827937
6090.58984 0.829279
6091.35010 0.830468
6092.10986 0.831668
6092.87988 0.832862
6093.64014 0.834058
6094.39990 0.835255
6095.16992 0.836456
6095.93018 0.837653
6096.70020 0.838857
6097.45996 0.840055
6098.22021 0.841248
6098.99023 0.842454
6099.75000 0.843654
6100.52002 0.843327
6101.27979 0.842265
6102.04980 0.8412
6102.81006 0.840137
6103.58008 0.839069
6104.33984 0.838004
6105.10010 0.836943
6105.87012 0.835872
6106.62988 0.834807
6107.39990 0.833739
6108.16016 0.832671
6108.93018 0.831599
6109.68994 0.830529
6110.45996 0.83093
6111.22998 0.832294
6111.99023 0.833652
6112.75977 0.835023
6113.52002 0.83639
6114.29004 0.837756
6115.04980 0.839124
6115.81982 0.840499
6116.58984 0.841868
6117.35986 0.843243
6118.12012 0.844616
6118.89014 0.845981
6119.64990 0.84736
6120.41992 0.848043
6121.18994 0.848161
6121.95020 0.848279
6122.72021 0.848397
6123.49023 0.848516
6124.25977 0.848634
6125.02979 0.848752
6125.79004 0.848869
6126.56006 0.848987
6127.33008 0.849106
6128.08984 0.849225
6128.85986 0.849341
6129.62988 0.84946
6130.39990 0.84965
6131.16992 0.849907
6131.93994 0.850162
6132.70020 0.850416
6133.47021 0.850674
6134.24023 0.850931
6135.00977 0.851186
6135.77002 0.851443
6136.54980 0.851701
6137.31006 0.851957
6138.08984 0.852214
6138.85010 0.852471
6139.62012 0.852727
6140.39014 0.853006
6141.16016 0.853305
6141.93018 0.853603
6142.70020 0.853902
6143.47021 0.854202
6144.24023 0.854501
6145.00977 0.854801
6145.77979 0.8551
6146.54980 0.855398
6147.31982 0.855699
6148.08984 0.855998
6148.85986 0.856299
6149.62988 0.856598
6150.39990 0.856015
6151.16992 0.854618
6151.93994 0.853214
6152.72021 0.851815
6153.47998 0.850422
6154.25977 0.849016
6155.02979 0.847614
6155.79980 0.846212
6156.56982 0.844809
6157.33984 0.8434
6158.10986 0.841996
6158.89014 0.840584
6159.66016 0.839179
6160.41992 0.836735
6161.20020 0.833417
6161.97021 0.83011
6162.74023 0.826803
6163.50977 0.823493
6164.29004 0.820166
6165.06006 0.816851
6165.83008 0.813518
6166.60986 0.810198
6167.37988 0.80689
6168.14990 0.80355
6168.91992 0.800222
6169.68994 0.796894
6170.47021 0.794253
6171.24023 0.792054
6172.02002 0.789864
6172.79004 0.787663
6173.56006 0.78547
6174.33008 0.783284
6175.10986 0.781078
6175.87988 0.778879
6176.64990 0.776681
6177.43018 0.774481
6178.20020 0.772268
6178.97998 0.770064
6179.75977 0.767849
6180.52979 0.765947
6181.29980 0.764192
6182.08008 0.762422
6182.85010 0.760658
6183.62012 0.758892
6184.39990 0.757125
6185.18018 0.75535
6185.95020 0.753583
6186.72998 0.751804
6187.50000 0.750033
6188.27002 0.748268
6189.04980 0.746485
6189.83008 0.744712
6190.60010 0.744039
6191.37988 0.743686
6192.14990 0.743332
6192.93018 0.742979
6193.70996 0.742624
6194.47998 0.742269
6195.25977 0.741916
6196.02979 0.74156
6196.81006 0.741206
6197.58984 0.740851
6198.35986 0.740495
6199.14014 0.740137
6199.91992 0.739781
6200.70020 0.73912
6201.47021 0.738426
6202.24023 0.737734
6203.02002 0.737035
6203.79980 0.736339
6204.58008 0.735643
6205.35010 0.734946
6206.12988 0.734245
6206.91016 0.733547
6207.68994 0.732846
6208.47021 0.732148
6209.24023 0.731452
6210.02002 0.730814
6210.79980 0.732276
6211.58008 0.733738
6212.35010 0.735201
6213.14014 0.73667
6213.91016 0.738133
6214.68994 0.739604
6215.47021 0.741069
6216.25000 0.742528
6217.02979 0.744
6217.81006 0.745468
6218.58984 0.746936
6219.35986 0.748403
6220.14990 0.750423
6220.93018 0.754803
6221.70996 0.759203
6222.49023 0.763587
6223.25977 0.767954
6224.04004 0.772359
6224.81982 0.776753
6225.60010 0.781148
6226.37988 0.785545
6227.16016 0.789963
6227.93994 0.794365
6228.72998 0.798789
6229.50977 0.803196
6230.27979 0.806562
6231.06982 0.808151
6231.85010 0.809733
6232.62988 0.811315
6233.41016 0.812899
6234.18994 0.81449
6234.97021 0.816075
6235.75000 0.817667
6236.52979 0.819247
6237.31006 0.820834
6238.10010 0.822428
6238.87988 0.824018
6239.66016 0.825605
6240.43994 0.827856
6241.22021 0.830636
6242.00977 0.833404
6242.79004 0.836186
6243.56982 0.838943
6244.35010 0.841716
6245.12988 0.844501
6245.91992 0.847276
6246.70020 0.850055
6247.47998 0.852833
6248.27002 0.855625
6249.04980 0.858404
6249.83008 0.861202
6250.60986 0.861836
6251.39014 0.861886
6252.18018 0.861938
6252.95996 0.86199
6253.75000 0.86204
6254.52979 0.86209
6255.31006 0.862142
6256.10010 0.862194
6256.87988 0.862244
6257.66016 0.862293
6258.45020 0.862344
6259.22998 0.862394
6260.02002 0.862457
6260.79980 0.863073
6261.58984 0.863689
6262.37012 0.864306
6263.16016 0.864922
6263.93994 0.865542
6264.72021 0.866153
6265.50977 0.86677
6266.29980 0.86739
6267.08008 0.868007
6267.85986 0.868624
6268.64990 0.869243
6269.43994 0.869864
6270.22021 0.87063
6271.00977 0.871779
6271.79004 0.872918
6272.58008 0.874064
6273.37012 0.875216
6274.14990 0.876363
6274.93994 0.87751
6275.72021 0.878657
6276.50977 0.879812
6277.29980 0.880962
6278.08984 0.882117
6278.87012 0.883263
6279.64990 0.884414
6280.43994 0.883707
6281.22998 0.881556
6282.02002 0.879405
6282.79980 0.877253
6283.58984 0.87509
6284.37988 0.872935
6285.16992 0.870769
6285.95020 0.868621
6286.74023 0.866463
6287.52979 0.864295
6288.31982 0.862134
6289.10010 0.859975
6289.89014 0.857811
6290.68018 0.858295
6291.47021 0.859201
6292.25977 0.86011
6293.04004 0.861013
6293.83008 0.86192
6294.62012 0.862831
6295.41016 0.863738
6296.20020 0.864646
6296.99023 0.865553
6297.77979 0.866467
6298.56982 0.867376
6299.35986 0.86829
6300.14990 0.868742
6300.93018 0.86717
6301.72998 0.865592
6302.50977 0.86402
6303.29980 0.862448
6304.08984 0.860873
6304.87988 0.859293
6305.66992 0.857716
6306.47021 0.856132
6307.25000 0.854562
6308.04004 0.852984
6308.83984 0.851398
6309.62012 0.849819
6310.41016 0.849315
6311.20020 0.849784
6312.00000 0.850256
6312.79004 0.850726
6313.58008 0.851197
6314.37012 0.851666
6315.16016 0.852136
6315.95020 0.852611
6316.74023 0.85308
6317.52979 0.853552
6318.31982 0.854024
6319.12012 0.854498
6319.91016 0.854968
6320.70020 0.854455
6321.49023 0.85382
6322.27979 0.853183
6323.08008 0.852543
6323.87012 0.851905
6324.66016 0.851266
6325.45020 0.850627
6326.25000 0.849984
6327.04004 0.849345
6327.83984 0.8487
6328.62012 0.848062
6329.41992 0.84742
6330.20996 0.847365
6331.00977 0.848918
6331.79980 0.850472
6332.58984 0.852027
6333.39014 0.85359
6334.18018 0.855148
6334.97998 0.856713
6335.77002 0.858264
6336.56006 0.859823
6337.35010 0.86139
6338.14990 0.862952
6338.93994 0.864513
6339.72998 0.866077
6340.52979 0.865982
6341.33008 0.865058
6342.12012 0.864131
6342.91016 0.863213
6343.70996 0.86229
6344.50977 0.861362
6345.29980 0.860437
6346.08984 0.859512
6346.89014 0.858587
6347.68994 0.857658
6348.47998 0.856732
6349.27979 0.855801
6350.06982 0.855496
6350.85986 0.861634
6351.66016 0.867805
6352.45996 0.873948
6353.25000 0.880094
6354.04980 0.886247
6354.85010 0.89243
6355.64014 0.898589
6356.43994 0.904781
6357.22998 0.910918
6358.02979 0.917086
6358.83008 0.923287
6359.62012 0.929464
6360.41992 0.928868
6361.22021 0.922232
6362.02002 0.915564
6362.81006 0.908924
6363.60986 0.902252
6364.41016 0.895634
6365.20020 0.888981
6366.00000 0.882298
6366.79980 0.87564
6367.60010 0.868979
6368.39014 0.862316
6369.18994 0.855618
6369.99023 0.848946
6370.79004 0.851459
6371.58984 0.854043
6372.39014 0.856641
6373.18994 0.859248
6373.97998 0.861848
6374.77979 0.86445
6375.58008 0.867054
6376.37988 0.869671
6377.18018 0.872277
6377.97021 0.874873
6378.77979 0.877496
6379.56982 0.880108
6380.37988 0.87839
6381.18018 0.871778
6381.97021 0.865164
6382.77002 0.858547
6383.56982 0.851927
6384.37012 0.845271
6385.16992 0.838668
6385.97021 0.832004
6386.77002 0.825367
6387.56982 0.818699
6388.37988 0.812051
6389.16992 0.805404
6389.97021 0.798748
6390.77002 0.800632
6391.58008 0.802817
6392.37012 0.804983
6393.18018 0.80717
6393.97998 0.809347
6394.77979 0.811536
6395.58008 0.813715
6396.37988 0.815895
6397.18018 0.818077
6397.97998 0.820261
6398.79004 0.822454
6399.58984 0.82463
6400.39014 0.824602
6401.18994 0.822224
6402.00000 0.819835
6402.79980 0.817456
6403.60010 0.815076
6404.39990 0.812693
6405.20020 0.81031
6406.00977 0.807915
6406.81006 0.805541
6407.60986 0.803145
6408.41016 0.800755
6409.22021 0.798353
6410.02002 0.796141
6410.81982 0.800436
6411.62988 0.80473
6412.43018 0.809029
6413.22998 0.813349
6414.02979 0.817634
6414.83984 0.821958
6415.64014 0.826266
6416.45020 0.830596
6417.25000 0.834908
6418.06006 0.839226
6418.85986 0.843543
6419.66016 0.847862
6420.47021 0.848018
6421.27002 0.845205
6422.08008 0.842366
6422.87988 0.839539
6423.68994 0.836697
6424.49023 0.833869
6425.29980 0.831038
6426.10010 0.828203
6426.91016 0.825371
6427.72021 0.822524
6428.52002 0.819703
6429.31982 0.816853
6430.12988 0.815578
6430.93994 0.822523
6431.74023 0.829446
6432.54980 0.836371
6433.35010 0.843299
6434.16016 0.850229
6434.97021 0.857194
6435.77002 0.864098
6436.58008 0.871068
6437.37988 0.87801
6438.18994 0.884988
6439.00000 0.891935
6439.81006 0.898889
6440.60986 0.898628
6441.41992 0.896058
6442.22998 0.893475
6443.02979 0.890916
6443.83984 0.888332
6444.64990 0.885756
6445.45996 0.88317
6446.25977 0.880593
6447.06982 0.878015
6447.87988 0.875433
6448.68994 0.872853
6449.49023 0.870261
6450.29980 0.871083
6451.10986 0.877698
6451.91992 0.884289
6452.72998 0.890911
6453.54004 0.897509
6454.33984 0.904107
6455.14990 0.910712
6455.95996 0.917314
6456.77002 0.923955
6457.58008 0.930539
6458.39014 0.937182
6459.20020 0.943802
6460.00977 0.950329
6460.81982 0.94563
6461.62988 0.940928
6462.43994 0.936228
6463.24023 0.931524
6464.06006 0.926799
6464.85986 0.922112
6465.68018 0.917385
6466.47998 0.912675
6467.29980 0.907944
6468.10986 0.903231
6468.91992 0.898518
6469.72998 0.893804
6470.54004 0.895502
6471.35010 0.900499
6472.16016 0.905457
6472.97021 0.910457
6473.77979 0.915442
6474.58984 0.920448
6475.39990 0.925437
6476.22021 0.930427
6477.02979 0.935422
6477.83984 0.940417
6478.64990 0.945437
6479.45996 0.950417
6480.27002 0.951853
6481.08008 0.946192
6481.89990 0.940504
6482.70996 0.934837
6483.52002 0.929171
6484.33008 0.923498
6485.14990 0.917828
6485.95996 0.912129
6486.77002 0.90648
6487.58008 0.900778
6488.39990 0.895096
6489.20996 0.889392
6490.02002 0.883984
6490.83984 0.887562
6491.64990 0.89114
6492.45996 0.894718
6493.27979 0.898313
6494.08984 0.901882
6494.89990 0.905481
6495.72021 0.909067
6496.52979 0.912668
6497.35010 0.916257
6498.16016 0.919845
6498.97021 0.923439
6499.79004 0.927031
6500.60010 0.922977
6501.41016 0.916273
6502.22998 0.909504
6503.04980 0.902762
6503.85986 0.895989
6504.68018 0.889237
6505.49023 0.882486
6506.31006 0.87573
6507.12012 0.86897
6507.93994 0.862178
6508.75000 0.855438
6509.56982 0.848641
6510.37988 0.845992
6511.20020 0.848023
6512.02002 0.850045
6512.83008 0.852067
6513.64990 0.85409
6514.45996 0.856115
6515.27979 0.858149
6516.08984 0.860165
6516.91016 0.862192
6517.72998 0.864227
6518.54980 0.866265
6519.35986 0.868295
6520.18018 0.869079
6520.99023 0.86544
6521.81006 0.861798
6522.62988 0.85814
6523.43994 0.854511
6524.25977 0.850864
6525.08008 0.847205
6525.89990 0.843539
6526.72021 0.839893
6527.54004 0.836242
6528.35010 0.832592
6529.16992 0.828939
6529.99023 0.825289
6530.79980 0.830344
6531.62012 0.835547
6532.43994 0.84077
6533.25977 0.845997
6534.08008 0.851204
6534.89990 0.856412
6535.72021 0.861623
6536.54004 0.866835
6537.35010 0.872051
6538.16992 0.877268
6538.99023 0.882486
6539.81006 0.887729
6540.64014 0.885579
6541.45020 0.881272
6542.27002 0.876963
6543.08984 0.872651
6543.91016 0.868333
6544.72998 0.864017
6545.54980 0.859695
6546.37012 0.85537
6547.18994 0.851023
6548.02002 0.846677
6548.83008 0.842343
6549.64990 0.838005
6550.47021 0.83988
6551.29004 0.846288
6552.10986 0.852699
6552.93018 0.859109
6553.75000 0.865524
6554.58008 0.871971
6555.39990 0.878418
6556.22021 0.884836
6557.04004 0.891262
6557.85986 0.897686
6558.68994 0.904113
6559.50977 0.910541
6560.33008 0.91302
6561.14990 0.909543
6561.97021 0.906048
6562.79980 0.902552
6563.62012 0.89907
6564.43994 0.895584
6565.25977 0.892097
6566.08984 0.888608
6566.91016 0.885117
6567.72998 0.881625
6568.54980 0.87813
6569.37988 0.874619
6570.20020 0.872627
6571.02002 0.875291
6571.85010 0.877954
6572.66992 0.88062
6573.49023 0.883286
6574.31982 0.885956
6575.14014 0.888624
6575.95996 0.891294
6576.79004 0.893976
6577.62012 0.896658
6578.43994 0.899329
6579.25977 0.902003
6580.08984 0.904125
6580.91016 0.90154
6581.72998 0.89895
6582.56006 0.896358
6583.37988 0.893768
6584.20996 0.891165
6585.04004 0.888559
6585.85986 0.885964
6586.68994 0.883367
6587.50977 0.880769
6588.33008 0.878172
6589.16016 0.875572
6589.97998 0.87297
6590.81006 0.873876
6591.64014 0.874854
6592.47021 0.875833
6593.29004 0.876808
6594.12012 0.877783
6594.93994 0.87876
6595.77002 0.879737
6596.58984 0.880713
6597.41992 0.881689
6598.24023 0.882667
6599.06982 0.883648
6599.89990 0.884629
6600.72998 0.881027
6601.56006 0.876822
6602.37988 0.872614
6603.20996 0.868406
6604.04004 0.864193
6604.85986 0.85998
6605.68994 0.855764
6606.52002 0.851529
6607.35010 0.84729
6608.18018 0.843067
6609.00977 0.838843
6609.83008 0.834618
6610.66016 0.83648
6611.49023 0.839891
6612.31006 0.843307
6613.14014 0.846723
6613.97021 0.850154
6614.81006 0.853588
6615.62988 0.85701
6616.45996 0.860431
6617.29004 0.863852
6618.12012 0.867274
6618.95020 0.8707
6619.77002 0.874126
6620.60010 0.87546
6621.43994 0.876017
6622.27002 0.876575
6623.10010 0.877129
6623.93018 0.877685
6624.75977 0.878241
6625.58984 0.878797
6626.41016 0.879352
6627.24023 0.879909
6628.06982 0.880464
6628.91016 0.881023
6629.74023 0.881582
6630.56982 0.881596
6631.39990 0.881362
6632.22998 0.881127
6633.06006 0.880889
6633.89014 0.880656
6634.72021 0.88042
6635.54980 0.880185
6636.39014 0.879948
6637.22021 0.879711
6638.04980 0.879476
6638.87988 0.87924
6639.70996 0.879004
6640.54980 0.882768
6641.37988 0.888583
6642.20996 0.894423
6643.04004 0.900269
6643.87012 0.906144
6644.70996 0.912019
6645.54004 0.917873
6646.37012 0.923725
6647.20020 0.929583
6648.04004 0.93547
6648.87012 0.941307
6649.70020 0.947169
6650.52979 0.946791
6651.37012 0.942879
6652.20020 0.938964
6653.04004 0.935067
6653.87012 0.931168
6654.70020 0.927269
6655.54004 0.923349
6656.37012 0.919462
6657.20020 0.915558
6658.04004 0.911652
6658.87012 0.907728
6659.70996 0.903802
6660.54004 0.906799
6661.37988 0.913475
6662.20996 0.920158
6663.04980 0.926871
6663.87988 0.933531
6664.70996 0.940222
6665.54980 0.946919
6666.39014 0.953647
6667.22021 0.960382
6668.06006 0.967087
6668.89014 0.973794
6669.72998 0.98051
6670.56982 0.979625
6671.39990 0.975112
6672.22998 0.970581
6673.06982 0.966046
6673.91016 0.961492
6674.75000 0.956937
6675.58008 0.952401
6676.41992 0.947861
6677.25000 0.943322
6678.08984 0.938759
6678.93018 0.934238
6679.75977 0.929696
6680.60010 0.932742
6681.43994 0.938857
6682.27979 0.944975
6683.10986 0.951071
6683.95020 0.957169
6684.79004 0.963272
6685.62012 0.969378
6686.45996 0.975486
6687.29980 0.981596
6688.12988 0.987709
6688.97998 0.993853
6689.81982 1.0
6690.64990 0.995755
6691.49023 0.988582
6692.33008 0.981412
6693.16992 0.974235
6694.00000 0.967056
6694.83984 0.959876
6695.68018 0.952694
6696.52002 0.945476
6697.35986 0.938257
6698.20020 0.931065
6699.04004 0.923868
6699.87988 0.916667
6700.72021 0.917992
6701.56006 0.92075
6702.39990 0.923508
6703.22998 0.926268
6704.08008 0.92904
6704.91992 0.931813
6705.75977 0.934577
6706.60010 0.93734
6707.43994 0.940106
6708.27979 0.942871
6709.12012 0.945637
6709.95996 0.948405
6710.79980 0.944858
6711.64014 0.940956
6712.47998 0.937054
6713.31982 0.933165
6714.16992 0.929273
6715.00977 0.925382
6715.85010 0.921487
6716.68994 0.917588
6717.52979 0.913687
6718.37012 0.909786
6719.20996 0.905864
6720.06006 0.902256
6720.89990 0.902911
6721.74023 0.903566
6722.58008 0.904221
6723.41992 0.904876
6724.27002 0.905531
6725.10986 0.906187
6725.95020 0.906844
6726.79004 0.907504
6727.64014 0.908162
6728.47998 0.90882
6729.31982 0.909478
6730.16992 0.909511
6731.00977 0.907011
6731.85010 0.904513
6732.68994 0.902012
6733.54004 0.899512
6734.37988 0.896999
6735.22998 0.894485
6736.06982 0.891983
6736.91992 0.889479
6737.75977 0.886975
6738.60010 0.884469
6739.45020 0.881963
6740.29004 0.881922
6741.12988 0.886574
6741.97998 0.891244
6742.83008 0.895918
6743.66992 0.900578
6744.52002 0.905237
6745.35986 0.909896
6746.20996 0.914557
6747.04980 0.919218
6747.89990 0.923886
6748.74023 0.928552
6749.58984 0.933241
6750.43994 0.933333
6751.27979 0.929111
6752.12988 0.924885
6752.97021 0.920655
6753.81982 0.916426
6754.66016 0.912193
6755.50977 0.907957
6756.35010 0.903719
6757.20020 0.899462
6758.04980 0.895202
6758.89990 0.890956
6759.74023 0.886708
6760.58984 0.884862
6761.43994 0.884047
6762.27979 0.883232
6763.12988 0.882418
6763.97998 0.881603
6764.83008 0.880784
6765.68018 0.879966
6766.52002 0.879151
6767.37012 0.878335
6768.22021 0.87752
6769.06982 0.876703
6769.91016 0.875888
6770.75977 0.884329
6771.60986 0.893828
6772.45996 0.903378
6773.31006 0.912931
6774.16016 0.922442
6775.00977 0.931963
6775.85010 0.941485
6776.70020 0.951012
6777.54980 0.96054
6778.39990 0.970071
6779.25000 0.979611
6780.10010 0.987082
6780.95020 0.978735
6781.79980 0.970417
6782.64990 0.962099
6783.50000 0.953773
6784.35010 0.945446
6785.20020 0.937117
6786.04980 0.928779
6786.89990 0.920446
6787.75000 0.912065
6788.60010 0.903682
6789.45020 0.895336
6790.29980 0.892347
6791.14990 0.899045
6792.00000 0.905744
6792.85010 0.912443
6793.70020 0.919148
6794.54980 0.92585
6795.41016 0.932589
6796.25977 0.939328
6797.10986 0.946038
6797.95996 0.952749
6798.81006 0.959467
6799.66992 0.966185
6800.52002 0.965187
6801.37012 0.959202
6802.22021 0.953219
6803.06982 0.947203
6803.93018 0.941192
6804.77979 0.935198
6805.62988 0.929206
6806.49023 0.923211
6807.33984 0.917215
6808.18994 0.911217
6809.04004 0.905218
6809.89990 0.899215
6810.75000 0.899456
6811.60986 0.900578
6812.45996 0.901695
6813.31006 0.902813
6814.16016 0.903932
6815.02002 0.90505
6815.87012 0.906168
6816.72021 0.907288
6817.58008 0.908406
6818.43994 0.909529
6819.29004 0.910655
6820.14990 0.911063
6821.00000 0.907994
6821.85010 0.904924
6822.70996 0.901853
6823.56006 0.898782
6824.41016 0.895709
6825.27002 0.892634
6826.12988 0.889546
6826.99023 0.886454
6827.83984 0.883376
6828.68994 0.880298
6829.54980 0.877217
6830.39990 0.877887
6831.25977 0.882732
6832.10986 0.88758
6832.97021 0.892429
6833.83008 0.897303
6834.68994 0.902176
6835.54004 0.90703
6836.39990 0.911889
6837.25977 0.916746
6838.10986 0.921606
6838.97021 0.926467
6839.81982 0.931331
6840.68018 0.928892
6841.54004 0.924529
6842.39990 0.920162
6843.25977 0.915816
6844.10986 0.911469
6844.97021 0.907119
6845.83008 0.90277
6846.68018 0.898419
6847.54004 0.894068
6848.39990 0.889718
6849.25977 0.885345
6850.12012 0.882368
6850.97998 0.888061
6851.83008 0.893754
6852.68994 0.899452
6853.54980 0.905152
6854.41016 0.910852
6855.27002 0.916552
6856.12012 0.922255
6856.99023 0.927988
6857.85010 0.933719
6858.70996 0.939429
6859.56006 0.945143
6860.41992 0.946305
6861.27979 0.942789
6862.14014 0.939271
6863.00000 0.935752
6863.85986 0.932233
6864.72021 0.928693
6865.58984 0.925154
6866.43994 0.921628
6867.29980 0.918102
6868.16016 0.914572
6869.02002 0.911041
6869.87988 0.907508
6870.74023 0.910537
6871.60010 0.914594
6872.47021 0.918672
6873.33008 0.922754
6874.18994 0.926818
6875.04980 0.930881
6875.91016 0.93495
6876.77002 0.939016
6877.62988 0.943085
6878.49023 0.947156
6879.35986 0.951225
6880.22021 0.952864
6881.08984 0.947347
6881.95020 0.941852
6882.81006 0.936357
6883.66992 0.930856
6884.52979 0.925357
6885.39014 0.919855
6886.25977 0.91435
6887.12012 0.908841
6887.97998 0.903307
6888.85010 0.897773
6889.70996 0.892262
6890.56982 0.891568
6891.43994 0.893297
6892.29980 0.895027
6893.16016 0.896758
6894.02002 0.898488
6894.89014 0.900218
6895.75977 0.901958
6896.62012 0.903698
6897.47998 0.90543
6898.35010 0.907161
6899.20996 0.908896
6900.06982 0.909856
6900.93994 0.902716
6901.79980 0.895572
6902.66992 0.888424
6903.52979 0.881245
6904.39990 0.874062
6905.27002 0.86691
6906.12988 0.859755
6907.00000 0.852601
6907.85986 0.845441
6908.72998 0.83828
6909.58984 0.831117
6910.45020 0.829094
6911.31982 0.831722
6912.18994 0.834349
6913.06006 0.836968
6913.91992 0.839587
6914.79004 0.842207
6915.64990 0.844829
6916.52002 0.847453
6917.39014 0.850078
6918.25000 0.852705
6919.12012 0.855341
6919.99023 0.857982
6920.85986 0.851862
6921.72021 0.845651
6922.58984 0.839439
6923.45996 0.833222
6924.31982 0.827003
6925.18994 0.820784
6926.06006 0.814565
6926.93018 0.808312
6927.79980 0.80206
6928.66992 0.795834
6929.52979 0.789606
6930.39990 0.78896
6931.27002 0.794838
6932.14014 0.800713
6933.00000 0.806594
6933.87012 0.812472
6934.74023 0.818376
6935.60986 0.824285
6936.47998 0.830167
6937.35010 0.836049
6938.22021 0.841934
6939.08984 0.847818
6939.95996 0.853705
6940.81982 0.850603
6941.68994 0.847023
6942.56982 0.843429
6943.43994 0.839832
6944.31006 0.83625
6945.18018 0.832666
6946.04980 0.82908
6946.91992 0.825493
6947.79004 0.821902
6948.66016 0.818312
6949.52979 0.81472
6950.39990 0.816401
6951.27002 0.824352
6952.14014 0.83227
6953.00977 0.840194
6953.87988 0.848111
6954.75977 0.856035
6955.62012 0.863957
6956.50000 0.871879
6957.37012 0.879801
6958.24023 0.88776
6959.12012 0.895721
6959.99023 0.903646
6960.85986 0.904703
6961.72998 0.905658
6962.60010 0.906614
6963.47021 0.90757
6964.35010 0.908526
6965.22021 0.90948
6966.08984 0.91044
6966.97021 0.9114
6967.83984 0.912355
6968.70996 0.91331
6969.58008 0.914266
6970.45996 0.916806
6971.33008 0.920786
6972.20020 0.924767
6973.06982 0.928749
6973.95020 0.932751
6974.83008 0.936751
6975.70020 0.940737
6976.56982 0.944724
6977.45020 0.94871
6978.31982 0.952699
6979.18994 0.956687
6980.06982 0.960049
6980.93994 0.956021
6981.81982 0.951969
6982.70020 0.947919
6983.56982 0.94388
6984.45020 0.939843
6985.31982 0.935802
6986.18994 0.931758
6987.06982 0.927713
6987.93994 0.923667
6988.81982 0.919616
6989.70020 0.915547
6990.58008 0.916456
6991.45020 0.919971
6992.33008 0.923485
6993.20020 0.927001
6994.08008 0.93052
6994.95020 0.934038
6995.83008 0.937557
6996.70020 0.941076
6997.58008 0.944613
6998.45996 0.948151
6999.33984 0.951674
7000.20996 0.953568
7001.08984 0.950371
7001.97021 0.94719
7002.83984 0.944007
7003.72021 0.940825
7004.60010 0.937641
7005.47998 0.934441
7006.35986 0.931243
7007.24023 0.928056
7008.10986 0.924885
7008.99023 0.921683
7009.87012 0.918497
7010.74023 0.919573
7011.62012 0.921414
7012.50000 0.923253
7013.37988 0.925098
7014.25977 0.926944
7015.14014 0.928782
7016.02002 0.930612
7016.89990 0.932458
7017.77979 0.934297
7018.64990 0.936137
7019.52979 0.937975
7020.41016 0.936674
7021.29004 0.931786
7022.18018 0.926896
7023.06006 0.922026
7023.93018 0.917177
7024.81006 0.912284
7025.68994 0.90741
7026.56982 0.902533
7027.45020 0.897654
7028.33008 0.892778
7029.22021 0.887875
7030.10010 0.884149
7030.97998 0.889612
7031.85986 0.895051
7032.74023 0.900543
7033.62012 0.906011
7034.50000 0.91148
7035.37988 0.916949
7036.25977 0.922422
7037.14990 0.927918
7038.02979 0.933417
7038.91016 0.938892
7039.79004 0.944343
7040.68018 0.94216
7041.56006 0.9376
7042.43994 0.933041
7043.31982 0.928479
7044.20020 0.923917
7045.08984 0.919334
7045.97021 0.91475
7046.85010 0.910186
7047.72998 0.905639
7048.62012 0.901052
7049.50000 0.896487
7050.37988 0.896465
7051.27002 0.902367
7052.14990 0.908273
7053.02979 0.914204
7053.91992 0.920135
7054.81006 0.926043
7055.68018 0.931926
7056.56982 0.93786
7057.45020 0.94377
7058.33984 0.949683
7059.22021 0.955594
7060.10010 0.960194
7060.99023 0.955018
7061.87988 0.949839
7062.75977 0.944686
7063.64990 0.939553
7064.52979 0.934377
7065.41992 0.929222
7066.29980 0.924063
7067.18994 0.918909
7068.06982 0.91375
7068.95996 0.908569
7069.85010 0.903389
7070.72998 0.893264
7071.60986 0.882148
7072.50000 0.870932
7073.39014 0.859763
7074.27002 0.848592
7075.16016 0.837414
7076.04980 0.826235
7076.93994 0.815003
7077.81982 0.803771
7078.70996 0.792586
7079.58984 0.781443
7080.47998 0.761322
7081.37012 0.733817
7082.25977 0.706308
7083.14014 0.678779
7084.02979 0.651247
7084.91992 0.62359
7085.81006 0.59593
7086.70020 0.568373
7087.58008 0.540948
7088.47021 0.513262
7089.35986 0.485679
7090.25000 0.460941
7091.12988 0.443597
7092.02002 0.426264
7092.91016 0.408837
7093.79980 0.391421
7094.68994 0.374083
7095.58008 0.356813
7096.47021 0.339393
7097.35986 0.32205
7098.24023 0.304698
7099.12988 0.287349
7100.02002 0.270183
7100.91016 0.259991
7101.81006 0.249799
7102.70020 0.239647
7103.58008 0.229544
7104.47998 0.219342
7105.35986 0.209189
7106.25000 0.199037
7107.14014 0.18888
7108.02979 0.178723
7108.93018 0.168521
7109.81982 0.158314
7110.70996 0.152744
7111.60010 0.14835
7112.49023 0.143918
7113.37988 0.139502
7114.27002 0.135088
7115.16016 0.130671
7116.04980 0.126254
7116.95020 0.121817
7117.83984 0.117376
7118.72998 0.112955
7119.62012 0.108553
7120.52002 0.105098
7121.41016 0.102382
7122.29980 0.0996647
7123.18994 0.0969466
7124.08008 0.0942281
7124.97998 0.0914971
7125.87012 0.0887641
7126.75977 0.086044
7127.64990 0.0833338
7128.54980 0.0805979
7129.43994 0.0778748
7130.33008 0.0757103
7131.22998 0.0744856
7132.12012 0.0732609
7133.02002 0.0720306
7133.91016 0.0707996
7134.81006 0.0695739
7135.68994 0.0683535
7136.58984 0.0671223
7137.47998 0.0658958
7138.37988 0.06467
7139.27002 0.0634433
7140.16992 0.0622048
7141.06006 0.0609125
7141.95996 0.0596196
7142.85010 0.0583322
7143.74023 0.0570506
7144.64014 0.0557575
7145.54004 0.0544692
7146.43018 0.053181
7147.33008 0.0518928
7148.22021 0.0506046
7149.12012 0.0493108
7150.02002 0.048022
7150.91016 0.0467466
7151.81006 0.0454824
7152.70020 0.0442064
7153.60010 0.0429368
7154.49023 0.0416665
7155.39014 0.0403964
7156.29004 0.0391257
7157.18994 0.0378502
7158.08008 0.0365796
7158.97998 0.0353035
7159.87012 0.034038
7160.77002 0.0327842
7161.66992 0.0315385
7162.56982 0.0302925
7163.45996 0.0290463
7164.35986 0.0277999
7165.25977 0.0265471
7166.16016 0.0252995
7167.04980 0.0240571
7167.95020 0.0228036
7168.85010 0.0215492
7169.75000 0.0203
7170.64990 0.0193103
7171.54980 0.0184207
7172.43994 0.0175305
7173.35010 0.0166369
7174.24023 0.0157466
7175.14014 0.0148602
7176.04004 0.0139655
7176.93994 0.0130707
7177.83984 0.0121803
7178.74023 0.0112889
7179.64014 0.0103979
7180.52979 0.00980228
7181.43994 0.0094052
7182.33984 0.00900982
7183.22998 0.00861591
7184.14014 0.00821874
7185.04004 0.00782135
7185.93994 0.00742565
7186.83984 0.00702992
7187.74023 0.00663416
7188.64014 0.00623815
7189.54004 0.00584042
7190.43994 0.00556256
7191.33984 0.00540867
7192.24023 0.00525336
7193.14990 0.00509803
7194.04980 0.00494338
7194.95020 0.00478872
7195.85010 0.00463397
7196.75000 0.0044793
7197.64990 0.00432388
7198.54980 0.00416904
7199.45020 0.00401495
7200.35010 0.00385939
7201.25977 0.00370378
7202.16016 0.00354884
7203.06006 0.00339391
7203.97021 0.00323889
7204.87012 0.00308396
7205.77002 0.0029282
7206.68018 0.00277319
7207.56982 0.00261886
7208.47998 0.0024631
7209.39014 0.00230735
7210.29004 0.00218959
7931.31885 0.0
