# %ECSV 0.9
# ---
# datatype:
# - {name: wavelength, unit: Angstrom, datatype: float32}
# - {name: response, datatype: float32}
# meta: !!omap
# - {band_name: F165LP}
# - {group_name: ACS_SBC}
wavelength response
1434.59998 0.0
1594.00000 0.0100872
1594.27002 0.01045
1594.53003 0.010813
1594.80005 0.0111729
1595.06995 0.0115338
1595.32996 0.0118915
1595.59998 0.0122506
1595.87000 0.0126075
1596.13000 0.0129624
1596.40002 0.0133188
1596.67004 0.013672
1596.93994 0.0140253
1597.19995 0.0143785
1597.46997 0.0147294
1597.73999 0.0150794
1598.01001 0.0154271
1598.28003 0.0157766
1598.54004 0.0161241
1598.81006 0.0164694
1599.07996 0.0168147
1599.34998 0.0171598
1599.60999 0.0175014
1599.88000 0.0178445
1600.15002 0.0185937
1600.42004 0.0196663
1600.68005 0.020733
1600.94995 0.0217996
1601.21997 0.0228676
1601.48999 0.0239254
1601.76001 0.024984
1602.03003 0.026043
1602.29004 0.027096
1602.56006 0.0281461
1602.82996 0.0291899
1603.09998 0.0302378
1603.37000 0.0312794
1603.63000 0.0323147
1603.90002 0.0333507
1604.17004 0.0343838
1604.43994 0.0354143
1604.70996 0.0364451
1604.97998 0.0374696
1605.25000 0.0384916
1605.52002 0.0395073
1605.79004 0.0405269
1606.05005 0.0415396
1606.31995 0.0425453
1606.58997 0.0435517
1606.85999 0.0445581
1607.13000 0.045559
1607.40002 0.0465582
1607.67004 0.0475507
1607.93994 0.0485475
1608.20996 0.0495353
1608.47998 0.0505234
1608.75000 0.0515116
1609.01001 0.052491
1609.28003 0.0534706
1609.55005 0.0544507
1609.81995 0.0554247
1610.08997 0.0570479
1610.35999 0.059892
1610.63000 0.062746
1610.90002 0.0655827
1611.17004 0.0684035
1611.43994 0.0712252
1611.70996 0.0740399
1611.97998 0.0768552
1612.25000 0.0796534
1612.52002 0.0824447
1612.79004 0.0852278
1613.06006 0.0879939
1613.32996 0.0907618
1613.59998 0.0935302
1613.87000 0.0962729
1614.14001 0.0990174
1614.41003 0.101762
1614.68005 0.104491
1614.94995 0.107212
1615.21997 0.109917
1615.48999 0.112631
1615.77002 0.115328
1616.03003 0.118009
1616.31006 0.120701
1616.57996 0.123365
1616.84998 0.12604
1617.12000 0.128691
1617.39001 0.131351
1617.66003 0.133993
1617.93005 0.136619
1618.19995 0.139252
1618.46997 0.141866
1618.73999 0.144463
1619.01001 0.147061
1619.29004 0.149665
1619.56006 0.152253
1619.82996 0.154833
1620.09998 0.157934
1620.37000 0.161946
1620.64001 0.165931
1620.91003 0.169919
1621.18005 0.173909
1621.44995 0.177861
1621.72998 0.181826
1622.00000 0.185768
1622.27002 0.189698
1622.54004 0.193615
1622.81006 0.19751
1623.08997 0.201417
1623.35999 0.205301
1623.63000 0.209159
1623.90002 0.213019
1624.17004 0.21688
1624.43994 0.220716
1624.71997 0.224529
1624.98999 0.228354
1625.26001 0.232174
1625.53003 0.23597
1625.81006 0.239779
1626.07996 0.243565
1626.34998 0.247327
1626.62000 0.251105
1626.89001 0.254857
1627.17004 0.258593
1627.43994 0.262313
1627.70996 0.266009
1627.97998 0.269718
1628.26001 0.273402
1628.53003 0.277088
1628.80005 0.280774
1629.07996 0.284437
1629.34998 0.288089
1629.62000 0.29173
1629.89001 0.29536
1630.17004 0.299937
1630.43994 0.305087
1630.70996 0.310259
1630.98999 0.315398
1631.26001 0.320493
1631.53003 0.325623
1631.81006 0.330685
1632.07996 0.335755
1632.34998 0.340801
1632.62000 0.345866
1632.90002 0.3509
1633.17004 0.3559
1633.43994 0.360904
1633.71997 0.365908
1633.98999 0.370863
1634.27002 0.375837
1634.54004 0.380779
1634.81006 0.385706
1635.08997 0.390619
1635.35999 0.395498
1635.63000 0.400396
1635.91003 0.405246
1636.18005 0.410088
1636.45996 0.414938
1636.72998 0.419724
1637.01001 0.424511
1637.28003 0.429286
1637.55005 0.434075
1637.82996 0.438834
1638.09998 0.443563
1638.38000 0.448306
1638.65002 0.45302
1638.92004 0.457701
1639.19995 0.462399
1639.46997 0.467065
1639.75000 0.471716
1640.02002 0.476379
1640.30005 0.481299
1640.56995 0.486206
1640.84998 0.491078
1641.12000 0.49596
1641.40002 0.500853
1641.67004 0.505715
1641.94995 0.510561
1642.21997 0.51539
1642.50000 0.520205
1642.77002 0.525003
1643.05005 0.52977
1643.31995 0.534551
1643.59998 0.539287
1643.87000 0.544022
1644.15002 0.548773
1644.42004 0.55346
1644.69995 0.558148
1644.96997 0.562802
1645.25000 0.56745
1645.52002 0.572064
1645.80005 0.576647
1646.07996 0.581249
1646.34998 0.58584
1646.63000 0.590415
1646.90002 0.594971
1647.18005 0.599515
1647.44995 0.60404
1647.72998 0.608549
1648.01001 0.613028
1648.28003 0.61752
1648.56006 0.621968
1648.82996 0.626412
1649.10999 0.630855
1649.39001 0.635269
1649.66003 0.639665
1649.93994 0.644045
1650.20996 0.64809
1650.48999 0.652029
1650.77002 0.655943
1651.04004 0.659872
1651.31995 0.6638
1651.59998 0.667713
1651.88000 0.671626
1652.15002 0.675499
1652.43005 0.679373
1652.69995 0.683219
1652.97998 0.687078
1653.26001 0.690909
1653.53003 0.694716
1653.81006 0.69852
1654.08997 0.702324
1654.37000 0.706101
1654.64001 0.709864
1654.92004 0.713614
1655.19995 0.717349
1655.46997 0.721072
1655.75000 0.724768
1656.03003 0.728475
1656.31006 0.732156
1656.57996 0.735823
1656.85999 0.739476
1657.14001 0.743115
1657.41003 0.74674
1657.68994 0.750341
1657.96997 0.75395
1658.25000 0.757532
1658.52002 0.761092
1658.80005 0.764658
1659.07996 0.768201
1659.35999 0.771728
1659.64001 0.775242
1659.91003 0.778742
1660.18994 0.781674
1660.46997 0.784337
1660.75000 0.787008
1661.03003 0.789657
1661.30005 0.792295
1661.57996 0.794923
1661.85999 0.797539
1662.14001 0.800142
1662.42004 0.802735
1662.69995 0.805317
1662.96997 0.807887
1663.25000 0.810446
1663.53003 0.812984
1663.81006 0.815528
1664.08997 0.818052
1664.37000 0.820565
1664.64001 0.823057
1664.92004 0.825554
1665.19995 0.828032
1665.47998 0.83049
1665.76001 0.832953
1666.04004 0.835396
1666.31995 0.837827
1666.59998 0.840246
1666.88000 0.842655
1667.16003 0.845051
1667.43005 0.847435
1667.70996 0.849809
1667.98999 0.852169
1668.27002 0.854511
1668.55005 0.856849
1668.82996 0.859183
1669.10999 0.861497
1669.39001 0.8638
1669.67004 0.86609
1669.94995 0.868369
1670.22998 0.870669
1670.51001 0.872964
1670.79004 0.875248
1671.06995 0.877521
1671.34998 0.879781
1671.63000 0.882037
1671.91003 0.884267
1672.18994 0.886492
1672.46997 0.888712
1672.75000 0.890907
1673.03003 0.893098
1673.31006 0.895268
1673.58997 0.897442
1673.87000 0.899597
1674.15002 0.901733
1674.43005 0.903871
1674.70996 0.90599
1674.98999 0.908097
1675.27002 0.910333
1675.55005 0.912563
1675.82996 0.914781
1676.10999 0.916964
1676.39001 0.919118
1676.67004 0.921263
1676.94995 0.923382
1677.23999 0.925538
1677.52002 0.927692
1677.80005 0.929835
1678.07996 0.931953
1678.35999 0.934017
1678.64001 0.936084
1678.92004 0.938132
1679.19995 0.940198
1679.47998 0.94229
1679.77002 0.944349
1680.05005 0.946243
1680.32996 0.947305
1680.60999 0.94836
1680.89001 0.949407
1681.17004 0.95041
1681.44995 0.951392
1681.72998 0.952361
1682.02002 0.953326
1682.30005 0.954332
1682.57996 0.95533
1682.85999 0.95632
1683.14001 0.957275
1683.43005 0.958195
1683.70996 0.959106
1683.98999 0.960007
1684.27002 0.960953
1684.55005 0.961901
1684.83997 0.962831
1685.12000 0.963733
1685.40002 0.964591
1685.68005 0.965447
1685.95996 0.966292
1686.25000 0.967173
1686.53003 0.968059
1686.81006 0.968934
1687.08997 0.969802
1687.38000 0.97066
1687.66003 0.971511
1687.93994 0.972353
1688.21997 0.973141
1688.51001 0.97391
1688.79004 0.97467
1689.06995 0.975432
1689.34998 0.976233
1689.64001 0.977027
1689.92004 0.97781
1690.19995 0.978569
1690.48999 0.979311
1690.77002 0.980045
1691.05005 0.980782
1691.33997 0.981557
1691.62000 0.982324
1691.90002 0.983083
1692.18994 0.983794
1692.46997 0.984478
1692.75000 0.98515
1693.04004 0.985822
1693.31995 0.986536
1693.59998 0.987246
1693.89001 0.987945
1694.17004 0.988633
1694.44995 0.989316
1694.73999 0.98999
1695.02002 0.99065
1695.31006 0.991246
1695.58997 0.991832
1695.87000 0.99241
1696.16003 0.993012
1696.43994 0.993634
1696.72998 0.994247
1697.01001 0.994848
1697.30005 0.995383
1697.57996 0.995906
1697.85999 0.996421
1698.15002 0.99696
1698.43005 0.997518
1698.71997 0.998072
1699.00000 0.998615
1699.29004 0.999086
1699.56995 0.999547
1699.84998 1.0
1700.14001 0.999853
1700.42004 0.999077
1700.70996 0.998298
1700.98999 0.997515
1701.28003 0.996669
1701.56006 0.995812
1701.84998 0.994954
1702.13000 0.994122
1702.42004 0.993319
1702.69995 0.992517
1702.98999 0.991709
1703.27002 0.990835
1703.56006 0.989955
1703.83997 0.989072
1704.13000 0.988184
1704.41003 0.987293
1704.69995 0.986398
1704.97998 0.985499
1705.27002 0.984658
1705.56006 0.983815
1705.83997 0.982973
1706.13000 0.982095
1706.41003 0.981178
1706.69995 0.980257
1706.97998 0.979332
1707.27002 0.978465
1707.56006 0.977596
1707.83997 0.976728
1708.13000 0.975825
1708.41003 0.974881
1708.69995 0.973934
1708.98999 0.972982
1709.27002 0.97203
1709.56006 0.971068
1709.84998 0.970106
1710.13000 0.96918
1710.42004 0.968298
1710.69995 0.967417
1710.98999 0.96653
1711.28003 0.965575
1711.56006 0.964614
1711.84998 0.963648
1712.14001 0.96271
1712.42004 0.961804
1712.70996 0.960892
1713.00000 0.959981
1713.28003 0.958997
1713.56995 0.958004
1713.85999 0.957014
1714.14001 0.956018
1714.43005 0.95502
1714.71997 0.954012
1715.01001 0.953004
1715.29004 0.95206
1715.57996 0.951108
1715.87000 0.950158
1716.15002 0.949166
1716.43994 0.948136
1716.72998 0.947104
1717.02002 0.946071
1717.30005 0.945099
1717.58997 0.94412
1717.88000 0.94314
1718.17004 0.942119
1718.44995 0.941063
1718.73999 0.940002
1719.03003 0.938944
1719.31995 0.937944
1719.60999 0.936941
1719.89001 0.935934
1720.18005 0.934889
1720.46997 0.933823
1720.76001 0.932748
1721.05005 0.931677
1721.33997 0.930598
1721.62000 0.929511
1721.91003 0.928427
1722.19995 0.927384
1722.48999 0.926361
1722.78003 0.925325
1723.06995 0.924279
1723.34998 0.923171
1723.64001 0.922055
1723.93005 0.920942
1724.21997 0.919875
1724.51001 0.91882
1724.80005 0.917762
1725.08997 0.916742
1725.38000 0.915818
1725.66003 0.91489
1725.94995 0.913954
1726.23999 0.913022
1726.53003 0.912079
1726.81995 0.91114
1727.10999 0.910193
1727.40002 0.909242
1727.68994 0.90829
1727.97998 0.907327
1728.27002 0.906367
1728.56006 0.905401
1728.84998 0.904429
1729.13000 0.903492
1729.42004 0.902587
1729.70996 0.901679
1730.00000 0.900765
1730.29004 0.89979
1730.57996 0.898813
1730.87000 0.897823
1731.16003 0.896839
1731.44995 0.895847
1731.73999 0.894849
1732.03003 0.893853
1732.31995 0.89285
1732.60999 0.891843
1732.90002 0.890832
1733.18994 0.889814
1733.47998 0.888799
1733.77002 0.887773
1734.06006 0.886762
1734.34998 0.885809
1734.64001 0.884849
1734.93005 0.883885
1735.21997 0.882859
1735.52002 0.881813
1735.81006 0.880766
1736.09998 0.879706
1736.39001 0.878651
1736.68005 0.877589
1736.96997 0.876519
1737.26001 0.875453
1737.55005 0.874379
1737.83997 0.873301
1738.13000 0.872253
1738.42004 0.871239
1738.70996 0.870227
1739.01001 0.869203
1739.30005 0.868105
1739.58997 0.867008
1739.88000 0.865898
1740.17004 0.864796
1740.45996 0.863691
1740.75000 0.86258
1741.05005 0.86147
1741.33997 0.860348
1741.63000 0.859226
1741.92004 0.8581
1742.20996 0.856966
1742.50000 0.855835
1742.80005 0.854696
1743.08997 0.853576
1743.38000 0.852506
1743.67004 0.851428
1743.95996 0.85035
1744.26001 0.849201
1744.55005 0.848041
1744.83997 0.846874
1745.13000 0.845698
1745.42004 0.844526
1745.71997 0.843346
1746.01001 0.842162
1746.30005 0.840973
1746.58997 0.839781
1746.89001 0.838584
1747.18005 0.837379
1747.46997 0.836174
1747.76001 0.834968
1748.06006 0.833769
1748.34998 0.83263
1748.64001 0.831486
1748.93005 0.830338
1749.22998 0.829121
1749.52002 0.827886
1749.81006 0.826651
1750.10999 0.825486
1750.40002 0.824452
1750.68994 0.823423
1750.97998 0.82239
1751.28003 0.82143
1751.56995 0.820471
1751.87000 0.819511
1752.16003 0.818551
1752.44995 0.817585
1752.73999 0.816623
1753.04004 0.815647
1753.32996 0.814596
1753.63000 0.81355
1753.92004 0.8125
1754.20996 0.811505
1754.51001 0.810528
1754.80005 0.809552
1755.09998 0.808577
1755.39001 0.807598
1755.68005 0.806614
1755.97998 0.805635
1756.27002 0.804576
1756.56995 0.80351
1756.85999 0.802442
1757.15002 0.801414
1757.44995 0.80042
1757.73999 0.799427
1758.04004 0.798426
1758.32996 0.797349
1758.63000 0.796268
1758.92004 0.795191
1759.20996 0.794168
1759.51001 0.793165
1759.80005 0.792157
1760.09998 0.791152
1760.39001 0.790151
1760.68994 0.78914
1760.97998 0.788136
1761.28003 0.78705
1761.56995 0.785953
1761.87000 0.784862
1762.16003 0.78381
1762.45996 0.782794
1762.75000 0.781772
1763.05005 0.780738
1763.33997 0.779638
1763.64001 0.778533
1763.93005 0.777422
1764.22998 0.77638
1764.52002 0.775351
1764.81995 0.774321
1765.12000 0.773285
1765.41003 0.772255
1765.70996 0.771219
1766.00000 0.770178
1766.30005 0.76906
1766.58997 0.767936
1766.89001 0.766808
1767.18005 0.765736
1767.47998 0.76469
1767.78003 0.763642
1768.06995 0.762568
1768.37000 0.761435
1768.66003 0.760302
1768.95996 0.759165
1769.26001 0.758097
1769.55005 0.757039
1769.84998 0.755975
1770.15002 0.754918
1770.43994 0.753854
1770.73999 0.752794
1771.04004 0.751716
1771.32996 0.750566
1771.63000 0.749419
1771.93005 0.748266
1772.21997 0.747169
1772.52002 0.746099
1772.81995 0.745023
1773.10999 0.743946
1773.41003 0.742864
1773.70996 0.741784
1774.00000 0.740704
1774.30005 0.739532
1774.59998 0.738366
1774.89001 0.737194
1775.18994 0.736235
1775.48999 0.7354
1775.79004 0.734557
1776.07996 0.733694
1776.38000 0.732764
1776.68005 0.731835
1776.97998 0.730908
1777.28003 0.730051
1777.56995 0.729205
1777.87000 0.728354
1778.17004 0.727503
1778.45996 0.726649
1778.76001 0.725792
1779.06006 0.724921
1779.35999 0.723975
1779.66003 0.723031
1779.94995 0.722088
1780.25000 0.721215
1780.55005 0.720352
1780.84998 0.719492
1781.15002 0.718583
1781.43994 0.717635
1781.73999 0.71668
1782.04004 0.715738
1782.33997 0.714871
1782.64001 0.713997
1782.93994 0.713127
1783.23999 0.712184
1783.54004 0.711219
1783.82996 0.710259
1784.13000 0.709329
1784.43005 0.708452
1784.72998 0.707566
1785.03003 0.706683
1785.32996 0.705801
1785.63000 0.704914
1785.93005 0.704023
1786.21997 0.703072
1786.52002 0.702091
1786.81995 0.701112
1787.12000 0.700167
1787.42004 0.699274
1787.71997 0.698373
1788.02002 0.697469
1788.31995 0.696485
1788.62000 0.695496
1788.92004 0.694502
1789.21997 0.693576
1789.52002 0.692667
1789.81995 0.691762
1790.12000 0.69085
1790.42004 0.689942
1790.71997 0.689035
1791.02002 0.688115
1791.31995 0.687118
1791.62000 0.686116
1791.92004 0.685112
1792.21997 0.684166
1792.52002 0.683246
1792.81995 0.682328
1793.12000 0.681368
1793.42004 0.680356
1793.71997 0.679346
1794.02002 0.678335
1794.31995 0.677404
1794.62000 0.676476
1794.92004 0.675541
1795.21997 0.674607
1795.52002 0.673672
1795.81995 0.672738
1796.12000 0.671764
1796.42004 0.670732
1796.71997 0.669706
1797.02002 0.668681
1797.32996 0.667733
1797.63000 0.666787
1797.93005 0.665839
1798.22998 0.664825
1798.53003 0.663781
1798.82996 0.66274
1799.13000 0.661738
1799.43005 0.660782
1799.72998 0.659825
1800.04004 0.658874
1800.33997 0.65798
1800.64001 0.657083
1800.93994 0.656186
1801.23999 0.655291
1801.54004 0.654389
1801.84998 0.653489
1802.15002 0.65259
1802.44995 0.651686
1802.75000 0.650779
1803.05005 0.649857
1803.34998 0.648859
1803.66003 0.647863
1803.95996 0.646858
1804.26001 0.645937
1804.56006 0.645024
1804.87000 0.644106
1805.17004 0.643192
1805.46997 0.642275
1805.77002 0.641353
1806.06995 0.640432
1806.38000 0.63951
1806.68005 0.63859
1806.97998 0.637661
1807.28003 0.636735
1807.58997 0.63581
1807.89001 0.634881
1808.18994 0.633948
1808.48999 0.633015
1808.80005 0.632082
1809.09998 0.631147
1809.40002 0.63021
1809.70996 0.629276
1810.01001 0.628337
1810.31006 0.627395
1810.62000 0.626457
1810.92004 0.625516
1811.21997 0.624502
1811.53003 0.623465
1811.82996 0.622427
1812.13000 0.62143
1812.43994 0.620478
1812.73999 0.61953
1813.04004 0.618578
1813.34998 0.617625
1813.65002 0.61667
1813.94995 0.61571
1814.26001 0.614752
1814.56006 0.613792
1814.87000 0.612831
1815.17004 0.611872
1815.46997 0.610905
1815.78003 0.609939
1816.07996 0.608976
1816.38000 0.608007
1816.68994 0.607038
1816.98999 0.606063
1817.30005 0.60509
1817.59998 0.604119
1817.91003 0.60314
1818.20996 0.602166
1818.51001 0.601187
1818.81995 0.600203
1819.12000 0.599187
1819.43005 0.598106
1819.72998 0.597028
1820.04004 0.595959
1820.33997 0.594973
1820.65002 0.593989
1820.94995 0.592996
1821.26001 0.592005
1821.56006 0.591016
1821.87000 0.590019
1822.17004 0.589027
1822.47998 0.588027
1822.78003 0.587032
1823.08997 0.586029
1823.39001 0.585028
1823.69995 0.584028
1824.01001 0.583021
1824.31006 0.582015
1824.60999 0.58101
1824.92004 0.579998
1825.22998 0.579058
1825.53003 0.578141
1825.83997 0.577223
1826.14001 0.576306
1826.44995 0.575381
1826.75000 0.574462
1827.06006 0.573538
1827.37000 0.57261
1827.67004 0.571686
1827.97998 0.570754
1828.29004 0.569825
1828.58997 0.568894
1828.90002 0.567962
1829.19995 0.56703
1829.51001 0.566092
1829.81995 0.565155
1830.12000 0.56422
1830.43005 0.563276
1830.73999 0.56234
1831.04004 0.561398
1831.34998 0.560459
1831.66003 0.559512
1831.95996 0.558567
1832.27002 0.557623
1832.57996 0.556671
1832.88000 0.555722
1833.18994 0.554774
1833.50000 0.553818
1833.80005 0.552864
1834.10999 0.551908
1834.42004 0.550951
1834.71997 0.549996
1835.03003 0.549033
1835.33997 0.548074
1835.65002 0.547112
1835.94995 0.546141
1836.26001 0.545178
1836.56995 0.544211
1836.88000 0.543246
1837.18005 0.542272
1837.48999 0.541301
1837.80005 0.540331
1838.10999 0.539353
1838.41003 0.538377
1838.71997 0.537403
1839.03003 0.53642
1839.33997 0.53544
1839.65002 0.534458
1839.94995 0.533478
1840.26001 0.532491
1840.56995 0.531505
1840.88000 0.530522
1841.18994 0.529535
1841.50000 0.528542
1841.80005 0.52755
1842.10999 0.526558
1842.42004 0.525564
1842.72998 0.524568
1843.04004 0.523571
1843.34998 0.522576
1843.66003 0.521573
1843.95996 0.520574
1844.27002 0.519571
1844.57996 0.51856
1844.89001 0.517557
1845.19995 0.51655
1845.51001 0.515541
1845.81995 0.51453
1846.13000 0.513518
1846.43005 0.512507
1846.73999 0.511489
1847.06006 0.510473
1847.35999 0.509454
1847.67004 0.508435
1847.97998 0.507413
1848.29004 0.506391
1848.59998 0.50537
1848.91003 0.504344
1849.21997 0.503314
1849.53003 0.502288
1849.83997 0.501258
1850.15002 0.500253
1850.45996 0.499285
1850.77002 0.498316
1851.07996 0.497348
1851.39001 0.496372
1851.69995 0.495399
1852.01001 0.494428
1852.31995 0.493449
1852.63000 0.492471
1852.93994 0.491492
1853.25000 0.490512
1853.56006 0.489531
1853.87000 0.488549
1854.18005 0.487569
1854.48999 0.486583
1854.80005 0.485594
1855.10999 0.48461
1855.42004 0.483618
1855.72998 0.482627
1856.05005 0.481636
1856.35999 0.480643
1856.67004 0.479649
1856.97998 0.478654
1857.29004 0.477657
1857.59998 0.476663
1857.91003 0.47566
1858.21997 0.474659
1858.53003 0.473658
1858.83997 0.472658
1859.16003 0.47165
1859.46997 0.470645
1859.78003 0.469638
1860.08997 0.468633
1860.40002 0.467621
1860.70996 0.466614
1861.02002 0.4656
1861.33997 0.46459
1861.65002 0.463573
1861.95996 0.462554
1862.27002 0.461541
1862.57996 0.460524
1862.89001 0.459508
1863.20996 0.458487
1863.52002 0.457462
1863.82996 0.456439
1864.14001 0.455414
1864.44995 0.454388
1864.77002 0.453362
1865.07996 0.452333
1865.39001 0.451303
1865.69995 0.450272
1866.02002 0.44924
1866.32996 0.448209
1866.64001 0.447171
1866.94995 0.446138
1867.27002 0.445097
1867.57996 0.444061
1867.89001 0.443017
1868.19995 0.441907
1868.52002 0.44076
1868.82996 0.43961
1869.14001 0.438508
1869.45996 0.43746
1869.77002 0.436412
1870.07996 0.435362
1870.40002 0.434312
1870.70996 0.43326
1871.02002 0.432206
1871.33997 0.431152
1871.65002 0.4301
1871.95996 0.429043
1872.28003 0.427981
1872.58997 0.426924
1872.90002 0.425859
1873.21997 0.424797
1873.53003 0.423733
1873.83997 0.422667
1874.16003 0.421601
1874.46997 0.420533
1874.79004 0.419464
1875.09998 0.418426
1875.41003 0.417457
1875.72998 0.416494
1876.04004 0.415525
1876.35999 0.414559
1876.67004 0.413584
1876.97998 0.412612
1877.30005 0.411642
1877.60999 0.410664
1877.93005 0.409688
1878.23999 0.408633
1878.56006 0.407544
1878.87000 0.406457
1879.18994 0.405432
1879.50000 0.40445
1879.81995 0.403466
1880.13000 0.402482
1880.43994 0.401499
1880.76001 0.400506
1881.07996 0.399518
1881.39001 0.398532
1881.69995 0.397542
1882.02002 0.396553
1882.33997 0.395557
1882.65002 0.394563
1882.95996 0.393567
1883.28003 0.392474
1883.59998 0.391368
1883.91003 0.390264
1884.22998 0.38923
1884.54004 0.388227
1884.85999 0.387224
1885.17004 0.386223
1885.48999 0.385213
1885.81006 0.384206
1886.12000 0.383201
1886.43994 0.382184
1886.75000 0.381177
1887.06995 0.380164
1887.38000 0.379151
1887.69995 0.378136
1888.02002 0.377114
1888.32996 0.375988
1888.65002 0.37486
1888.95996 0.373731
1889.28003 0.3727
1889.59998 0.371678
1889.91003 0.37065
1890.22998 0.369625
1890.55005 0.368599
1890.85999 0.367575
1891.18005 0.366543
1891.50000 0.365513
1891.81006 0.364481
1892.13000 0.3634
1892.44995 0.36226
1892.76001 0.361114
1893.07996 0.359996
1893.40002 0.358958
1893.70996 0.357918
1894.03003 0.356874
1894.34998 0.355836
1894.67004 0.354793
1894.97998 0.353752
1895.30005 0.352706
1895.62000 0.351655
1895.93994 0.350607
1896.25000 0.349521
1896.56995 0.348429
1896.89001 0.347329
1897.20996 0.346245
1897.52002 0.345168
1897.83997 0.344086
1898.16003 0.343009
1898.47998 0.341927
1898.80005 0.340845
1899.10999 0.339761
1899.43005 0.338675
1899.75000 0.337592
1900.06995 0.336519
1900.39001 0.335515
1900.69995 0.334514
1901.02002 0.333506
1901.33997 0.33251
1901.66003 0.331512
1901.97998 0.330513
1902.30005 0.329502
1902.60999 0.32849
1902.93005 0.327475
1903.25000 0.326468
1903.56995 0.325459
1903.89001 0.324455
1904.20996 0.323436
1904.53003 0.322418
1904.84998 0.321395
1905.16003 0.320371
1905.47998 0.319345
1905.80005 0.318318
1906.12000 0.317294
1906.43994 0.316279
1906.76001 0.315256
1907.07996 0.314232
1907.40002 0.313198
1907.71997 0.312159
1908.04004 0.311127
1908.35999 0.3101
1908.68005 0.309075
1909.00000 0.308042
1909.31995 0.306996
1909.64001 0.305956
1909.95996 0.304907
1910.28003 0.303874
1910.59998 0.302837
1910.91003 0.301799
1911.22998 0.300751
1911.56006 0.299699
1911.88000 0.298645
1912.18994 0.29759
1912.52002 0.296534
1912.83997 0.295479
1913.16003 0.294422
1913.47998 0.293372
1913.80005 0.292322
1914.12000 0.291265
1914.43994 0.290203
1914.76001 0.289133
1915.07996 0.288068
1915.40002 0.28701
1915.71997 0.285947
1916.04004 0.284888
1916.35999 0.283814
1916.68005 0.282738
1917.00000 0.281662
1917.32996 0.280583
1917.64001 0.279507
1917.96997 0.278422
1918.29004 0.27735
1918.60999 0.276281
1918.93005 0.2752
1919.25000 0.274119
1919.56995 0.273031
1919.89001 0.271941
1920.21997 0.270861
1920.54004 0.269776
1920.85999 0.268694
1921.18005 0.267603
1921.50000 0.266503
1921.82996 0.265407
1922.15002 0.264309
1922.46997 0.263223
1922.79004 0.262132
1923.10999 0.261035
1923.43005 0.259932
1923.76001 0.258821
1924.07996 0.257715
1924.40002 0.256617
1924.71997 0.255513
1925.05005 0.254421
1925.37000 0.253366
1925.68994 0.252308
1926.01001 0.25125
1926.33997 0.250189
1926.66003 0.249131
1926.97998 0.248065
1927.30005 0.247008
1927.63000 0.245958
1927.94995 0.244899
1928.27002 0.243835
1928.58997 0.242765
1928.92004 0.241694
1929.23999 0.240633
1929.56006 0.239567
1929.89001 0.238503
1930.20996 0.237431
1930.53003 0.236348
1930.85999 0.235272
1931.18005 0.234191
1931.50000 0.233108
1931.82996 0.232023
1932.15002 0.230943
1932.46997 0.229871
1932.80005 0.228788
1933.12000 0.227709
1933.43994 0.226617
1933.77002 0.225521
1934.08997 0.224433
1934.42004 0.223349
1934.73999 0.222264
1935.06006 0.221175
1935.39001 0.220075
1935.70996 0.218976
1936.04004 0.217871
1936.35999 0.216775
1936.68005 0.215684
1937.01001 0.214589
1937.32996 0.213479
1937.66003 0.212369
1937.97998 0.211257
1938.31006 0.210143
1938.63000 0.209025
1938.95996 0.207912
1939.28003 0.206805
1939.60999 0.205694
1939.93005 0.204589
1940.26001 0.203469
1940.57996 0.202342
1940.90002 0.201221
1941.22998 0.200102
1941.55005 0.19899
1941.88000 0.197869
1942.19995 0.196743
1942.53003 0.19561
1942.85999 0.194472
1943.18005 0.193347
1943.51001 0.192222
1943.82996 0.191096
1944.16003 0.189963
1944.47998 0.188817
1944.81006 0.187678
1945.13000 0.186534
1945.45996 0.185384
1945.79004 0.18424
1946.10999 0.183095
1946.43994 0.181957
1946.76001 0.180817
1947.08997 0.179673
1947.41003 0.178521
1947.73999 0.177361
1948.06995 0.176205
1948.39001 0.175058
1948.71997 0.173906
1949.05005 0.17276
1949.37000 0.171608
1949.69995 0.170455
1950.03003 0.169301
1950.34998 0.168159
1950.68005 0.167022
1951.01001 0.16588
1951.32996 0.16475
1951.66003 0.163617
1951.98999 0.16248
1952.31006 0.161349
1952.64001 0.160213
1952.96997 0.159076
1953.29004 0.157941
1953.62000 0.156797
1953.94995 0.155655
1954.28003 0.154512
1954.59998 0.153364
1954.93005 0.152222
1955.26001 0.151071
1955.57996 0.149927
1955.91003 0.148777
1956.23999 0.147622
1956.56995 0.14647
1956.89001 0.145319
1957.21997 0.144164
1957.55005 0.143007
1957.88000 0.141845
1958.19995 0.140689
1958.53003 0.139529
1958.85999 0.138366
1959.18994 0.137195
1959.52002 0.136018
1959.84998 0.134839
1960.17004 0.133665
1960.50000 0.132492
1960.82996 0.131325
1961.16003 0.130147
1961.48999 0.128972
1961.81995 0.127792
1962.14001 0.126611
1962.46997 0.125424
1962.80005 0.12424
1963.13000 0.12306
1963.45996 0.121873
1963.79004 0.120681
1964.12000 0.119496
1964.43994 0.118306
1964.77002 0.117114
1965.09998 0.115921
1965.43005 0.114727
1965.76001 0.113531
1966.08997 0.112331
1966.42004 0.111137
1966.75000 0.109937
1967.07996 0.108732
1967.41003 0.107534
1967.73999 0.106331
1968.06995 0.105126
1968.40002 0.103916
1968.72998 0.102708
1969.06006 0.101503
1969.38000 0.100293
1969.71997 0.0990783
1970.04004 0.0978696
1970.37000 0.0966553
1970.69995 0.09544
1971.03003 0.0942221
1971.35999 0.092991
1971.68994 0.0917588
1972.03003 0.090522
1972.35999 0.0893041
1972.68005 0.0880806
1973.02002 0.0868519
1973.34998 0.0856303
1973.68005 0.0844029
1974.01001 0.0831745
1974.33997 0.081967
1974.67004 0.0807616
1975.00000 0.0795591
1975.32996 0.0785566
1975.66003 0.0775604
1975.98999 0.0765599
1976.31995 0.075568
1976.65002 0.0745817
1976.97998 0.0735908
1977.31995 0.0725991
1977.65002 0.0716064
1977.97998 0.0706092
1978.31006 0.0696295
1978.64001 0.0686469
1978.96997 0.0676594
1979.30005 0.0666659
1979.63000 0.0656663
1979.95996 0.0646661
1980.30005 0.0636614
1980.63000 0.0626619
1980.95996 0.061655
1981.29004 0.0606621
1981.62000 0.0596728
1981.94995 0.0586792
1982.29004 0.0576696
1982.62000 0.056664
1982.94995 0.0556537
1983.28003 0.0546539
1983.62000 0.0536547
1983.94995 0.0526513
1984.28003 0.0516424
1984.60999 0.0506268
1984.93994 0.0496099
1985.28003 0.0485921
1985.60999 0.04757
1985.93994 0.0465533
1986.28003 0.04554
1986.60999 0.0445344
1986.93994 0.0435213
1987.27002 0.0424992
1987.60999 0.0414772
1987.93994 0.0404508
1988.27002 0.0394242
1988.59998 0.038404
1988.93994 0.0373795
1989.27002 0.036354
1989.59998 0.0353273
1989.93994 0.0342996
1990.27002 0.0332661
1990.59998 0.0322383
1990.93994 0.0312057
1991.27002 0.0301733
1991.59998 0.0291368
1991.93994 0.0281024
1992.27002 0.0270667
1992.59998 0.0260335
1992.93994 0.0249925
1993.27002 0.0239537
1993.59998 0.0229173
1993.93994 0.0218761
1994.27002 0.020833
1994.60999 0.0197883
1994.93994 0.0187392
1995.27002 0.0176967
1995.60999 0.0166502
1995.93994 0.0156027
1996.28003 0.0145504
1996.60999 0.0135003
1996.93994 0.0124526
2196.63403 0.0
