# %ECSV 0.9
# ---
# datatype:
# - {name: wavelength, unit: Angstrom, datatype: float32}
# - {name: response, datatype: float32}
# meta: !!omap
# - {band_name: F625W_77}
# - {group_name: ACS_WFC}
wavelength response
4872.50977 0.0
5413.89990 0.00176814
5414.58008 0.00180235
5415.25977 0.00183658
5415.93018 0.00187067
5416.60986 0.00190478
5417.29004 0.00193908
5417.95996 0.0019731
5418.64014 0.00200743
5419.31006 0.00204177
5419.99023 0.00207584
5420.66992 0.00222323
5421.33984 0.00237221
5422.02002 0.00252114
5422.70020 0.00267088
5423.37012 0.00282003
5424.04980 0.00296934
5424.72998 0.00311924
5425.41016 0.00326931
5426.08008 0.00341879
5426.75977 0.00356898
5427.43994 0.00371858
5428.12012 0.00386888
5428.79004 0.00401869
5429.47021 0.00416845
5430.14990 0.00431841
5430.81982 0.00446857
5431.50000 0.00461945
5432.18018 0.00476974
5432.85986 0.00492021
5433.54004 0.0050714
5434.20996 0.005222
5434.89014 0.00537268
5435.56982 0.00552407
5436.25000 0.00567488
5436.93018 0.00582587
5437.60986 0.00597746
5438.27979 0.00612858
5438.97021 0.00628042
5439.64014 0.00643179
5440.31982 0.00670324
5441.00000 0.00710472
5441.68018 0.00750606
5442.35986 0.00790786
5443.04004 0.00830981
5443.72021 0.00871393
5444.39990 0.00911791
5445.06982 0.00951888
5445.75977 0.00992347
5446.43994 0.0103282
5447.10986 0.0107297
5447.79980 0.0111347
5448.47998 0.0115402
5449.16016 0.0119438
5449.83984 0.0123479
5450.52002 0.012917
5451.20020 0.0135385
5451.87988 0.0141571
5452.56006 0.014776
5453.24023 0.0153983
5453.91992 0.0160182
5454.60010 0.0166383
5455.27979 0.0172588
5455.95996 0.0178799
5456.64014 0.0185036
5457.31982 0.0191226
5458.00000 0.0197472
5458.68994 0.0203721
5459.35986 0.020992
5460.04980 0.021642
5460.72998 0.0226131
5461.41016 0.0235797
5462.10010 0.0245515
5462.77979 0.0255202
5463.45996 0.0264927
5464.14014 0.0274662
5464.81982 0.028431
5465.50977 0.0294053
5466.18994 0.0303798
5466.87012 0.0313464
5467.54980 0.0323224
5468.22998 0.0332938
5468.91992 0.0342662
5469.60010 0.035239
5470.27979 0.036392
5470.95996 0.0378113
5471.64990 0.0392252
5472.33008 0.0406408
5473.00977 0.0420632
5473.70020 0.0434862
5474.37988 0.0449037
5475.06006 0.046322
5475.75000 0.0477479
5476.43018 0.0491745
5477.10986 0.0505886
5477.79980 0.0520165
5478.47998 0.0534461
5479.16016 0.0548632
5479.85010 0.0562932
5480.52979 0.0577895
5481.22021 0.0592917
5481.89990 0.0608073
5482.58008 0.062317
5483.27002 0.0638282
5483.95020 0.0653452
5484.64014 0.0668573
5485.31982 0.0683699
5486.00977 0.0698895
5486.68994 0.0714095
5487.37988 0.0729182
5488.06006 0.0744392
5488.75000 0.0759617
5489.43018 0.0774782
5490.12012 0.078917
5490.79980 0.0799817
5491.47998 0.0810368
5492.16992 0.0821021
5492.85986 0.0831677
5493.54004 0.0842238
5494.22998 0.0852907
5494.91016 0.0863527
5495.60010 0.0874158
5496.29004 0.088483
5496.97021 0.0895468
5497.66016 0.0906109
5498.35010 0.0916806
5499.02979 0.0927499
5499.72021 0.0938157
5500.39990 0.0953961
5501.08984 0.0973472
5501.77979 0.0992976
5502.47021 0.101241
5503.14990 0.103185
5503.83984 0.105132
5504.52002 0.107079
5505.20996 0.109036
5505.89990 0.110986
5506.58984 0.112936
5507.27002 0.114897
5507.95996 0.116851
5508.64990 0.118804
5509.33984 0.12077
5510.02002 0.122768
5510.70996 0.125922
5511.39990 0.129092
5512.08984 0.13225
5512.77002 0.135406
5513.45996 0.138581
5514.14990 0.141754
5514.83984 0.144918
5515.52979 0.148079
5516.22021 0.151258
5516.91016 0.154423
5517.58984 0.15759
5518.27979 0.160773
5518.97021 0.163941
5519.66016 0.167112
5520.35010 0.170118
5521.04004 0.172968
5521.72998 0.175833
5522.41992 0.178697
5523.10986 0.181552
5523.79980 0.184408
5524.49023 0.187277
5525.18018 0.190135
5525.87012 0.193007
5526.56006 0.195867
5527.25000 0.198742
5527.93994 0.201606
5528.62012 0.204471
5529.31006 0.207337
5530.00000 0.210203
5530.68994 0.212862
5531.39014 0.21551
5532.06982 0.218156
5532.75977 0.220806
5533.45020 0.223457
5534.14990 0.226121
5534.83984 0.228787
5535.52979 0.231453
5536.22021 0.23411
5536.91016 0.236767
5537.60010 0.239436
5538.29980 0.242108
5538.97998 0.244756
5539.68018 0.24743
5540.37012 0.249859
5541.06006 0.252057
5541.75000 0.254275
5542.43994 0.256484
5543.12988 0.258693
5543.83008 0.260914
5544.52002 0.263116
5545.20996 0.265339
5545.89990 0.267552
5546.58984 0.269765
5547.29004 0.27199
5547.97998 0.274215
5548.66992 0.276431
5549.35986 0.27865
5550.06006 0.280903
5550.75000 0.283442
5551.43994 0.28596
5552.14014 0.288501
5552.83008 0.291043
5553.52002 0.293565
5554.22021 0.296111
5554.91016 0.298658
5555.60010 0.301184
5556.29980 0.303735
5556.99023 0.306275
5557.68018 0.308816
5558.37988 0.311371
5559.06982 0.313914
5559.75977 0.31646
5560.45996 0.318893
5561.14990 0.321258
5561.83984 0.323604
5562.54004 0.325972
5563.24023 0.328341
5563.93018 0.330701
5564.62012 0.333062
5565.31982 0.335434
5566.00977 0.337795
5566.70996 0.34016
5567.39990 0.342534
5568.08984 0.344889
5568.79004 0.347265
5569.47998 0.349632
5570.18018 0.351982
5570.87988 0.354286
5571.56982 0.356591
5572.27002 0.358886
5572.95996 0.361181
5573.66016 0.363488
5574.35010 0.365785
5575.04980 0.368083
5575.75000 0.370392
5576.43994 0.372702
5577.14014 0.375002
5577.83984 0.377303
5578.52979 0.379615
5579.22998 0.381906
5579.91992 0.384218
5580.62012 0.385888
5581.31006 0.387479
5582.00977 0.389078
5582.70996 0.390663
5583.39990 0.392264
5584.10010 0.393866
5584.79980 0.39546
5585.50000 0.397063
5586.18994 0.398658
5586.89014 0.400261
5587.58984 0.401859
5588.29004 0.403457
5588.99023 0.405063
5589.68018 0.406663
5590.37988 0.407747
5591.08008 0.408405
5591.77979 0.40906
5592.47021 0.409717
5593.16992 0.410376
5593.87012 0.411033
5594.56982 0.41169
5595.25977 0.412343
5595.95996 0.413004
5596.66016 0.413664
5597.35986 0.414323
5598.06006 0.414984
5598.75977 0.415642
5599.45996 0.416304
5600.16016 0.417206
5600.85010 0.418946
5601.56006 0.420695
5602.25000 0.422438
5602.95020 0.424181
5603.64990 0.425932
5604.35010 0.427677
5605.04980 0.429424
5605.75000 0.431178
5606.45020 0.432924
5607.14990 0.434672
5607.85010 0.43643
5608.54980 0.438179
5609.25000 0.439931
5609.95020 0.441689
5610.64990 0.443506
5611.35010 0.445329
5612.04980 0.447162
5612.75000 0.448987
5613.45020 0.450813
5614.14990 0.452648
5614.85010 0.454477
5615.54980 0.456306
5616.25977 0.458144
5616.95996 0.459974
5617.66016 0.461807
5618.35986 0.463649
5619.06006 0.46549
5619.77002 0.467334
5620.45996 0.469709
5621.16992 0.472388
5621.87012 0.475068
5622.56982 0.477723
5623.27002 0.480406
5623.97998 0.483088
5624.66992 0.485748
5625.37988 0.488433
5626.08008 0.49112
5626.77979 0.493784
5627.47998 0.496471
5628.18994 0.499162
5628.89014 0.501829
5629.58984 0.504521
5630.29980 0.506732
5630.99023 0.508264
5631.70020 0.509812
5632.39990 0.511359
5633.10010 0.512894
5633.81006 0.514443
5634.50977 0.515993
5635.20996 0.517531
5635.91992 0.519082
5636.62012 0.520634
5637.31982 0.522174
5638.02979 0.523727
5638.72998 0.52528
5639.43018 0.526822
5640.14014 0.528369
5640.85010 0.529877
5641.54980 0.531372
5642.25000 0.532883
5642.95996 0.534395
5643.66016 0.535893
5644.35986 0.537405
5645.06982 0.538918
5645.77002 0.54042
5646.47998 0.541934
5647.18994 0.543449
5647.89014 0.544952
5648.58984 0.54647
5649.29980 0.547988
5650.00000 0.549492
5650.70996 0.549942
5651.41016 0.550391
5652.12012 0.550837
5652.81982 0.551287
5653.52979 0.551738
5654.22998 0.552185
5654.93994 0.552636
5655.64990 0.553087
5656.35986 0.553538
5657.06006 0.553988
5657.77002 0.554438
5658.47998 0.55489
5659.18018 0.55534
5659.89014 0.555791
5660.58984 0.556895
5661.29980 0.558119
5662.00000 0.559344
5662.70996 0.560576
5663.41992 0.561803
5664.12012 0.563031
5664.83008 0.564265
5665.54004 0.565494
5666.25000 0.566723
5666.95020 0.567958
5667.66016 0.569189
5668.37012 0.57042
5669.08008 0.571657
5669.77979 0.572889
5670.49023 0.57442
5671.20020 0.576091
5671.91016 0.577757
5672.60986 0.579423
5673.31982 0.581099
5674.02979 0.582766
5674.74023 0.584435
5675.45020 0.586112
5676.16016 0.587782
5676.85986 0.589455
5677.56982 0.591134
5678.27979 0.592807
5678.99023 0.594483
5679.70020 0.596165
5680.41016 0.596893
5681.12012 0.596921
5681.83008 0.59695
5682.52979 0.596979
5683.24023 0.597007
5683.95020 0.597036
5684.66016 0.597065
5685.37012 0.597093
5686.08008 0.597122
5686.79004 0.597151
5687.50000 0.59718
5688.20996 0.597208
5688.91992 0.597237
5689.62988 0.597265
5690.33984 0.597048
5691.04980 0.596566
5691.75977 0.596083
5692.47021 0.595599
5693.18994 0.595114
5693.89990 0.594629
5694.60010 0.594149
5695.31982 0.593664
5696.02979 0.593178
5696.74023 0.592696
5697.45020 0.59221
5698.16016 0.591726
5698.87012 0.59124
5699.58008 0.590754
5700.29980 0.590081
5701.00977 0.589155
5701.72021 0.588222
5702.43018 0.587287
5703.14014 0.586361
5703.85010 0.585424
5704.56006 0.584492
5705.27002 0.583559
5705.99023 0.582621
5706.70020 0.581684
5707.41016 0.580753
5708.12988 0.579812
5708.83984 0.578872
5709.54980 0.57794
5710.25977 0.577702
5710.97998 0.578663
5711.68994 0.579624
5712.39990 0.58059
5713.12012 0.581556
5713.83008 0.582514
5714.54004 0.583482
5715.25977 0.58445
5715.97021 0.585412
5716.68018 0.586381
5717.39014 0.587346
5718.10986 0.588312
5718.81982 0.589283
5719.54004 0.590255
5720.25000 0.591511
5720.95996 0.593326
5721.68018 0.595146
5722.39014 0.596948
5723.10986 0.598767
5723.81982 0.600578
5724.52979 0.602389
5725.25000 0.60421
5725.97021 0.606032
5726.68018 0.607838
5727.39014 0.609661
5728.10986 0.611485
5728.81982 0.613293
5729.54004 0.615117
5730.25000 0.617032
5730.97021 0.619144
5731.68994 0.621239
5732.39990 0.623335
5733.12012 0.625442
5733.83008 0.627541
5734.54980 0.629641
5735.27002 0.631752
5735.97998 0.633855
5736.68994 0.635959
5737.41016 0.638075
5738.12988 0.640182
5738.83984 0.642291
5739.56006 0.64441
5740.27979 0.64618
5740.99023 0.647412
5741.70996 0.648653
5742.43018 0.649886
5743.14014 0.651121
5743.85986 0.652361
5744.58008 0.653596
5745.29004 0.654832
5746.00977 0.656074
5746.72998 0.657312
5747.43994 0.658549
5748.16016 0.659794
5748.87988 0.661032
5749.60010 0.662271
5750.31982 0.662896
5751.02979 0.662729
5751.75000 0.662562
5752.47021 0.662393
5753.18994 0.662224
5753.89990 0.662056
5754.62012 0.661888
5755.33984 0.66172
5756.06006 0.661551
5756.77979 0.661383
5757.50000 0.661214
5758.20996 0.661045
5758.93018 0.660875
5759.64990 0.660708
5760.37012 0.660513
5761.08984 0.660292
5761.81006 0.660073
5762.52979 0.659854
5763.25000 0.659634
5763.97021 0.659413
5764.68994 0.659194
5765.41016 0.658973
5766.12012 0.658754
5766.83984 0.658535
5767.56006 0.658315
5768.27979 0.658096
5769.00977 0.657875
5769.72998 0.657655
5770.45020 0.657799
5771.16992 0.658167
5771.89014 0.658531
5772.60986 0.658899
5773.33008 0.659268
5774.04980 0.659633
5774.77002 0.660001
5775.49023 0.66037
5776.20996 0.660736
5776.93018 0.661105
5777.66016 0.661476
5778.37012 0.661843
5779.10010 0.662214
5779.81982 0.662585
5780.54004 0.663276
5781.25977 0.664085
5781.97998 0.664893
5782.70020 0.665697
5783.43018 0.666507
5784.14990 0.667318
5784.87012 0.668122
5785.58984 0.668934
5786.31006 0.669745
5787.02979 0.670549
5787.75977 0.671362
5788.47998 0.672175
5789.20020 0.672982
5789.91992 0.673796
5790.64990 0.675766
5791.37012 0.677851
5792.08984 0.679956
5792.81982 0.682063
5793.54004 0.684153
5794.25977 0.686262
5794.99023 0.688371
5795.70996 0.690464
5796.43018 0.692578
5797.16016 0.694693
5797.87988 0.69679
5798.60010 0.698906
5799.33008 0.701025
5800.04980 0.702989
5800.77002 0.70302
5801.50000 0.70305
5802.22021 0.70308
5802.95020 0.70311
5803.66992 0.703141
5804.39014 0.703171
5805.12012 0.703202
5805.85010 0.703232
5806.56982 0.703263
5807.29980 0.703294
5808.02002 0.703326
5808.75000 0.703357
5809.47021 0.703388
5810.18994 0.703411
5810.91992 0.70341
5811.64990 0.703409
5812.37012 0.703407
5813.10010 0.703407
5813.81982 0.703405
5814.54980 0.703404
5815.27002 0.703404
5816.00000 0.703404
5816.72021 0.703402
5817.45020 0.703402
5818.18018 0.703401
5818.89990 0.7034
5819.62988 0.703401
5820.35986 0.703392
5821.08008 0.703373
5821.81006 0.703354
5822.54004 0.703336
5823.25977 0.703318
5823.99023 0.7033
5824.72021 0.703282
5825.43994 0.703264
5826.16992 0.703245
5826.89990 0.703228
5827.62012 0.703209
5828.35010 0.703191
5829.08008 0.703174
5829.81006 0.703156
5830.54004 0.703943
5831.25977 0.705017
5831.99023 0.706093
5832.72021 0.707173
5833.45020 0.708249
5834.16992 0.709326
5834.89990 0.710409
5835.62988 0.711487
5836.35986 0.712565
5837.08984 0.713649
5837.81006 0.714728
5838.54004 0.715809
5839.27002 0.716896
5840.00000 0.717977
5840.72998 0.719341
5841.45996 0.720711
5842.18994 0.722077
5842.91992 0.723444
5843.64990 0.724817
5844.37988 0.726186
5845.10010 0.727554
5845.83984 0.728929
5846.56982 0.730306
5847.29980 0.731684
5848.02002 0.733051
5848.75977 0.734431
5849.49023 0.735805
5850.22021 0.736866
5850.95020 0.737181
5851.68018 0.737495
5852.41016 0.737808
5853.14014 0.738123
5853.87012 0.738439
5854.60010 0.738751
5855.33008 0.739066
5856.06006 0.739381
5856.79004 0.739697
5857.52002 0.740014
5858.25977 0.740331
5858.97998 0.740646
5859.72021 0.740963
5860.45020 0.740813
5861.18018 0.740371
5861.91016 0.739925
5862.64014 0.739482
5863.37012 0.739038
5864.10986 0.738591
5864.83984 0.738145
5865.56982 0.737702
5866.29980 0.737255
5867.04004 0.736807
5867.77002 0.736363
5868.50000 0.735915
5869.22998 0.735469
5869.95996 0.735023
5870.70020 0.734435
5871.43018 0.733839
5872.16016 0.733248
5872.89990 0.732652
5873.62988 0.732056
5874.35986 0.731464
5875.08984 0.730867
5875.83008 0.730274
5876.56006 0.729679
5877.29004 0.729082
5878.02979 0.728484
5878.75977 0.727892
5879.49023 0.727294
5880.22998 0.727166
5880.95996 0.728057
5881.70020 0.728956
5882.43018 0.729852
5883.16016 0.730748
5883.89990 0.731649
5884.64014 0.732551
5885.37012 0.733454
5886.10986 0.734352
5886.83984 0.735251
5887.58008 0.736156
5888.31006 0.737056
5889.04004 0.737958
5889.77979 0.738864
5890.52002 0.739782
5891.25000 0.740707
5891.99023 0.741638
5892.72021 0.742564
5893.45996 0.743492
5894.18994 0.744424
5894.93018 0.745353
5895.66016 0.746283
5896.39990 0.747217
5897.14014 0.748149
5897.87012 0.749081
5898.60986 0.750016
5899.33984 0.750949
5900.08008 0.7518
5900.81982 0.751952
5901.54980 0.752103
5902.29004 0.752253
5903.02979 0.752406
5903.75977 0.752558
5904.50000 0.75271
5905.24023 0.752862
5905.97021 0.753015
5906.70996 0.753167
5907.45020 0.75332
5908.18994 0.753473
5908.91992 0.753627
5909.66016 0.753781
5910.39990 0.753494
5911.12988 0.752832
5911.87012 0.752169
5912.60986 0.751507
5913.35010 0.750845
5914.08984 0.75018
5914.81982 0.749519
5915.56006 0.748856
5916.29980 0.74819
5917.04004 0.747528
5917.77979 0.746865
5918.52002 0.746199
5919.25977 0.745536
5919.99023 0.744873
5920.72998 0.744553
5921.47021 0.744237
5922.20996 0.743921
5922.95020 0.743605
5923.68994 0.743288
5924.43018 0.74297
5925.16992 0.742654
5925.91016 0.742335
5926.64990 0.742017
5927.39014 0.741702
5928.12988 0.741383
5928.87012 0.741066
5929.60986 0.740749
5930.35010 0.740287
5931.08984 0.739667
5931.83008 0.739047
5932.56982 0.738424
5933.31006 0.7378
5934.04980 0.737181
5934.79004 0.736558
5935.52979 0.735936
5936.27002 0.735315
5937.02002 0.73469
5937.75977 0.734068
5938.49023 0.733445
5939.24023 0.732818
5939.97998 0.732192
5940.72021 0.732986
5941.45996 0.733825
5942.20020 0.73466
5942.93994 0.735496
5943.68994 0.736336
5944.43018 0.737173
5945.16992 0.73801
5945.91016 0.738851
5946.66016 0.739694
5947.39990 0.740529
5948.14014 0.741372
5948.87988 0.742212
5949.62012 0.743053
5950.37012 0.744309
5951.10986 0.745981
5951.85010 0.747654
5952.60010 0.749335
5953.33984 0.751018
5954.08008 0.752688
5954.81982 0.754374
5955.56982 0.756051
5956.31006 0.75773
5957.04980 0.759419
5957.79980 0.761102
5958.54004 0.762787
5959.27979 0.764478
5960.02979 0.766153
5960.77002 0.767398
5961.52002 0.768655
5962.25977 0.769907
5963.00000 0.77116
5963.75000 0.772425
5964.50000 0.773681
5965.24023 0.774942
5965.99023 0.776199
5966.72998 0.777458
5967.47998 0.778722
5968.22021 0.779982
5968.95996 0.781244
5969.70996 0.782511
5970.45020 0.782825
5971.20020 0.782534
5971.95020 0.782242
5972.68994 0.78195
5973.43994 0.781659
5974.18018 0.781367
5974.93018 0.781076
5975.66992 0.780784
5976.41992 0.780491
5977.16016 0.780198
5977.91016 0.779906
5978.66016 0.779613
5979.39990 0.779321
5980.14990 0.778942
5980.89990 0.778209
5981.64014 0.777481
5982.39014 0.776752
5983.14014 0.77602
5983.87988 0.77529
5984.62988 0.774558
5985.37988 0.773823
5986.12012 0.773091
5986.87012 0.772359
5987.62012 0.771624
5988.35986 0.770892
5989.10986 0.770157
5989.85986 0.76942
5990.60986 0.768153
5991.35010 0.766764
5992.10010 0.765367
5992.85010 0.763977
5993.60010 0.762583
5994.35010 0.761184
5995.08984 0.759791
5995.83984 0.758394
5996.58984 0.756991
5997.33984 0.755595
5998.08984 0.754197
5998.83984 0.752791
5999.58984 0.751391
6000.33008 0.75094
6001.08008 0.751674
6001.83008 0.752406
6002.58008 0.753138
6003.33008 0.753874
6004.08008 0.75461
6004.83008 0.755342
6005.58008 0.756075
6006.33008 0.756812
6007.08008 0.757549
6007.83008 0.758281
6008.58008 0.759018
6009.33008 0.759752
6010.08008 0.760528
6010.83008 0.761647
6011.58008 0.762761
6012.33008 0.763876
6013.08008 0.764997
6013.83008 0.766119
6014.58008 0.76723
6015.33008 0.768353
6016.08008 0.769472
6016.83008 0.77059
6017.58984 0.771713
6018.33984 0.772832
6019.08984 0.773952
6019.83984 0.775078
6020.58984 0.777074
6021.33984 0.779288
6022.08984 0.781522
6022.83984 0.783748
6023.60010 0.785976
6024.35010 0.788213
6025.10010 0.790442
6025.85010 0.792674
6026.60010 0.794917
6027.35986 0.797162
6028.10986 0.799388
6028.85986 0.801634
6029.60986 0.803873
6030.35986 0.805419
6031.12012 0.806233
6031.87012 0.807044
6032.62012 0.807856
6033.37988 0.808671
6034.12988 0.809487
6034.87988 0.810296
6035.64014 0.811112
6036.39014 0.811926
6037.14014 0.812741
6037.89990 0.813558
6038.64990 0.814374
6039.39990 0.81519
6040.16016 0.815915
6040.91016 0.816283
6041.66016 0.81665
6042.41992 0.817019
6043.16992 0.817386
6043.93018 0.817756
6044.68994 0.818124
6045.43994 0.818492
6046.20020 0.818863
6046.95020 0.819231
6047.70020 0.819598
6048.45996 0.819968
6049.20996 0.820338
6049.97021 0.820706
6050.72998 0.820836
6051.47998 0.820956
6052.22998 0.821076
6052.99023 0.821197
6053.74023 0.821316
6054.50000 0.821437
6055.25977 0.821558
6056.00977 0.821677
6056.77002 0.821796
6057.52002 0.821916
6058.27979 0.822036
6059.02979 0.822156
6059.79004 0.822276
6060.54980 0.821839
6061.29980 0.82119
6062.06006 0.820537
6062.81982 0.81989
6063.56982 0.81924
6064.33008 0.818586
6065.08984 0.817935
6065.85010 0.817284
6066.60010 0.816629
6067.35986 0.815977
6068.12012 0.815326
6068.87988 0.814669
6069.62988 0.814015
6070.39014 0.813709
6071.14990 0.813732
6071.89990 0.813755
6072.66016 0.813779
6073.41992 0.813802
6074.18018 0.813824
6074.93994 0.813849
6075.70020 0.813871
6076.45020 0.813893
6077.20996 0.813916
6077.97021 0.813939
6078.72998 0.813961
6079.49023 0.813984
6080.25000 0.814162
6081.00977 0.814661
6081.75977 0.81516
6082.52002 0.815662
6083.27979 0.816161
6084.04004 0.816662
6084.79980 0.817164
6085.56006 0.817667
6086.31982 0.818167
6087.08008 0.818667
6087.83984 0.819173
6088.60010 0.819674
6089.35986 0.820175
6090.12012 0.820477
6090.87988 0.819727
6091.64014 0.818977
6092.39990 0.818222
6093.16016 0.81747
6093.91992 0.816719
6094.68018 0.815963
6095.43994 0.81521
6096.20020 0.814456
6096.97021 0.813699
6097.72998 0.812943
6098.49023 0.812187
6099.25000 0.811429
6100.00977 0.810657
6100.77002 0.808659
6101.52979 0.806654
6102.29004 0.804656
6103.06006 0.802655
6103.81982 0.800646
6104.58008 0.798643
6105.33984 0.796639
6106.10010 0.794624
6106.85986 0.792619
6107.62988 0.790612
6108.39014 0.788595
6109.14990 0.786584
6109.91016 0.784575
6110.68018 0.784355
6111.43994 0.784365
6112.20020 0.784374
6112.97021 0.784383
6113.72998 0.784393
6114.49023 0.784402
6115.25977 0.784411
6116.02002 0.78442
6116.77979 0.784428
6117.54980 0.784437
6118.31006 0.784446
6119.06982 0.784454
6119.83984 0.784463
6120.60010 0.7857
6121.35986 0.787275
6122.12988 0.788857
6122.89014 0.790433
6123.64990 0.792011
6124.41992 0.793602
6125.18994 0.795181
6125.95020 0.796767
6126.72021 0.798348
6127.47998 0.79993
6128.25000 0.801519
6129.00977 0.803102
6129.77979 0.804686
6130.54004 0.806649
6131.31006 0.808759
6132.06982 0.810869
6132.83984 0.81299
6133.60010 0.815103
6134.37012 0.817218
6135.14014 0.819342
6135.89990 0.821459
6136.66016 0.823577
6137.43018 0.825707
6138.20020 0.827826
6138.95996 0.829949
6139.72998 0.83208
6140.50000 0.834355
6141.25977 0.83671
6142.02979 0.839076
6142.79980 0.841435
6143.56006 0.843795
6144.33008 0.846166
6145.10010 0.848527
6145.85986 0.85089
6146.62988 0.853266
6147.39990 0.855633
6148.16016 0.858001
6148.93018 0.860382
6149.70020 0.862752
6150.47021 0.864059
6151.24023 0.864681
6152.00000 0.865302
6152.77002 0.865921
6153.54004 0.866544
6154.31006 0.867165
6155.06982 0.867786
6155.83984 0.868409
6156.60986 0.869031
6157.37988 0.869653
6158.14990 0.870277
6158.91992 0.8709
6159.68018 0.871523
6160.45020 0.871569
6161.22021 0.871212
6161.99023 0.870856
6162.75977 0.870499
6163.52979 0.870143
6164.29980 0.869786
6165.06982 0.869427
6165.83984 0.869069
6166.60986 0.86871
6167.37988 0.868352
6168.14990 0.867991
6168.91992 0.867632
6169.68994 0.867273
6170.45996 0.866099
6171.22998 0.864379
6172.00000 0.862658
6172.77002 0.860928
6173.54004 0.859204
6174.31006 0.85748
6175.08008 0.855746
6175.85010 0.854018
6176.62012 0.852289
6177.39990 0.850553
6178.16016 0.848822
6178.93994 0.84709
6179.70996 0.845349
6180.47998 0.844961
6181.25000 0.845395
6182.02002 0.845832
6182.79004 0.846268
6183.56006 0.846703
6184.33984 0.84714
6185.10986 0.847576
6185.87988 0.848014
6186.64990 0.848452
6187.41992 0.848888
6188.18994 0.849324
6188.97021 0.849762
6189.74023 0.850199
6190.50977 0.850396
6191.29004 0.850473
6192.06006 0.850551
6192.83008 0.850628
6193.60010 0.850704
6194.37988 0.85078
6195.14990 0.850856
6195.93018 0.850933
6196.70020 0.85101
6197.47021 0.851087
6198.24023 0.851163
6199.02002 0.851238
6199.79004 0.851314
6200.56982 0.852446
6201.33984 0.853962
6202.10986 0.855479
6202.89014 0.857003
6203.66016 0.85852
6204.43994 0.86004
6205.20996 0.861565
6205.99023 0.863092
6206.77002 0.864618
6207.54004 0.866139
6208.31006 0.867661
6209.08984 0.86919
6209.85986 0.870713
6210.64014 0.871676
6211.41016 0.872521
6212.18994 0.873361
6212.95996 0.874204
6213.74023 0.875048
6214.52002 0.87589
6215.29004 0.876732
6216.06982 0.877579
6216.83984 0.878421
6217.62012 0.879264
6218.39990 0.880112
6219.16992 0.880956
6219.93994 0.8818
6220.72021 0.882714
6221.50000 0.883629
6222.27002 0.884545
6223.04980 0.885466
6223.83008 0.886381
6224.60010 0.887298
6225.37988 0.88822
6226.16016 0.889138
6226.93994 0.890057
6227.70996 0.890979
6228.49023 0.891898
6229.27002 0.892817
6230.04980 0.893667
6230.81982 0.893365
6231.60010 0.893061
6232.37988 0.892756
6233.16016 0.892451
6233.93018 0.892147
6234.70996 0.891841
6235.49023 0.891536
6236.27002 0.891231
6237.04980 0.890924
6237.81982 0.890619
6238.60010 0.890314
6239.37988 0.890006
6240.16016 0.889706
6240.93994 0.889436
6241.72021 0.889164
6242.50000 0.888893
6243.27979 0.888621
6244.06006 0.888347
6244.83984 0.888075
6245.60986 0.887803
6246.39990 0.887529
6247.16992 0.887256
6247.95996 0.886983
6248.72998 0.886708
6249.52002 0.886433
6250.29980 0.886714
6251.06982 0.887895
6251.85986 0.889084
6252.64014 0.890269
6253.41992 0.891454
6254.20020 0.892643
6254.97998 0.893829
6255.75977 0.895015
6256.54004 0.896207
6257.31982 0.897394
6258.10010 0.898581
6258.87988 0.899774
6259.66016 0.900963
6260.43994 0.901766
6261.22998 0.902277
6262.00977 0.902785
6262.79004 0.903293
6263.56982 0.903805
6264.35010 0.904314
6265.12988 0.904822
6265.91992 0.905335
6266.70020 0.905845
6267.47998 0.906355
6268.25977 0.906868
6269.04980 0.907379
6269.83008 0.907889
6270.60986 0.907953
6271.39014 0.907889
6272.16992 0.907826
6272.95996 0.907762
6273.74023 0.907699
6274.52002 0.907635
6275.31006 0.90757
6276.08984 0.907505
6276.87012 0.907442
6277.66016 0.907377
6278.43994 0.907312
6279.22021 0.907247
6280.00977 0.907179
6280.79004 0.906862
6281.56982 0.906544
6282.35986 0.906225
6283.14014 0.905907
6283.93018 0.90559
6284.70996 0.905269
6285.50000 0.904951
6286.27979 0.904632
6287.06982 0.904313
6287.85010 0.903992
6288.62988 0.903674
6289.43018 0.903352
6290.20996 0.902429
6291.00000 0.899828
6291.77979 0.897239
6292.56006 0.894648
6293.35010 0.892045
6294.14014 0.889449
6294.91992 0.886855
6295.70996 0.884246
6296.49023 0.881647
6297.27979 0.879048
6298.06982 0.876436
6298.85010 0.873833
6299.64014 0.871231
6300.41992 0.868824
6301.20996 0.866605
6301.99023 0.864386
6302.77979 0.862158
6303.56982 0.859937
6304.35010 0.857715
6305.14014 0.855483
6305.93018 0.853257
6306.72021 0.851031
6307.50977 0.848794
6308.29004 0.846567
6309.08008 0.844338
6309.87012 0.842099
6310.64990 0.840964
6311.43994 0.840051
6312.22998 0.839133
6313.02002 0.838219
6313.79980 0.837304
6314.58984 0.836384
6315.37988 0.835469
6316.16992 0.834553
6316.95996 0.83363
6317.75000 0.832714
6318.52979 0.831795
6319.31982 0.830871
6320.10986 0.830279
6320.89990 0.831677
6321.68994 0.83308
6322.47998 0.834479
6323.27002 0.835878
6324.06006 0.837284
6324.85010 0.838685
6325.62988 0.840087
6326.43018 0.841495
6327.20996 0.842899
6328.00000 0.844302
6328.79980 0.845713
6329.58008 0.847119
6330.37012 0.84963
6331.16016 0.853397
6331.95996 0.857164
6332.75000 0.860916
6333.54004 0.864672
6334.33008 0.868448
6335.12012 0.872208
6335.91016 0.87597
6336.70020 0.879751
6337.49023 0.883517
6338.27979 0.887287
6339.06982 0.891076
6339.85986 0.89485
6340.64990 0.896537
6341.45020 0.897795
6342.24023 0.899049
6343.02979 0.900304
6343.81982 0.901565
6344.60986 0.902819
6345.39990 0.904074
6346.20020 0.905336
6346.99023 0.906593
6347.77979 0.90785
6348.56982 0.909113
6349.35986 0.910371
6350.16016 0.911807
6350.95020 0.913969
6351.74023 0.916122
6352.52979 0.918276
6353.33008 0.920442
6354.12012 0.922598
6354.91016 0.924757
6355.70996 0.926926
6356.50000 0.929086
6357.29004 0.931248
6358.08984 0.933418
6358.87988 0.935584
6359.66992 0.937749
6360.47021 0.938742
6361.25977 0.938914
6362.06006 0.939086
6362.85010 0.93926
6363.64990 0.939432
6364.43994 0.939604
6365.22998 0.939776
6366.02979 0.939949
6366.81982 0.940122
6367.62012 0.940294
6368.41016 0.940466
6369.20996 0.940638
6370.00000 0.940807
6370.79980 0.939684
6371.58984 0.938561
6372.39014 0.937432
6373.18994 0.936301
6373.97998 0.935169
6374.77979 0.934043
6375.56982 0.932915
6376.37012 0.931781
6377.16016 0.93065
6377.95996 0.929519
6378.75977 0.928383
6379.54980 0.927256
6380.35010 0.927068
6381.14990 0.928111
6381.93994 0.92915
6382.74023 0.93019
6383.54004 0.931236
6384.33008 0.932277
6385.12988 0.933317
6385.93018 0.934363
6386.72021 0.935402
6387.52002 0.93645
6388.31982 0.937499
6389.10986 0.938543
6389.91016 0.939586
6390.70996 0.94037
6391.50977 0.941117
6392.29980 0.941864
6393.10010 0.942616
6393.89990 0.943359
6394.70020 0.944109
6395.50000 0.944861
6396.29980 0.945609
6397.08984 0.946357
6397.89014 0.947111
6398.68994 0.947859
6399.49023 0.94861
6400.29004 0.949038
6401.08008 0.948886
6401.87988 0.948735
6402.68994 0.948584
6403.47998 0.948433
6404.27979 0.948281
6405.08008 0.948129
6405.87988 0.947977
6406.68018 0.947826
6407.47998 0.947674
6408.27979 0.947522
6409.08008 0.947367
6409.87988 0.947214
6410.68018 0.947316
6411.47998 0.947464
6412.27979 0.947612
6413.08008 0.947761
6413.87988 0.947908
6414.68018 0.948057
6415.47998 0.948205
6416.27979 0.948351
6417.08008 0.948499
6417.89014 0.948648
6418.68994 0.948794
6419.49023 0.948941
6420.29004 0.948501
6421.08984 0.947032
6421.89014 0.945561
6422.68994 0.944085
6423.50000 0.942614
6424.29980 0.941142
6425.10010 0.939664
6425.89990 0.938187
6426.70020 0.936714
6427.50977 0.935234
6428.31006 0.933759
6429.10986 0.932284
6429.91016 0.930802
6430.72021 0.929951
6431.52002 0.929177
6432.31982 0.928399
6433.12012 0.927625
6433.93018 0.926852
6434.72998 0.926073
6435.52979 0.925297
6436.33008 0.924521
6437.14014 0.923741
6437.93994 0.922964
6438.74023 0.922187
6439.54980 0.921407
6440.35010 0.921077
6441.14990 0.921318
6441.95996 0.921559
6442.77002 0.921801
6443.56982 0.922043
6444.37012 0.922285
6445.18018 0.922526
6445.97998 0.922769
6446.79004 0.92301
6447.58984 0.923251
6448.39014 0.923492
6449.20020 0.923735
6450.00977 0.923978
6450.81006 0.924234
6451.62012 0.924494
6452.41992 0.924752
6453.22998 0.92501
6454.02979 0.925267
6454.83984 0.925527
6455.64014 0.925784
6456.45020 0.926043
6457.25000 0.926302
6458.06982 0.926563
6458.87012 0.92682
6459.68018 0.927079
6460.47998 0.9283
6461.29004 0.930157
6462.10010 0.932017
6462.89990 0.933883
6463.70996 0.935743
6464.52002 0.937602
6465.31982 0.93947
6466.12988 0.941323
6466.93994 0.943192
6467.74023 0.945061
6468.54980 0.946924
6469.35986 0.948787
6470.16992 0.95054
6470.97021 0.951832
6471.77979 0.953126
6472.58984 0.954425
6473.39014 0.955712
6474.20020 0.957012
6475.00977 0.958314
6475.81982 0.95961
6476.62988 0.960906
6477.43994 0.962208
6478.25000 0.963505
6479.04980 0.964803
6479.85986 0.966108
6480.66992 0.965426
6481.47998 0.964333
6482.29004 0.963239
6483.10010 0.962148
6483.91016 0.961056
6484.72021 0.959961
6485.52979 0.95887
6486.33008 0.957778
6487.14990 0.956682
6487.95020 0.955593
6488.75977 0.954496
6489.56982 0.953398
6490.37988 0.951838
6491.18994 0.949766
6492.00977 0.947683
6492.81006 0.945605
6493.62012 0.943529
6494.43994 0.941444
6495.24023 0.939373
6496.06006 0.937286
6496.87012 0.935196
6497.68018 0.933123
6498.49023 0.931032
6499.29980 0.92894
6500.10986 0.926744
6500.91992 0.923842
6501.72998 0.920923
6502.54980 0.918002
6503.35986 0.915094
6504.16992 0.912185
6504.97998 0.909258
6505.79980 0.906346
6506.60986 0.903431
6507.41992 0.900501
6508.22998 0.897583
6509.04004 0.894664
6509.85986 0.891731
6510.66992 0.890469
6511.47998 0.889562
6512.29980 0.888651
6513.10986 0.887744
6513.91992 0.886836
6514.72998 0.885925
6515.54980 0.885016
6516.35986 0.884106
6517.16992 0.883193
6517.97998 0.882282
6518.79980 0.881373
6519.60986 0.880459
6520.43018 0.880247
6521.24023 0.88067
6522.06006 0.881095
6522.87012 0.881518
6523.68018 0.88194
6524.50000 0.882365
6525.31006 0.882789
6526.12012 0.883212
6526.93994 0.883636
6527.75000 0.88406
6528.56982 0.884483
6529.39014 0.884909
6530.20020 0.885448
6531.00977 0.886341
6531.83008 0.887239
6532.64014 0.888133
6533.45996 0.889028
6534.27979 0.889926
6535.08984 0.890821
6535.89990 0.891716
6536.72021 0.892617
6537.54004 0.893514
6538.35010 0.89441
6539.16992 0.895311
6539.97998 0.896207
6540.79980 0.899703
6541.62012 0.903263
6542.43994 0.906807
6543.25000 0.910356
6544.06982 0.91392
6544.89014 0.91749
6545.70996 0.92106
6546.52002 0.924601
6547.33984 0.928176
6548.16016 0.931755
6548.97021 0.935304
6549.79004 0.938883
6550.60986 0.940655
6551.43018 0.9418
6552.24023 0.942944
6553.06006 0.944096
6553.87988 0.945237
6554.70020 0.946389
6555.52002 0.94754
6556.33008 0.948682
6557.14990 0.949836
6557.97021 0.950988
6558.79004 0.952137
6559.60986 0.953285
6560.43018 0.953986
6561.24023 0.954267
6562.06006 0.954549
6562.89014 0.954834
6563.70020 0.955116
6564.52002 0.9554
6565.33984 0.955684
6566.16016 0.955967
6566.97998 0.956249
6567.79980 0.956533
6568.62012 0.956815
6569.43994 0.9571
6570.25977 0.957104
6571.08008 0.956507
6571.89990 0.955902
6572.72021 0.9553
6573.54004 0.954699
6574.35986 0.954098
6575.18018 0.953495
6576.00000 0.952896
6576.81982 0.952292
6577.64990 0.951687
6578.45996 0.951088
6579.27979 0.950483
6580.10986 0.950127
6580.93018 0.951428
6581.75000 0.952726
6582.56982 0.954033
6583.39014 0.955329
6584.20996 0.956637
6585.04004 0.957945
6585.85010 0.959241
6586.68018 0.960549
6587.50000 0.961859
6588.33008 0.96317
6589.14990 0.964474
6589.97021 0.965779
6590.79004 0.965364
6591.62012 0.964882
6592.43994 0.964401
6593.25977 0.963918
6594.08008 0.963435
6594.91016 0.962955
6595.72998 0.962472
6596.54980 0.961989
6597.37988 0.961506
6598.20020 0.961022
6599.02002 0.960539
6599.85010 0.960054
6600.66992 0.961632
6601.49023 0.963673
6602.31982 0.965715
6603.14014 0.967765
6603.97021 0.969809
6604.79004 0.971853
6605.62012 0.973908
6606.43994 0.975955
6607.25977 0.978002
6608.08984 0.980058
6608.91016 0.982107
6609.74023 0.984158
6610.56006 0.984889
6611.39014 0.985004
6612.20996 0.985119
6613.04004 0.985236
6613.85986 0.985349
6614.68994 0.985465
6615.52002 0.985582
6616.33984 0.985698
6617.16992 0.985812
6617.99023 0.985927
6618.81982 0.986043
6619.64014 0.986159
6620.47021 0.986079
6621.29980 0.985852
6622.12012 0.985625
6622.95020 0.985397
6623.77979 0.98517
6624.60010 0.984944
6625.43018 0.984716
6626.25977 0.984488
6627.08008 0.984262
6627.91016 0.984032
6628.74023 0.983805
6629.56006 0.983578
6630.39990 0.983658
6631.22021 0.984078
6632.06006 0.984501
6632.87988 0.984918
6633.70996 0.98534
6634.54004 0.985762
6635.35986 0.986181
6636.18994 0.986602
6637.02002 0.987023
6637.85010 0.987443
6638.68018 0.987865
6639.50977 0.988289
6640.33008 0.987765
6641.16016 0.985827
6641.99023 0.983887
6642.81982 0.981956
6643.64990 0.980024
6644.47998 0.978084
6645.31006 0.976159
6646.14014 0.974217
6646.97021 0.972272
6647.79980 0.970345
6648.62988 0.968401
6649.45996 0.966455
6650.29004 0.965286
6651.12012 0.965561
6651.95020 0.965837
6652.77002 0.966111
6653.60986 0.966389
6654.43994 0.966666
6655.27002 0.96694
6656.10010 0.967217
6656.93018 0.967492
6657.75977 0.967769
6658.58984 0.968045
6659.43018 0.968322
6660.25000 0.968684
6661.08984 0.969249
6661.91992 0.969817
6662.75000 0.970379
6663.58008 0.970946
6664.41016 0.971513
6665.24023 0.972079
6666.06982 0.972645
6666.91016 0.973213
6667.74023 0.973775
6668.56982 0.974344
6669.41016 0.974912
6670.22998 0.975669
6671.06982 0.976927
6671.89990 0.978184
6672.72998 0.979438
6673.56982 0.980691
6674.39990 0.98195
6675.22998 0.983198
6676.06982 0.984464
6676.89990 0.985718
6677.74023 0.986978
6678.56982 0.988233
6679.39990 0.989488
6680.24023 0.990552
6681.06982 0.99111
6681.89990 0.991668
6682.74023 0.992229
6683.56982 0.992789
6684.39990 0.993348
6685.24023 0.99391
6686.06982 0.99447
6686.91016 0.995029
6687.74023 0.995591
6688.58008 0.996152
6689.41016 0.996713
6690.25000 0.996714
6691.08008 0.995392
6691.91992 0.994072
6692.75977 0.992743
6693.58984 0.991421
6694.41992 0.990097
6695.25977 0.988768
6696.10010 0.987444
6696.93018 0.986121
6697.77002 0.984792
6698.60010 0.983465
6699.43994 0.982138
6700.27979 0.981123
6701.10986 0.980756
6701.95020 0.980388
6702.79004 0.980019
6703.62012 0.979651
6704.45996 0.979283
6705.29980 0.978914
6706.12988 0.978547
6706.97021 0.978178
6707.81006 0.97781
6708.64014 0.977441
6709.47998 0.977073
6710.31982 0.976225
6711.14990 0.974598
6711.99023 0.97297
6712.83008 0.971339
6713.66992 0.969709
6714.50000 0.968081
6715.35010 0.966444
6716.18018 0.964812
6717.02002 0.96318
6717.85986 0.961539
6718.70020 0.959905
6719.52979 0.95827
6720.37988 0.957671
6721.22021 0.958368
6722.06006 0.959063
6722.89014 0.959752
6723.72998 0.960447
6724.56982 0.961143
6725.41016 0.961837
6726.25000 0.962531
6727.08984 0.963229
6727.93018 0.963919
6728.77002 0.964618
6729.60986 0.965316
6730.45020 0.965874
6731.29004 0.966321
6732.12988 0.966767
6732.97021 0.967213
6733.81006 0.967658
6734.64990 0.968105
6735.49023 0.968548
6736.33008 0.968995
6737.18018 0.969442
6738.00977 0.969886
6738.85010 0.970333
6739.70020 0.970781
6740.54004 0.971611
6741.37988 0.972655
6742.22021 0.973703
6743.06006 0.974742
6743.89990 0.975795
6744.75000 0.976844
6745.58008 0.977885
6746.43018 0.978936
6747.27002 0.979988
6748.10986 0.981036
6748.95020 0.982082
6749.79980 0.983135
6750.64014 0.98445
6751.47998 0.985865
6752.33008 0.987279
6753.16016 0.988681
6754.00977 0.990098
6754.85010 0.991512
6755.70020 0.992923
6756.54004 0.994335
6757.39014 0.995753
6758.22021 0.99716
6759.06982 0.99858
6759.91992 1.0
6760.75000 0.999745
6761.60010 0.999297
6762.45020 0.998849
6763.29004 0.998403
6764.12988 0.997957
6764.97998 0.997509
6765.83008 0.997062
6766.66992 0.996616
6767.50977 0.996169
6768.35986 0.995721
6769.20020 0.995274
6770.04980 0.994814
6770.89990 0.99412
6771.74023 0.993431
6772.58008 0.992742
6773.43018 0.992048
6774.27002 0.991357
6775.12012 0.990666
6775.97021 0.98997
6776.81006 0.989279
6777.64990 0.988586
6778.50000 0.98789
6779.35010 0.987197
6780.18994 0.98663
6781.04004 0.986488
6781.89014 0.986348
6782.72998 0.986207
6783.58008 0.986064
6784.43018 0.985923
6785.27002 0.985782
6786.12012 0.985638
6786.97021 0.985498
6787.81006 0.985355
6788.66016 0.985212
6789.50977 0.98507
6790.35010 0.98483
6791.20020 0.984454
6792.04980 0.984079
6792.89990 0.983702
6793.75000 0.983325
6794.60010 0.982949
6795.43994 0.982573
6796.29004 0.982195
6797.14014 0.981818
6797.99023 0.981442
6798.83984 0.981065
6799.68994 0.980688
6800.52979 0.981374
6801.37988 0.982696
6802.22998 0.984014
6803.08008 0.985331
6803.93018 0.986657
6804.77979 0.987975
6805.62988 0.989294
6806.47998 0.990618
6807.33008 0.99194
6808.18018 0.993259
6809.02979 0.994585
6809.87988 0.995907
6810.72998 0.99485
6811.58008 0.993405
6812.43018 0.991945
6813.27979 0.990487
6814.12988 0.989042
6814.97998 0.987583
6815.83008 0.986123
6816.68018 0.984676
6817.52979 0.983214
6818.39014 0.981752
6819.22998 0.980305
6820.08984 0.978967
6820.93994 0.978718
6821.79004 0.978473
6822.64014 0.978225
6823.49023 0.977977
6824.33984 0.977731
6825.18994 0.977483
6826.04980 0.977235
6826.89990 0.976988
6827.75000 0.97674
6828.60010 0.976491
6829.45020 0.976245
6830.31006 0.975782
6831.16016 0.974939
6832.00977 0.974105
6832.85986 0.973264
6833.72021 0.972421
6834.56982 0.971585
6835.41992 0.970742
6836.27979 0.969898
6837.12988 0.969062
6837.97998 0.968218
6838.83984 0.967372
6839.68994 0.966536
6840.54004 0.965643
6841.39990 0.964723
6842.25000 0.96381
6843.10010 0.962889
6843.95996 0.961968
6844.81006 0.961054
6845.66992 0.960134
6846.52002 0.959212
6847.37988 0.958298
6848.22998 0.957377
6849.08984 0.956456
6849.93994 0.95554
6850.79980 0.956103
6851.64990 0.956782
6852.50000 0.957454
6853.35986 0.958132
6854.22021 0.958812
6855.06982 0.959484
6855.93018 0.960165
6856.79004 0.960842
6857.64990 0.961522
6858.50000 0.962198
6859.35010 0.962875
6860.20996 0.963355
6861.06982 0.963221
6861.91992 0.963087
6862.77979 0.962953
6863.64014 0.962819
6864.49023 0.962685
6865.35010 0.96255
6866.20996 0.962415
6867.06006 0.962282
6867.91992 0.962146
6868.77979 0.962011
6869.62988 0.961877
6870.49023 0.962094
6871.35010 0.96257
6872.20996 0.963046
6873.06982 0.963525
6873.91992 0.964003
6874.77979 0.964479
6875.64014 0.96496
6876.50000 0.965437
6877.35010 0.965914
6878.22021 0.966394
6879.06982 0.96687
6879.93018 0.967348
6880.79004 0.967049
6881.64990 0.96668
6882.50977 0.966312
6883.37012 0.965942
6884.22998 0.965573
6885.08008 0.965204
6885.93994 0.964834
6886.79980 0.964464
6887.66016 0.964093
6888.52002 0.963721
6889.37988 0.963352
6890.24023 0.962806
6891.10010 0.961804
6891.95996 0.960805
6892.81982 0.959808
6893.68018 0.958805
6894.54004 0.957804
6895.39990 0.956805
6896.27002 0.955802
6897.12012 0.954803
6897.97998 0.953801
6898.85010 0.952796
6899.70996 0.951796
6900.56982 0.951065
6901.43018 0.950468
6902.29980 0.949872
6903.16016 0.949275
6904.02002 0.948682
6904.87988 0.948086
6905.74023 0.947487
6906.60010 0.946895
6907.47021 0.946298
6908.33008 0.945701
6909.18994 0.945107
6910.04980 0.944558
6910.91992 0.944765
6911.77002 0.944967
6912.64014 0.945172
6913.50977 0.945378
6914.35986 0.945581
6915.22998 0.945785
6916.08984 0.945991
6916.95020 0.946194
6917.81982 0.946399
6918.68994 0.946603
6919.54004 0.946805
6920.41016 0.947456
6921.27002 0.948605
6922.12988 0.949745
6923.00000 0.950895
6923.87012 0.952045
6924.72998 0.953184
6925.58984 0.954335
6926.45996 0.955486
6927.31982 0.956626
6928.18994 0.957776
6929.04980 0.958928
6929.91016 0.960068
6930.77979 0.960306
6931.64990 0.960443
6932.50977 0.960579
6933.37988 0.960716
6934.24023 0.960852
6935.10010 0.960987
6935.97021 0.961123
6936.83984 0.961258
6937.70020 0.961392
6938.56982 0.961527
6939.43994 0.961663
6940.29980 0.961493
6941.16992 0.960744
6942.04004 0.959993
6942.89990 0.959251
6943.77002 0.958501
6944.64014 0.957749
6945.50000 0.957004
6946.37012 0.956252
6947.24023 0.9555
6948.10986 0.954745
6948.97021 0.953997
6949.83984 0.953244
6950.70996 0.951734
6951.56982 0.950057
6952.43994 0.948381
6953.31006 0.946698
6954.18018 0.945021
6955.04980 0.943344
6955.91992 0.941658
6956.77979 0.939981
6957.64990 0.938303
6958.52002 0.936618
6959.39014 0.934938
6960.25977 0.933062
6961.12988 0.930703
6961.99023 0.928352
6962.85986 0.926003
6963.72998 0.923643
6964.60010 0.921292
6965.47021 0.918939
6966.33984 0.916577
6967.20996 0.914225
6968.08008 0.911871
6968.95020 0.909508
6969.81982 0.907154
6970.68994 0.904771
6971.56006 0.902371
6972.43018 0.899981
6973.29980 0.897589
6974.16992 0.895187
6975.04004 0.892792
6975.91016 0.8904
6976.77979 0.887993
6977.64990 0.885598
6978.52002 0.883201
6979.39014 0.880791
6980.25977 0.878058
6981.12988 0.874552
6982.00977 0.87103
6982.87988 0.867521
6983.75000 0.864009
6984.62012 0.860481
6985.49023 0.856965
6986.35986 0.853447
6987.24023 0.849913
6988.10986 0.846394
6988.97998 0.84287
6989.85010 0.839332
6990.72998 0.834107
6991.60010 0.828536
6992.47021 0.82294
6993.33984 0.817365
6994.22021 0.811743
6995.08984 0.806188
6995.97021 0.800585
6996.83984 0.794979
6997.70996 0.789421
6998.58984 0.783811
6999.45996 0.778197
7000.33008 0.770462
7001.20996 0.759077
7002.08008 0.747691
7002.95020 0.736408
7003.83008 0.725024
7004.70020 0.713631
7005.56982 0.70234
7006.45020 0.690948
7007.33008 0.679556
7008.20020 0.668266
7009.06982 0.656867
7009.95020 0.645468
7010.81982 0.630732
7011.70020 0.615662
7012.58008 0.60058
7013.45020 0.585631
7014.31982 0.570546
7015.20020 0.555461
7016.06982 0.5405
7016.95020 0.525411
7017.83008 0.510314
7018.70020 0.495349
7019.58008 0.480241
7020.45996 0.466664
7021.33008 0.454585
7022.20996 0.442396
7023.08984 0.430205
7023.95996 0.418114
7024.83984 0.405913
7025.72021 0.393709
7026.58984 0.381611
7027.47021 0.369404
7028.35010 0.357188
7029.22021 0.345079
7030.10010 0.333281
7030.97998 0.324773
7031.85010 0.316334
7032.72998 0.307823
7033.60986 0.299307
7034.47998 0.290864
7035.37012 0.28234
7036.25000 0.27382
7037.12012 0.265368
7038.00000 0.25684
7038.87988 0.248306
7039.75977 0.239851
7040.64014 0.233459
7041.52002 0.227952
7042.39990 0.222421
7043.27979 0.216914
7044.14990 0.211403
7045.04004 0.205867
7045.91016 0.200356
7046.79004 0.194845
7047.66992 0.189306
7048.54980 0.183792
7049.43018 0.178277
7050.31006 0.172918
7051.18994 0.167909
7052.06982 0.162897
7052.95020 0.157862
7053.83008 0.152849
7054.70996 0.147833
7055.60010 0.142797
7056.47021 0.13778
7057.35010 0.132763
7058.24023 0.127722
7059.12012 0.122701
7060.00000 0.117683
7060.87988 0.113164
7061.75977 0.108664
7062.64014 0.104168
7063.52002 0.099652
7064.39990 0.0951537
7065.27979 0.0906559
7066.16992 0.0861358
7067.04980 0.0816385
7067.93018 0.077139
7068.81006 0.0726199
7069.70020 0.0681211
7070.58008 0.0647341
7071.45996 0.0619179
7072.33984 0.0591138
7073.22998 0.0563092
7074.10986 0.0534918
7074.99023 0.050685
7075.87012 0.0478777
7076.75977 0.0450577
7077.64014 0.0422497
7078.52002 0.0394413
7079.41016 0.0366186
7080.29004 0.034245
7081.16992 0.0327548
7082.06006 0.0312579
7082.93994 0.0297666
7083.83008 0.028275
7084.70996 0.0267766
7085.60010 0.0252847
7086.47998 0.0237926
7087.37012 0.0222928
7088.25000 0.0207929
7089.14014 0.0192928
7090.02002 0.0178223
7090.91016 0.0170982
7091.79980 0.0163737
7092.68018 0.0156557
7093.56006 0.0149314
7094.45020 0.0142067
7095.33008 0.0134884
7096.22021 0.0127639
7097.10986 0.0120394
7097.99023 0.0113214
7098.87988 0.0105966
7099.77002 0.00987192
7100.64990 0.0094367
7101.52979 0.00910143
7102.41992 0.008766
7103.31006 0.0084337
7104.18994 0.00809827
7105.08008 0.00776265
7105.97021 0.00743019
7106.85010 0.00709458
7107.74023 0.00675899
7108.62988 0.00642636
7109.52002 0.00609078
7110.41016 0.00583031
7111.29004 0.00566121
7112.18018 0.0054906
7113.06982 0.00531996
7113.95020 0.0051508
7114.83984 0.00498004
7115.72998 0.00480925
7116.60986 0.00463995
7117.50977 0.00446904
7118.39990 0.00429819
7119.27979 0.00412874
7120.16992 0.0039749
7121.06006 0.00389318
7121.95020 0.00381219
7122.83984 0.00373044
7123.72998 0.00364867
7124.60986 0.0035676
7125.50977 0.00348575
7126.39014 0.0034043
7127.27979 0.00332278
7128.16992 0.00324089
7129.06006 0.00315894
7129.95020 0.00307773
7130.83984 0.00299556
7131.72998 0.00291338
7132.62012 0.0028319
7133.50977 0.00274966
7134.41016 0.00266742
7135.29980 0.00258517
7136.18994 0.00250328
7137.08008 0.00242139
7137.97021 0.00233909
7851.76709 0.0
