# %ECSV 0.9
# ---
# datatype:
# - {name: wavelength, unit: Angstrom, datatype: float32}
# - {name: response, datatype: float32}
# meta: !!omap
# - {band_name: F606W}
# - {group_name: ACS_HRC}
wavelength response
4150.55713 0.0
4611.72998 0.00248061
4612.31006 0.00257306
4612.89014 0.00266479
4613.47021 0.00275705
4614.04980 0.00284974
4614.62012 0.0029421
4615.20020 0.00303412
4615.77979 0.00312736
4616.35010 0.00321949
4616.93018 0.00331214
4617.50977 0.00340516
4618.08984 0.00349791
4618.66992 0.00359073
4619.25000 0.00368399
4619.83008 0.00377691
4620.41016 0.00403544
4620.99023 0.00436155
4621.56982 0.00468813
4622.14990 0.00501489
4622.72998 0.00534321
4623.29980 0.00566895
4623.87988 0.00599629
4624.45996 0.00632544
4625.04004 0.00665312
4625.62012 0.00697988
4626.20020 0.00731098
4626.77979 0.0076381
4627.35986 0.00796681
4627.93994 0.00829709
4628.52002 0.00862643
4629.10010 0.00895568
4629.68018 0.00928679
4630.25977 0.00953246
4630.83984 0.00967477
4631.41992 0.00981657
4632.00000 0.00995856
4632.58008 0.0101005
4633.16016 0.0102433
4633.74023 0.0103848
4634.31982 0.0105271
4634.89990 0.0106702
4635.47998 0.0108126
4636.06006 0.0109546
4636.64990 0.0110985
4637.22021 0.0112406
4637.81006 0.0113835
4638.39014 0.0115271
4638.97021 0.0116702
4639.54980 0.0118134
4640.12988 0.0120955
4640.70996 0.0128464
4641.29980 0.0136008
4641.87988 0.0143519
4642.45996 0.015104
4643.04004 0.0158572
4643.62012 0.0166133
4644.20020 0.0173636
4644.77979 0.018118
4645.37012 0.0188761
4645.95020 0.0196314
4646.52979 0.0203833
4647.10986 0.0211464
4647.68994 0.0218998
4648.27979 0.0226574
4648.85986 0.0234181
4649.43994 0.0241766
4650.02002 0.0249972
4650.60986 0.0272686
4651.18994 0.0295336
4651.77002 0.0317979
4652.35986 0.034075
4652.93994 0.0363439
4653.52002 0.0386122
4654.10986 0.0408951
4654.68994 0.0431565
4655.27002 0.0454324
4655.85010 0.0477172
4656.43994 0.0499957
4657.02002 0.0522756
4657.60986 0.0545663
4658.18994 0.0568391
4658.77002 0.0591227
4659.35986 0.0614172
4659.93994 0.0637055
4660.52002 0.0644013
4661.10986 0.0649155
4661.68994 0.065428
4662.27002 0.0659407
4662.85986 0.0664562
4663.43994 0.0669695
4664.02979 0.0674834
4664.62012 0.068
4665.20020 0.0685121
4665.77979 0.0690271
4666.37012 0.0695444
4666.95020 0.0700603
4667.54004 0.0705762
4668.12012 0.071095
4668.70020 0.0716092
4669.29004 0.0721263
4669.87988 0.0726463
4670.45996 0.0730227
4671.04980 0.0733613
4671.62988 0.0737016
4672.22021 0.0740405
4672.79980 0.0743798
4673.39014 0.0747207
4673.97021 0.0750604
4674.56006 0.0754006
4675.14990 0.075742
4675.72998 0.0760805
4676.31006 0.0764211
4676.89990 0.0767635
4677.49023 0.0771045
4678.06982 0.0774457
4678.66016 0.0777887
4679.24023 0.0781287
4679.83008 0.0784703
4680.41992 0.0816573
4681.00977 0.0859786
4681.58984 0.0903022
4682.18018 0.0946499
4682.77002 0.0989785
4683.35010 0.103313
4683.93994 0.107665
4684.52979 0.112004
4685.10986 0.116346
4685.70020 0.120709
4686.29004 0.125038
4686.87012 0.129391
4687.45996 0.133765
4688.04980 0.138119
4688.64014 0.14248
4689.22021 0.146843
4689.81006 0.151209
4690.39990 0.154398
4690.99023 0.157035
4691.56982 0.159662
4692.16016 0.16229
4692.75000 0.164934
4693.33984 0.167566
4693.93018 0.1702
4694.52002 0.172847
4695.10010 0.175486
4695.68994 0.178124
4696.27979 0.18078
4696.87012 0.18341
4697.45020 0.186056
4698.04980 0.188716
4698.62988 0.191364
4699.22021 0.194016
4699.81006 0.196667
4700.39990 0.196065
4700.99023 0.193904
4701.58008 0.19173
4702.16992 0.189567
4702.75000 0.187401
4703.35010 0.185224
4703.93994 0.183054
4704.52002 0.180883
4705.10986 0.178702
4705.70020 0.176529
4706.29004 0.174353
4706.89014 0.172166
4707.47021 0.169999
4708.06006 0.167819
4708.64990 0.165628
4709.24023 0.163446
4709.83008 0.161262
4710.41992 0.162194
4711.00977 0.164377
4711.60010 0.166563
4712.18994 0.16876
4712.77979 0.170949
4713.37012 0.173138
4713.97021 0.17534
4714.56006 0.177532
4715.14990 0.179728
4715.74023 0.181933
4716.33008 0.184131
4716.91992 0.18633
4717.50977 0.188541
4718.10010 0.190743
4718.68994 0.192936
4719.27979 0.195151
4719.87012 0.197358
4720.47021 0.203037
4721.06006 0.209661
4721.64990 0.216289
4722.24023 0.222926
4722.83008 0.229594
4723.41992 0.236234
4724.00977 0.242882
4724.60986 0.249567
4725.20020 0.256222
4725.79004 0.262882
4726.39014 0.269578
4726.97998 0.276252
4727.56982 0.282922
4728.16016 0.289636
4728.75000 0.29632
4729.33984 0.30298
4729.93994 0.309705
4730.52979 0.310219
4731.12012 0.310015
4731.72021 0.30981
4732.31006 0.309606
4732.89990 0.309401
4733.49023 0.309195
4734.08984 0.30899
4734.68018 0.308785
4735.27002 0.308578
4735.87012 0.308373
4736.45996 0.308167
4737.06006 0.30796
4737.64990 0.307754
4738.24023 0.307548
4738.83984 0.307341
4739.43018 0.307134
4740.02002 0.306835
4740.62012 0.30403
4741.20996 0.301236
4741.79980 0.298438
4742.39990 0.295638
4742.99023 0.292839
4743.58984 0.290036
4744.18018 0.287217
4744.77002 0.28441
4745.37012 0.281602
4745.97021 0.278779
4746.56006 0.275966
4747.14990 0.273153
4747.75000 0.270322
4748.35010 0.267504
4748.93994 0.264684
4749.54004 0.261849
4750.12988 0.260475
4750.72021 0.264312
4751.31982 0.268166
4751.91016 0.272007
4752.50977 0.275849
4753.10010 0.279697
4753.70020 0.283544
4754.29980 0.287397
4754.89014 0.291267
4755.49023 0.295124
4756.08008 0.298983
4756.68018 0.302863
4757.27979 0.306727
4757.87012 0.310596
4758.47021 0.314483
4759.06982 0.318356
4759.66016 0.322231
4760.25977 0.327856
4760.85010 0.335675
4761.45020 0.343536
4762.04980 0.351434
4762.64014 0.359299
4763.24023 0.367174
4763.83984 0.37506
4764.43018 0.382944
4765.02979 0.390833
4765.62988 0.398765
4766.22998 0.406669
4766.81982 0.414578
4767.41992 0.422524
4768.02002 0.430441
4768.60986 0.438371
4769.20996 0.446297
4769.81006 0.454267
4770.41016 0.455737
4771.00977 0.454192
4771.60010 0.452659
4772.20020 0.451119
4772.79980 0.449571
4773.39990 0.448029
4773.99023 0.446484
4774.58984 0.444939
4775.18994 0.443393
4775.79004 0.441847
4776.39014 0.440291
4776.97998 0.438742
4777.58008 0.437192
4778.18018 0.435634
4778.77979 0.434081
4779.37988 0.432527
4779.97998 0.430973
4780.58008 0.42712
4781.18018 0.423195
4781.77979 0.419252
4782.37988 0.415342
4782.97021 0.41141
4783.56982 0.407457
4784.16992 0.403521
4784.77002 0.399583
4785.37012 0.395623
4785.97021 0.391693
4786.56982 0.387746
4787.16992 0.38378
4787.77002 0.379827
4788.37012 0.375868
4788.97021 0.371892
4789.56982 0.367933
4790.16992 0.36613
4790.77002 0.369766
4791.37012 0.373387
4791.97021 0.37701
4792.56982 0.380652
4793.16992 0.384264
4793.77002 0.387896
4794.37988 0.391545
4794.97998 0.395181
4795.58008 0.398822
4796.18018 0.402477
4796.77979 0.406108
4797.37988 0.409753
4797.97998 0.413416
4798.58008 0.417068
4799.18018 0.420724
4799.77979 0.424395
4800.39014 0.430032
4800.97998 0.436746
4801.58984 0.443558
4802.18994 0.450306
4802.79004 0.45707
4803.39990 0.463858
4803.99023 0.470595
4804.60010 0.477369
4805.20020 0.484174
4805.79980 0.490956
4806.39990 0.497707
4807.00977 0.504555
4807.60986 0.511319
4808.20996 0.51812
4808.81006 0.524953
4809.41016 0.531755
4810.02002 0.538364
4810.62012 0.537613
4811.22021 0.536865
4811.81982 0.536119
4812.43018 0.535363
4813.02979 0.534614
4813.64014 0.533863
4814.24023 0.533109
4814.83984 0.532361
4815.43994 0.531609
4816.04980 0.530854
4816.64990 0.530101
4817.25000 0.529351
4817.85986 0.528592
4818.45996 0.527841
4819.06006 0.527086
4819.66992 0.526328
4820.27002 0.526223
4820.87988 0.526905
4821.47998 0.527592
4822.08984 0.528276
4822.68994 0.528956
4823.29980 0.529647
4823.89990 0.530331
4824.50000 0.531016
4825.10986 0.531705
4825.70996 0.532388
4826.31006 0.533074
4826.91992 0.533764
4827.52979 0.534452
4828.12988 0.535137
4828.74023 0.53583
4829.33984 0.536516
4829.93994 0.537205
4830.54980 0.539285
4831.16016 0.541496
4831.75977 0.543708
4832.37012 0.545933
4832.97021 0.548148
4833.56982 0.550357
4834.18994 0.552595
4834.79004 0.554814
4835.39990 0.557036
4836.00000 0.559268
4836.60986 0.561482
4837.20996 0.563709
4837.81982 0.565945
4838.43018 0.568175
4839.02979 0.570395
4839.64014 0.572644
4840.24023 0.574601
4840.85010 0.576172
4841.45996 0.577751
4842.06006 0.579325
4842.66992 0.580898
4843.27979 0.58248
4843.87988 0.584054
4844.49023 0.585626
4845.10010 0.587219
4845.70996 0.588798
4846.31006 0.590377
4846.91992 0.591964
4847.52979 0.593539
4848.12988 0.595122
4848.74023 0.596712
4849.35010 0.598297
4849.95020 0.599875
4850.56982 0.59963
4851.16992 0.599241
4851.77979 0.59885
4852.39014 0.598456
4853.00000 0.598064
4853.60010 0.597673
4854.20996 0.597279
4854.81982 0.596887
4855.43018 0.596496
4856.04004 0.596099
4856.64990 0.595704
4857.25977 0.59531
4857.85986 0.594917
4858.47021 0.594522
4859.08008 0.594126
4859.68994 0.593728
4860.29980 0.593827
4860.89990 0.59444
4861.52002 0.595062
4862.12012 0.595676
4862.72998 0.596292
4863.33984 0.596912
4863.95020 0.597528
4864.56006 0.598146
4865.16992 0.598767
4865.77979 0.599386
4866.39014 0.600001
4867.00000 0.600626
4867.60986 0.601246
4868.22021 0.601865
4868.83008 0.602485
4869.43994 0.603105
4870.04980 0.603753
4870.66016 0.604728
4871.27002 0.605701
4871.87988 0.606669
4872.49023 0.607651
4873.10010 0.608621
4873.70996 0.609595
4874.31982 0.610575
4874.93018 0.611552
4875.54004 0.612528
4876.16016 0.613509
4876.77002 0.614486
4877.37988 0.615459
4877.99023 0.616447
4878.60010 0.617425
4879.20996 0.618405
4879.81982 0.619385
4880.43018 0.617401
4881.04980 0.614209
4881.66016 0.611001
4882.27002 0.607805
4882.87988 0.604621
4883.49023 0.601391
4884.10010 0.598203
4884.72021 0.594996
4885.33008 0.591777
4885.93994 0.588566
4886.54980 0.585357
4887.16992 0.58213
4887.77979 0.578915
4888.39014 0.57571
4889.00000 0.572461
4889.62012 0.56924
4890.22998 0.566418
4890.83984 0.564272
4891.45020 0.562126
4892.06006 0.559978
4892.68018 0.557817
4893.29004 0.555666
4893.89990 0.553523
4894.52002 0.551349
4895.12988 0.549203
4895.74023 0.547045
4896.35986 0.544878
4896.97021 0.542717
4897.58008 0.540556
4898.20020 0.538383
4898.81006 0.536218
4899.41992 0.534063
4900.04004 0.532031
4900.66016 0.532064
4901.27002 0.532098
4901.87988 0.532131
4902.50000 0.532165
4903.10986 0.532198
4903.72998 0.532231
4904.33984 0.532264
4904.95020 0.532297
4905.56982 0.532331
4906.18018 0.532365
4906.79980 0.532398
4907.41016 0.532431
4908.02979 0.532463
4908.64014 0.532497
4909.25977 0.532531
4909.87012 0.532564
4910.47998 0.53348
4911.10010 0.534642
4911.72021 0.535794
4912.33984 0.536947
4912.95020 0.5381
4913.56006 0.539254
4914.18018 0.540409
4914.79980 0.54157
4915.41016 0.542722
4916.02979 0.543879
4916.64990 0.545047
4917.25977 0.546201
4917.87988 0.547361
4918.49023 0.548526
4919.10986 0.549687
4919.72998 0.550847
4920.33984 0.552658
4920.95996 0.554965
4921.56982 0.557286
4922.18994 0.559629
4922.81006 0.561952
4923.43018 0.564276
4924.04004 0.5666
4924.66016 0.568927
4925.27002 0.571254
4925.89990 0.573595
4926.50977 0.575915
4927.12012 0.578247
4927.75000 0.580601
4928.35986 0.582936
4928.97998 0.585263
4929.60010 0.587611
4930.22021 0.590072
4930.83008 0.592763
4931.45020 0.595469
4932.06982 0.598151
4932.68018 0.600848
4933.31006 0.603569
4933.91992 0.606269
4934.54004 0.608971
4935.16016 0.611674
4935.77979 0.614377
4936.39990 0.617082
4937.02002 0.619802
4937.62988 0.622499
4938.25000 0.625209
4938.87012 0.627944
4939.49023 0.630657
4940.10986 0.633103
4940.72998 0.634329
4941.35010 0.635551
4941.97021 0.636773
4942.58984 0.638
4943.20020 0.639218
4943.81982 0.640442
4944.43994 0.641676
4945.06006 0.642902
4945.68018 0.644127
4946.29980 0.645352
4946.91992 0.646579
4947.54004 0.647808
4948.16016 0.649043
4948.77979 0.650266
4949.39990 0.651496
4950.02002 0.652627
4950.64014 0.650966
4951.25977 0.649311
4951.87988 0.647642
4952.50000 0.645977
4953.12012 0.644312
4953.74023 0.64264
4954.35986 0.64098
4954.97998 0.639312
4955.60986 0.637627
4956.22998 0.635957
4956.85010 0.634284
4957.47021 0.632613
4958.08984 0.630938
4958.70996 0.629263
4959.33008 0.627579
4959.95020 0.625908
4960.56982 0.623461
4961.20020 0.62093
4961.81982 0.618416
4962.43994 0.615912
4963.06006 0.613386
4963.68018 0.610866
4964.31006 0.608348
4964.93018 0.605826
4965.54980 0.603301
4966.16992 0.600776
4966.79980 0.598228
4967.41992 0.5957
4968.04004 0.593168
4968.66016 0.590638
4969.27979 0.588104
4969.91016 0.585569
4970.52979 0.586259
4971.14990 0.587522
4971.77002 0.588788
4972.39990 0.590064
4973.02002 0.591329
4973.64014 0.592586
4974.27002 0.593865
4974.89014 0.595133
4975.50977 0.596401
4976.14014 0.597671
4976.75977 0.598942
4977.37988 0.600213
4978.00977 0.601496
4978.62988 0.602769
4979.25977 0.604042
4979.87988 0.605315
4980.50000 0.608002
4981.12988 0.61103
4981.75000 0.61406
4982.37012 0.61709
4983.00000 0.620121
4983.62988 0.623183
4984.25000 0.62622
4984.87012 0.629231
4985.50000 0.632297
4986.12012 0.635338
4986.75000 0.638384
4987.37012 0.641427
4988.00000 0.644474
4988.62012 0.647521
4989.25000 0.650599
4989.87012 0.653651
4990.50000 0.655268
4991.12012 0.656522
4991.75000 0.657777
4992.37012 0.659034
4993.00000 0.660291
4993.62012 0.661548
4994.25000 0.662806
4994.87988 0.664076
4995.50000 0.665335
4996.12012 0.666585
4996.75977 0.667858
4997.37988 0.66912
4998.00977 0.670382
4998.62988 0.671645
4999.25977 0.672908
4999.87988 0.674174
5000.50977 0.675138
5001.14014 0.676022
5001.77002 0.676907
5002.39014 0.677792
5003.02002 0.678678
5003.64990 0.679563
5004.27002 0.68045
5004.89990 0.681337
5005.52002 0.682224
5006.16016 0.683119
5006.77979 0.684008
5007.39990 0.684888
5008.04004 0.685784
5008.66016 0.686673
5009.29004 0.687563
5009.91992 0.688452
5010.54004 0.687692
5011.16992 0.686679
5011.79980 0.685658
5012.43018 0.684644
5013.06006 0.68363
5013.68994 0.682615
5014.31006 0.6816
5014.93994 0.680584
5015.56982 0.679567
5016.20020 0.678549
5016.81982 0.67753
5017.45996 0.676503
5018.08984 0.675483
5018.70996 0.674473
5019.33984 0.673443
5019.97021 0.672423
5020.60010 0.670071
5021.22998 0.667654
5021.85986 0.665234
5022.47998 0.662816
5023.12012 0.660373
5023.75000 0.657952
5024.37988 0.655528
5025.00977 0.653103
5025.64014 0.650675
5026.25977 0.648248
5026.89014 0.64582
5027.52002 0.643389
5028.14990 0.640956
5028.79004 0.638502
5029.41992 0.636066
5030.04004 0.63363
5030.68018 0.630822
5031.31006 0.628036
5031.93994 0.625249
5032.56006 0.622459
5033.18994 0.619669
5033.81982 0.616879
5034.45996 0.61406
5035.08984 0.611264
5035.72021 0.608469
5036.35010 0.605671
5036.97998 0.602873
5037.60986 0.600069
5038.24023 0.597267
5038.87012 0.594462
5039.50000 0.591655
5040.14014 0.589245
5040.77002 0.58833
5041.39990 0.587423
5042.02979 0.586498
5042.66016 0.585582
5043.29980 0.584664
5043.93018 0.583745
5044.56006 0.582827
5045.18994 0.581908
5045.83008 0.58098
5046.45996 0.580061
5047.08984 0.57914
5047.72021 0.578218
5048.35010 0.577296
5048.99023 0.576374
5049.62012 0.575451
5050.25000 0.574981
5050.87988 0.575202
5051.52002 0.575425
5052.14990 0.575646
5052.77979 0.575867
5053.41992 0.576091
5054.04980 0.576312
5054.68018 0.576533
5055.31006 0.576755
5055.95020 0.576978
5056.58008 0.5772
5057.22021 0.577424
5057.85010 0.577646
5058.47998 0.577866
5059.12012 0.578089
5059.75000 0.578312
5060.39014 0.581257
5061.02002 0.585957
5061.64990 0.590663
5062.29004 0.595368
5062.93018 0.600118
5063.56006 0.604829
5064.18994 0.609523
5064.83008 0.61426
5065.45996 0.618977
5066.10010 0.623699
5066.72998 0.628421
5067.35986 0.633147
5068.00000 0.637875
5068.62988 0.642607
5069.27002 0.647379
5069.89990 0.652094
5070.54004 0.653338
5071.18018 0.65395
5071.81006 0.654564
5072.43994 0.655177
5073.08008 0.65579
5073.72021 0.656404
5074.35010 0.657017
5074.99023 0.657637
5075.62012 0.658248
5076.25977 0.658865
5076.89990 0.65948
5077.52979 0.660096
5078.16992 0.660711
5078.79980 0.661327
5079.43994 0.661943
5080.06982 0.662724
5080.72021 0.664753
5081.35010 0.666756
5081.99023 0.668777
5082.62012 0.670791
5083.25977 0.672805
5083.89990 0.674818
5084.52979 0.676833
5085.16992 0.678851
5085.81006 0.680868
5086.45020 0.682896
5087.08008 0.684916
5087.72021 0.686947
5088.35986 0.688968
5089.00000 0.69099
5089.62988 0.693014
5090.27002 0.692848
5090.91016 0.689711
5091.54980 0.686574
5092.18994 0.683421
5092.81982 0.680279
5093.45996 0.67712
5094.10010 0.673977
5094.74023 0.670832
5095.37988 0.667683
5096.00977 0.664531
5096.64990 0.66138
5097.29004 0.658226
5097.93018 0.655059
5098.56982 0.651902
5099.20996 0.648729
5099.85010 0.64557
5100.49023 0.645056
5101.12012 0.645373
5101.75977 0.645689
5102.39990 0.646006
5103.04004 0.646322
5103.68018 0.646641
5104.31982 0.646958
5104.95996 0.647275
5105.60010 0.647594
5106.24023 0.647911
5106.87988 0.648228
5107.52002 0.648546
5108.16016 0.648865
5108.79980 0.649183
5109.43994 0.6495
5110.08008 0.649746
5110.72021 0.649475
5111.35986 0.649205
5112.00000 0.648935
5112.64014 0.648665
5113.27979 0.648394
5113.91992 0.648124
5114.56006 0.647853
5115.20020 0.647581
5115.85010 0.647308
5116.49023 0.647036
5117.12988 0.646765
5117.77002 0.646493
5118.41016 0.64622
5119.04980 0.645947
5119.68994 0.645675
5120.33984 0.645707
5120.97998 0.646021
5121.62012 0.646335
5122.25977 0.64665
5122.89990 0.646967
5123.54004 0.647281
5124.18994 0.647595
5124.83008 0.64791
5125.47021 0.648224
5126.10986 0.648539
5126.75000 0.648856
5127.39990 0.649171
5128.04004 0.649486
5128.68018 0.649801
5129.31982 0.650117
5129.97021 0.650432
5130.60986 0.652292
5131.25000 0.654222
5131.89990 0.656171
5132.54004 0.658111
5133.18018 0.660054
5133.81982 0.661997
5134.47021 0.663949
5135.10986 0.665893
5135.75000 0.66784
5136.39990 0.669786
5137.04004 0.671735
5137.68994 0.673692
5138.33008 0.675642
5138.97021 0.677593
5139.62012 0.679553
5140.25977 0.680935
5140.89990 0.681482
5141.54980 0.682028
5142.18994 0.682577
5142.83984 0.683122
5143.47998 0.683671
5144.12988 0.684217
5144.77002 0.684764
5145.41016 0.685311
5146.06006 0.685861
5146.70020 0.686406
5147.35010 0.686957
5147.99023 0.687506
5148.64014 0.688055
5149.27979 0.688606
5149.93018 0.689154
5150.56982 0.690974
5151.22021 0.692959
5151.87012 0.694938
5152.50977 0.696917
5153.16016 0.698898
5153.79980 0.700888
5154.45020 0.702861
5155.10010 0.704851
5155.74023 0.706835
5156.39014 0.708821
5157.02979 0.710807
5157.68018 0.712802
5158.31982 0.714779
5158.97021 0.716776
5159.62012 0.718767
5160.25977 0.718982
5160.91016 0.716588
5161.56006 0.714202
5162.20020 0.711814
5162.85010 0.709414
5163.50000 0.707025
5164.14990 0.704633
5164.79004 0.702241
5165.43994 0.699836
5166.08008 0.697452
5166.72998 0.695046
5167.37988 0.692647
5168.02979 0.690247
5168.66992 0.68785
5169.31982 0.685438
5169.97021 0.683043
5170.62012 0.682959
5171.27002 0.682994
5171.91016 0.68303
5172.56006 0.683065
5173.20996 0.6831
5173.85986 0.683135
5174.50977 0.68317
5175.16016 0.683204
5175.79980 0.68324
5176.45020 0.683274
5177.10010 0.683309
5177.75000 0.683343
5178.39990 0.683378
5179.04980 0.683412
5179.68994 0.683447
5180.33984 0.682852
5180.99023 0.681691
5181.64014 0.680541
5182.29004 0.679379
5182.93994 0.678221
5183.58984 0.677064
5184.24023 0.6759
5184.89014 0.67474
5185.54004 0.673579
5186.18994 0.672413
5186.83984 0.671252
5187.49023 0.67009
5188.14014 0.668927
5188.79004 0.667758
5189.43994 0.666598
5190.08984 0.666332
5190.74023 0.671665
5191.39014 0.677004
5192.04004 0.682343
5192.68994 0.687711
5193.33984 0.693032
5193.99023 0.698403
5194.64014 0.703755
5195.29004 0.709108
5195.95020 0.714484
5196.60010 0.719842
5197.25000 0.725206
5197.89990 0.73059
5198.54980 0.735954
5199.20020 0.741324
5199.85010 0.746695
5200.50000 0.745574
5201.14990 0.742551
5201.81006 0.739513
5202.45996 0.736485
5203.10986 0.733459
5203.77002 0.730413
5204.41992 0.727382
5205.06006 0.724361
5205.72021 0.721314
5206.37012 0.718279
5207.02002 0.71524
5207.66992 0.712201
5208.33008 0.709147
5208.97998 0.706107
5209.64014 0.70305
5210.29004 0.701861
5210.93994 0.703021
5211.58984 0.704183
5212.24023 0.705346
5212.89990 0.706509
5213.54980 0.707672
5214.20020 0.70884
5214.85986 0.710005
5215.50977 0.711174
5216.16992 0.712339
5216.81982 0.713498
5217.47021 0.714669
5218.12012 0.715835
5218.77979 0.717002
5219.43018 0.718168
5220.08984 0.718534
5220.74023 0.713704
5221.39990 0.708853
5222.04980 0.704022
5222.70020 0.699186
5223.35986 0.694348
5224.00977 0.689508
5224.66992 0.684668
5225.31982 0.679822
5225.97998 0.674956
5226.62988 0.670106
5227.29004 0.665232
5227.93994 0.660379
5228.60010 0.655547
5229.25000 0.65067
5229.91016 0.645809
5230.56006 0.64454
5231.22021 0.643867
5231.87012 0.643189
5232.52979 0.642515
5233.18994 0.641839
5233.83984 0.641164
5234.50000 0.640489
5235.14990 0.639813
5235.81006 0.639138
5236.45996 0.638462
5237.12012 0.637786
5237.77979 0.637106
5238.43018 0.636429
5239.08984 0.635748
5239.75000 0.63507
5240.39990 0.637723
5241.06006 0.642536
5241.70996 0.647326
5242.37012 0.652121
5243.02979 0.656916
5243.68994 0.661735
5244.33984 0.666534
5245.00000 0.67136
5245.66016 0.676163
5246.31006 0.680971
5246.97021 0.68578
5247.62988 0.690589
5248.27979 0.695401
5248.93994 0.700219
5249.60010 0.705055
5250.25977 0.706801
5250.91992 0.703815
5251.58008 0.700843
5252.22998 0.697882
5252.89014 0.694891
5253.54980 0.691914
5254.20996 0.688935
5254.85986 0.685955
5255.52002 0.68296
5256.18018 0.679977
5256.83984 0.676978
5257.50000 0.673993
5258.16016 0.671005
5258.81982 0.668016
5259.47998 0.665026
5260.14014 0.663442
5260.79004 0.667334
5261.45020 0.671248
5262.10986 0.675146
5262.77002 0.679059
5263.43018 0.682962
5264.08984 0.686846
5264.75000 0.690764
5265.41016 0.69467
5266.06982 0.698577
5266.72998 0.702485
5267.39014 0.706412
5268.04980 0.710324
5268.70996 0.714255
5269.37012 0.718167
5270.02979 0.721827
5270.68994 0.720313
5271.35010 0.718798
5272.00977 0.717274
5272.66992 0.715764
5273.33008 0.714239
5273.99023 0.712721
5274.66016 0.711195
5275.31006 0.709683
5275.97021 0.708162
5276.64014 0.706632
5277.29980 0.705109
5277.95996 0.703587
5278.62012 0.702062
5279.27979 0.70053
5279.93994 0.699006
5280.60986 0.701797
5281.27002 0.704972
5281.93018 0.70815
5282.58984 0.711328
5283.25000 0.71451
5283.91992 0.717706
5284.56982 0.720878
5285.24023 0.724075
5285.89990 0.72726
5286.56006 0.730462
5287.22021 0.733637
5287.89014 0.736829
5288.54980 0.740033
5289.20996 0.743227
5289.87988 0.746422
5290.54004 0.745476
5291.20020 0.743558
5291.85986 0.741645
5292.52979 0.739724
5293.18994 0.737809
5293.85010 0.735894
5294.52002 0.733978
5295.18018 0.73206
5295.85010 0.730134
5296.50977 0.728223
5297.16992 0.726295
5297.83984 0.724378
5298.50000 0.722447
5299.16016 0.720532
5299.81982 0.718609
5300.49023 0.717369
5301.14990 0.716379
5301.81982 0.715388
5302.47998 0.714396
5303.14990 0.713399
5303.81006 0.712406
5304.47998 0.711409
5305.14014 0.710416
5305.81006 0.709421
5306.47021 0.708425
5307.14014 0.70743
5307.79980 0.706431
5308.45996 0.705438
5309.12988 0.704441
5309.79980 0.703439
5310.45996 0.701357
5311.12988 0.698822
5311.79004 0.696274
5312.45996 0.693714
5313.12012 0.691165
5313.79004 0.688614
5314.45020 0.686062
5315.12012 0.683511
5315.79004 0.680943
5316.45996 0.678376
5317.12012 0.675819
5317.79004 0.673261
5318.45020 0.670701
5319.12012 0.66814
5319.79004 0.665567
5320.45020 0.667796
5321.12012 0.672315
5321.77979 0.676854
5322.45020 0.681395
5323.12012 0.685902
5323.77979 0.690426
5324.45020 0.694975
5325.12012 0.699504
5325.79004 0.704035
5326.45020 0.708568
5327.12012 0.713105
5327.79004 0.717664
5328.45996 0.722221
5329.12012 0.726762
5329.79004 0.731305
5330.45996 0.730722
5331.12988 0.727825
5331.79004 0.724925
5332.45996 0.722025
5333.12988 0.719123
5333.79980 0.716208
5334.47021 0.713292
5335.14014 0.710397
5335.79980 0.707489
5336.47021 0.704568
5337.14014 0.701658
5337.81006 0.698748
5338.47998 0.695836
5339.14990 0.692921
5339.81982 0.689992
5340.49023 0.69284
5341.16016 0.697827
5341.83008 0.702811
5342.49023 0.707796
5343.16016 0.712785
5343.83008 0.717777
5344.50000 0.722771
5345.16992 0.727766
5345.83984 0.732784
5346.50977 0.737803
5347.18018 0.742804
5347.85010 0.747786
5348.52002 0.752813
5349.18994 0.75782
5349.85986 0.762827
5350.52979 0.762981
5351.20020 0.761868
5351.87012 0.760747
5352.54980 0.759625
5353.22021 0.758508
5353.89014 0.757391
5354.56006 0.756274
5355.22998 0.755156
5355.89990 0.754037
5356.56982 0.752918
5357.24023 0.751797
5357.91016 0.75067
5358.58984 0.749545
5359.25977 0.748424
5359.91992 0.747306
5360.60010 0.746724
5361.27002 0.746212
5361.93994 0.7457
5362.60986 0.745188
5363.27979 0.744676
5363.95996 0.74416
5364.62988 0.743645
5365.29980 0.743131
5365.97021 0.742618
5366.64990 0.742104
5367.31982 0.741588
5367.99023 0.741073
5368.66016 0.74056
5369.33008 0.740046
5370.00977 0.739538
5370.68018 0.739828
5371.35986 0.740117
5372.02002 0.740405
5372.70020 0.740694
5373.37012 0.740983
5374.04980 0.741271
5374.72021 0.741559
5375.39014 0.741848
5376.06982 0.742139
5376.74023 0.742429
5377.41992 0.742719
5378.08984 0.743008
5378.75977 0.743297
5379.43994 0.743587
5380.10986 0.743599
5380.77979 0.742175
5381.45996 0.740752
5382.12988 0.739321
5382.81006 0.737891
5383.47998 0.736466
5384.14990 0.735046
5384.83008 0.733613
5385.50977 0.732185
5386.18018 0.730759
5386.85010 0.72933
5387.52979 0.727899
5388.20020 0.726463
5388.87988 0.725028
5389.56006 0.723594
5390.22998 0.721562
5390.91016 0.718388
5391.58008 0.715212
5392.25977 0.712031
5392.93018 0.708852
5393.60986 0.705671
5394.27979 0.702473
5394.95996 0.69929
5395.64014 0.696089
5396.31006 0.692916
5396.99023 0.689712
5397.66016 0.686524
5398.33984 0.683332
5399.02002 0.680138
5399.68994 0.676943
5400.37012 0.675175
5401.04980 0.67461
5401.72998 0.674044
5402.39990 0.67348
5403.08008 0.672915
5403.75000 0.672349
5404.43018 0.671783
5405.10986 0.671218
5405.77979 0.670651
5406.45996 0.670083
5407.14014 0.669517
5407.81982 0.668948
5408.49023 0.668384
5409.16992 0.667815
5409.85010 0.667246
5410.52979 0.669271
5411.20020 0.67203
5411.87988 0.67479
5412.56006 0.677563
5413.24023 0.680326
5413.91992 0.683098
5414.60010 0.685863
5415.27979 0.688628
5415.95020 0.691397
5416.62988 0.694163
5417.31006 0.696932
5417.99023 0.699701
5418.66992 0.702484
5419.35010 0.705256
5420.02979 0.708009
5420.70020 0.710262
5421.39014 0.712528
5422.06006 0.714785
5422.74023 0.717042
5423.41992 0.7193
5424.10010 0.721559
5424.77979 0.723829
5425.45996 0.726091
5426.14014 0.728355
5426.81982 0.730625
5427.50000 0.732889
5428.18018 0.735154
5428.85986 0.737419
5429.54004 0.739696
5430.22021 0.741789
5430.89990 0.743554
5431.58008 0.745312
5432.25977 0.74707
5432.93994 0.74883
5433.62988 0.750599
5434.31006 0.752361
5434.99023 0.754123
5435.66992 0.755886
5436.35010 0.757651
5437.02979 0.759422
5437.70996 0.761186
5438.39014 0.762952
5439.08008 0.764728
5439.75977 0.766495
5440.43994 0.768148
5441.12012 0.769736
5441.79980 0.771333
5442.47998 0.772915
5443.16992 0.774513
5443.85010 0.776105
5444.52979 0.777697
5445.20996 0.77929
5445.89014 0.78089
5446.58008 0.782485
5447.25977 0.78408
5447.93994 0.785676
5448.62012 0.787273
5449.31006 0.788878
5449.99023 0.790475
5450.66992 0.789917
5451.35986 0.78932
5452.04004 0.788722
5452.72021 0.788126
5453.39990 0.787529
5454.08984 0.786929
5454.77002 0.786335
5455.45020 0.785736
5456.14014 0.785139
5456.81982 0.78454
5457.50000 0.783942
5458.18994 0.783341
5458.87012 0.782744
5459.56006 0.782145
5460.24023 0.78186
5460.91992 0.782154
5461.60986 0.782448
5462.29004 0.782742
5462.97998 0.783038
5463.66016 0.783334
5464.35010 0.783628
5465.02979 0.783923
5465.72021 0.784219
5466.39990 0.784515
5467.08008 0.78481
5467.77002 0.785106
5468.45996 0.785402
5469.14014 0.785698
5469.81982 0.785994
5470.50977 0.786805
5471.20020 0.787788
5471.87988 0.78877
5472.56982 0.789754
5473.25000 0.790738
5473.93994 0.791726
5474.62988 0.792712
5475.31006 0.793697
5476.00000 0.794687
5476.68994 0.795673
5477.37012 0.79666
5478.06006 0.797648
5478.74023 0.79864
5479.43018 0.799623
5480.12012 0.800364
5480.79980 0.799865
5481.49023 0.799367
5482.18018 0.798869
5482.85986 0.798369
5483.54980 0.797871
5484.24023 0.797371
5484.91992 0.796871
5485.60986 0.796372
5486.29980 0.795871
5486.99023 0.795372
5487.66992 0.794873
5488.35986 0.79437
5489.04980 0.793868
5489.74023 0.793369
5490.41992 0.792988
5491.10986 0.792679
5491.79980 0.792374
5492.49023 0.792066
5493.18018 0.791758
5493.85986 0.79145
5494.54980 0.791142
5495.24023 0.790834
5495.93018 0.790528
5496.62012 0.790219
5497.31006 0.78991
5497.99023 0.789601
5498.68994 0.78929
5499.37988 0.788982
5500.06006 0.788449
5500.75000 0.785682
5501.43994 0.782924
5502.12988 0.780164
5502.81982 0.777404
5503.50977 0.774631
5504.20020 0.771881
5504.89014 0.769103
5505.58008 0.766337
5506.27002 0.763572
5506.95996 0.760792
5507.64990 0.758022
5508.33984 0.755251
5509.02979 0.752481
5509.72021 0.749707
5510.41016 0.748994
5511.10010 0.749707
5511.79004 0.750417
5512.47998 0.751129
5513.16992 0.751844
5513.85986 0.752555
5514.54980 0.753266
5515.24023 0.753977
5515.93994 0.754693
5516.62012 0.755402
5517.31006 0.756115
5518.00977 0.756832
5518.70020 0.757546
5519.39014 0.758262
5520.08984 0.759012
5520.77979 0.760022
5521.47021 0.761031
5522.16016 0.762041
5522.85010 0.76305
5523.54004 0.764063
5524.22998 0.765079
5524.93018 0.76609
5525.62012 0.767108
5526.31006 0.768121
5527.00000 0.769135
5527.70020 0.770149
5528.39014 0.771167
5529.08008 0.772176
5529.77002 0.773193
5530.47021 0.774178
5531.16016 0.775142
5531.85010 0.776113
5532.54980 0.777077
5533.24023 0.778037
5533.93018 0.779007
5534.62012 0.779973
5535.31982 0.78094
5536.00977 0.781908
5536.70996 0.78288
5537.39990 0.783848
5538.10010 0.78482
5538.79004 0.78579
5539.47998 0.786759
5540.18018 0.787701
5540.87012 0.788573
5541.56006 0.789435
5542.25977 0.790303
5542.95020 0.791176
5543.64990 0.792043
5544.35010 0.792915
5545.04004 0.793785
5545.72998 0.794651
5546.43018 0.795523
5547.12012 0.796393
5547.81982 0.797264
5548.50977 0.798136
5549.20996 0.799012
5549.89990 0.799883
5550.60010 0.798641
5551.29980 0.797059
5551.99023 0.795477
5552.68994 0.793896
5553.37988 0.792306
5554.06982 0.790727
5554.77002 0.789144
5555.47021 0.787551
5556.16016 0.785965
5556.85986 0.78437
5557.56006 0.782784
5558.25000 0.781203
5558.95020 0.779607
5559.64990 0.778018
5560.33984 0.777898
5561.04004 0.779305
5561.74023 0.78072
5562.43018 0.782129
5563.12988 0.783543
5563.83008 0.784953
5564.52002 0.786362
5565.22021 0.787772
5565.91992 0.78919
5566.60986 0.790596
5567.31006 0.792009
5568.00977 0.793427
5568.70996 0.794842
5569.41016 0.796264
5570.10986 0.797544
5570.79980 0.798062
5571.50000 0.798585
5572.20020 0.799106
5572.89990 0.799628
5573.58984 0.80015
5574.29004 0.800674
5574.99023 0.801196
5575.68994 0.801722
5576.39014 0.802245
5577.08984 0.80277
5577.79004 0.803292
5578.49023 0.803817
5579.18994 0.804342
5579.87988 0.804865
5580.58008 0.804454
5581.27979 0.803855
5581.97998 0.803256
5582.68018 0.80266
5583.37988 0.802061
5584.08008 0.801458
5584.77979 0.800858
5585.47998 0.800259
5586.18018 0.799659
5586.87988 0.799057
5587.58008 0.798458
5588.27979 0.797854
5588.97998 0.797251
5589.68018 0.796651
5590.37988 0.796144
5591.08008 0.795715
5591.77979 0.795286
5592.47998 0.794861
5593.18018 0.794432
5593.87988 0.794004
5594.58008 0.793576
5595.29004 0.793146
5595.99023 0.792716
5596.68994 0.792287
5597.39014 0.791858
5598.08984 0.791429
5598.79004 0.790998
5599.50000 0.790566
5600.18994 0.789612
5600.89990 0.787228
5601.60010 0.784843
5602.29980 0.782466
5603.00000 0.780077
5603.70020 0.77771
5604.39990 0.775332
5605.10986 0.772941
5605.81006 0.770549
5606.50977 0.768189
5607.20996 0.765795
5607.91992 0.763403
5608.62012 0.761018
5609.31982 0.758632
5610.02002 0.756334
5610.72998 0.756425
5611.43018 0.756517
5612.14014 0.75661
5612.83008 0.756703
5613.54004 0.756796
5614.25000 0.756889
5614.95020 0.756981
5615.64990 0.757074
5616.35010 0.757166
5617.06006 0.757257
5617.75977 0.757351
5618.47021 0.757445
5619.16992 0.757539
5619.87012 0.757631
5620.58008 0.759417
5621.27979 0.761563
5621.99023 0.763709
5622.68994 0.765856
5623.39990 0.768005
5624.10010 0.770165
5624.81006 0.772324
5625.50977 0.774457
5626.20996 0.776619
5626.91992 0.778782
5627.62012 0.780935
5628.33008 0.78309
5629.02979 0.785246
5629.74023 0.787402
5630.45020 0.789275
5631.14990 0.790974
5631.85010 0.792651
5632.56006 0.794352
5633.27002 0.796055
5633.97998 0.79775
5634.68018 0.799444
5635.39014 0.801141
5636.08984 0.802838
5636.79980 0.804543
5637.50977 0.806249
5638.20996 0.807932
5638.91992 0.80964
5639.62012 0.811348
5640.33008 0.812369
5641.04004 0.812622
5641.74023 0.812873
5642.45020 0.813125
5643.16016 0.813378
5643.87012 0.813631
5644.56982 0.81388
5645.27979 0.814135
5645.99023 0.81439
5646.68994 0.81464
5647.39990 0.814892
5648.10986 0.815146
5648.81982 0.815398
5649.52979 0.815651
5650.24023 0.815464
5650.93994 0.814403
5651.64990 0.813326
5652.35986 0.812249
5653.06982 0.811177
5653.77002 0.810102
5654.47998 0.809028
5655.18994 0.807954
5655.89990 0.806876
5656.60986 0.805795
5657.31006 0.80473
5658.02002 0.80365
5658.74023 0.802568
5659.43994 0.801491
5660.14990 0.800396
5660.85986 0.799237
5661.56982 0.798078
5662.27979 0.796912
5662.99023 0.795744
5663.70020 0.794594
5664.41016 0.793428
5665.12012 0.792261
5665.83008 0.791099
5666.54004 0.789935
5667.25000 0.788771
5667.95996 0.787607
5668.66992 0.786437
5669.37988 0.785266
5670.08984 0.784272
5670.79980 0.784442
5671.50977 0.784614
5672.22021 0.784785
5672.93018 0.784956
5673.64014 0.785125
5674.35010 0.785296
5675.06006 0.785469
5675.77979 0.785639
5676.47998 0.785808
5677.20020 0.78598
5677.91016 0.78615
5678.62012 0.786321
5679.33008 0.786492
5680.04004 0.786709
5680.75000 0.787648
5681.47021 0.788592
5682.18018 0.789527
5682.89014 0.790465
5683.60010 0.791409
5684.31982 0.792353
5685.02979 0.793294
5685.74023 0.794235
5686.45020 0.795176
5687.16016 0.796118
5687.87988 0.797063
5688.58984 0.798001
5689.29980 0.798944
5690.00977 0.799897
5690.72998 0.801214
5691.43994 0.802524
5692.14990 0.803834
5692.87012 0.805148
5693.58008 0.806459
5694.29980 0.807777
5695.00977 0.809084
5695.72021 0.810399
5696.43018 0.811719
5697.14990 0.813039
5697.85986 0.814353
5698.58008 0.81567
5699.29004 0.816987
5700.00000 0.8183
5700.72021 0.818808
5701.43018 0.819312
5702.14014 0.819818
5702.85986 0.820327
5703.58008 0.820836
5704.29004 0.821342
5705.00977 0.82185
5705.72021 0.822359
5706.43018 0.822867
5707.14990 0.823377
5707.85986 0.823884
5708.58008 0.824391
5709.29980 0.824902
5710.00977 0.825384
5710.72998 0.824228
5711.43994 0.823072
5712.16016 0.821915
5712.87012 0.820758
5713.58984 0.819596
5714.29980 0.818444
5715.02002 0.817284
5715.74023 0.816119
5716.45020 0.814955
5717.16992 0.813796
5717.89014 0.812635
5718.60010 0.811474
5719.31982 0.810312
5720.04004 0.809206
5720.75000 0.809262
5721.47021 0.809318
5722.18994 0.809372
5722.89990 0.809427
5723.62012 0.809482
5724.33984 0.809536
5725.04980 0.80959
5725.77002 0.809645
5726.49023 0.809701
5727.20020 0.809756
5727.91992 0.809808
5728.64014 0.809864
5729.35986 0.809919
5730.08008 0.81012
5730.79980 0.811515
5731.50977 0.81291
5732.22998 0.814307
5732.95020 0.815709
5733.66992 0.8171
5734.37988 0.818497
5735.10010 0.8199
5735.83008 0.821305
5736.54004 0.822704
5737.25977 0.824105
5737.97998 0.825505
5738.70020 0.826906
5739.41992 0.828311
5740.14014 0.82874
5740.85010 0.824991
5741.56982 0.821227
5742.29980 0.81746
5743.02002 0.813708
5743.72998 0.80995
5744.45020 0.806194
5745.16992 0.802435
5745.89990 0.798662
5746.60986 0.794917
5747.33008 0.791155
5748.04980 0.787375
5748.77979 0.783592
5749.49023 0.779828
5750.22021 0.777148
5750.93994 0.777027
5751.64990 0.776904
5752.37988 0.776781
5753.10010 0.776661
5753.81006 0.776538
5754.54004 0.776416
5755.25977 0.776293
5755.97998 0.776168
5756.70020 0.776046
5757.41992 0.775924
5758.14014 0.775802
5758.87012 0.775678
5759.58984 0.775555
5760.31006 0.775356
5761.02979 0.775054
5761.75977 0.774749
5762.47998 0.774446
5763.20020 0.774143
5763.91992 0.773842
5764.64014 0.773539
5765.35986 0.773234
5766.08008 0.772931
5766.81006 0.77263
5767.52979 0.772324
5768.25977 0.772018
5768.97998 0.771715
5769.70020 0.771411
5770.41992 0.771727
5771.14990 0.772487
5771.87012 0.773249
5772.58984 0.774006
5773.31006 0.774767
5774.04004 0.775531
5774.75977 0.776293
5775.49023 0.777054
5776.20996 0.777816
5776.93018 0.778578
5777.66016 0.77934
5778.37988 0.780106
5779.10010 0.780866
5779.83008 0.781627
5780.54980 0.783046
5781.27979 0.78467
5782.00000 0.786287
5782.72998 0.787907
5783.45020 0.789525
5784.16992 0.791144
5784.89990 0.792773
5785.62012 0.794387
5786.35010 0.796007
5787.06982 0.797637
5787.79980 0.799268
5788.52979 0.80089
5789.25000 0.802514
5789.97998 0.804141
5790.70020 0.806106
5791.43018 0.808094
5792.14990 0.810066
5792.87988 0.812047
5793.60010 0.814038
5794.33008 0.816031
5795.06006 0.818017
5795.77979 0.819999
5796.50977 0.821986
5797.22998 0.823972
5797.95996 0.825969
5798.68994 0.827948
5799.41016 0.829937
5800.14014 0.83176
5800.87012 0.832841
5801.60010 0.833918
5802.31982 0.834996
5803.04980 0.836075
5803.77002 0.837151
5804.50000 0.838234
5805.22998 0.839308
5805.95020 0.840388
5806.68018 0.841473
5807.41016 0.842557
5808.14014 0.843638
5808.87012 0.844718
5809.60010 0.8458
5810.31982 0.84658
5811.04980 0.846977
5811.77979 0.847373
5812.50000 0.847771
5813.22998 0.848171
5813.97021 0.84857
5814.68994 0.848967
5815.41992 0.849365
5816.14990 0.849764
5816.87988 0.850162
5817.60010 0.85056
5818.33008 0.850959
5819.06006 0.851359
5819.79004 0.851758
5820.52002 0.850739
5821.25000 0.849168
5821.97998 0.847595
5822.70996 0.846023
5823.43994 0.84445
5824.16992 0.842876
5824.89990 0.841302
5825.62988 0.839726
5826.35986 0.838142
5827.08984 0.836559
5827.81982 0.834982
5828.54980 0.833404
5829.27979 0.831826
5830.00977 0.830268
5830.74023 0.830233
5831.47021 0.830198
5832.20020 0.830164
5832.93018 0.83013
5833.66992 0.830094
5834.39990 0.830059
5835.12988 0.830024
5835.85986 0.829989
5836.58984 0.829954
5837.31982 0.829919
5838.04980 0.829884
5838.77979 0.829851
5839.50977 0.829816
5840.25000 0.82923
5840.97998 0.827578
5841.70996 0.825925
5842.43994 0.824271
5843.16992 0.822616
5843.89990 0.820962
5844.64014 0.819305
5845.37012 0.81765
5846.10010 0.815986
5846.83984 0.814318
5847.56982 0.812658
5848.29980 0.810999
5849.02979 0.80934
5849.77002 0.807679
5850.50000 0.808892
5851.22998 0.811458
5851.95996 0.814026
5852.70020 0.816605
5853.43994 0.819186
5854.16992 0.821756
5854.89990 0.824327
5855.62988 0.826901
5856.37012 0.829475
5857.10010 0.83205
5857.83008 0.834627
5858.56006 0.837205
5859.29980 0.839794
5860.04004 0.84223
5860.77002 0.841853
5861.50977 0.841478
5862.24023 0.841101
5862.97021 0.840723
5863.70996 0.840346
5864.43994 0.839969
5865.18018 0.839592
5865.91016 0.839213
5866.64990 0.838833
5867.37988 0.838455
5868.12012 0.838077
5868.85010 0.837698
5869.58984 0.83732
5870.31982 0.837134
5871.06006 0.837194
5871.79004 0.837255
5872.52979 0.837317
5873.27002 0.837379
5874.00000 0.837439
5874.74023 0.8375
5875.47998 0.83756
5876.20996 0.83762
5876.95020 0.837681
5877.68018 0.837742
5878.41992 0.837804
5879.16016 0.837866
5879.89990 0.837926
5880.62988 0.83656
5881.37012 0.834956
5882.10010 0.833353
5882.83984 0.831748
5883.58008 0.830142
5884.31006 0.828536
5885.04980 0.82693
5885.79004 0.825316
5886.52979 0.8237
5887.27002 0.822091
5888.00000 0.820481
5888.74023 0.818871
5889.47998 0.817261
5890.20996 0.817356
5890.95020 0.821617
5891.68994 0.825883
5892.43018 0.830168
5893.16992 0.834455
5893.91016 0.838723
5894.64990 0.842995
5895.37988 0.847271
5896.12012 0.851545
5896.85986 0.855823
5897.60010 0.860103
5898.33984 0.864385
5899.08008 0.868687
5899.81982 0.87299
5900.56006 0.871945
5901.29980 0.869176
5902.04004 0.866405
5902.77002 0.863632
5903.50977 0.860859
5904.25000 0.858086
5904.99023 0.855311
5905.72998 0.852523
5906.47998 0.849732
5907.22021 0.846953
5907.95020 0.84417
5908.68994 0.84139
5909.43018 0.838608
5910.16992 0.837162
5910.91016 0.840071
5911.64990 0.842983
5912.39990 0.845909
5913.14014 0.848836
5913.87988 0.851752
5914.62012 0.854668
5915.35986 0.857586
5916.10010 0.860504
5916.83984 0.863424
5917.58008 0.866348
5918.31982 0.869271
5919.06982 0.872206
5919.81006 0.875146
5920.54980 0.874824
5921.29004 0.873392
5922.02979 0.871962
5922.77979 0.87053
5923.52002 0.869095
5924.25977 0.867661
5925.00000 0.866228
5925.75000 0.864784
5926.49023 0.863342
5927.22998 0.861904
5927.97021 0.860467
5928.72021 0.85903
5929.45996 0.857591
5930.20020 0.856
5930.93994 0.854002
5931.68994 0.852004
5932.43018 0.849994
5933.18018 0.847985
5933.91992 0.845982
5934.66016 0.843981
5935.39990 0.841976
5936.14990 0.839972
5936.89014 0.837969
5937.62988 0.835964
5938.37988 0.833956
5939.12012 0.831939
5939.87012 0.829932
5940.60986 0.826884
5941.35986 0.823627
5942.10010 0.82037
5942.85010 0.817107
5943.58984 0.813849
5944.33008 0.810586
5945.08008 0.807322
5945.81982 0.804043
5946.56982 0.800775
5947.31982 0.797493
5948.06006 0.794223
5948.81006 0.790953
5949.54980 0.78768
5950.29980 0.787358
5951.04004 0.791529
5951.77979 0.795708
5952.52979 0.799904
5953.27979 0.804084
5954.02979 0.808283
5954.77002 0.812465
5955.52002 0.816651
5956.25977 0.820838
5957.00977 0.825027
5957.75000 0.829217
5958.50000 0.833409
5959.25000 0.83762
5959.99023 0.841817
5960.74023 0.840397
5961.49023 0.838944
5962.24023 0.83749
5962.97998 0.836036
5963.72998 0.83458
5964.47998 0.833124
5965.22021 0.831669
5965.97021 0.830206
5966.72021 0.828747
5967.47021 0.827281
5968.22021 0.825822
5968.95996 0.824363
5969.70996 0.822902
5970.45996 0.822865
5971.20996 0.823727
5971.95020 0.824588
5972.70020 0.825454
5973.45020 0.826317
5974.20020 0.827185
5974.95020 0.828047
5975.70020 0.828911
5976.45020 0.829774
5977.18994 0.830638
5977.93994 0.831505
5978.68994 0.83237
5979.43994 0.833239
5980.18994 0.833869
5980.93994 0.833813
5981.68994 0.833759
5982.43994 0.833704
5983.18994 0.833647
5983.93994 0.833589
5984.68994 0.833531
5985.43994 0.833473
5986.18994 0.833413
5986.93994 0.833353
5987.68994 0.833293
5988.43994 0.833231
5989.18994 0.833169
5989.93994 0.833108
5990.68994 0.832876
5991.43994 0.832627
5992.18994 0.83238
5992.93994 0.83213
5993.68994 0.831881
5994.45020 0.831631
5995.20020 0.831383
5995.95020 0.831135
5996.70020 0.830886
5997.45020 0.830637
5998.20020 0.830388
5998.95020 0.830138
5999.70020 0.829887
6000.45020 0.8303
6001.20996 0.831147
6001.95996 0.831992
6002.70996 0.832837
6003.45996 0.833681
6004.22021 0.834527
6004.97021 0.835371
6005.72021 0.836217
6006.47021 0.837066
6007.22998 0.837912
6007.97998 0.838763
6008.72998 0.83961
6009.47998 0.840459
6010.24023 0.841164
6010.99023 0.841558
6011.74023 0.841951
6012.49023 0.842346
6013.25000 0.842742
6014.00000 0.843136
6014.75977 0.843533
6015.50977 0.843928
6016.27002 0.844324
6017.02002 0.844721
6017.77002 0.845116
6018.52002 0.845512
6019.27979 0.845908
6020.02979 0.846304
6020.79004 0.84668
6021.54004 0.847058
6022.29980 0.847435
6023.04980 0.847812
6023.81006 0.848189
6024.56006 0.848566
6025.31006 0.848943
6026.06982 0.84932
6026.83008 0.849701
6027.58008 0.850077
6028.33984 0.850456
6029.08984 0.850833
6029.85010 0.851212
6030.60010 0.851497
6031.35986 0.851758
6032.10986 0.852018
6032.87012 0.852278
6033.62988 0.852541
6034.37988 0.852802
6035.14014 0.853063
6035.89990 0.853324
6036.64990 0.853587
6037.41016 0.853848
6038.16016 0.854108
6038.91992 0.854369
6039.66992 0.854632
6040.43018 0.855765
6041.18994 0.857545
6041.95020 0.859336
6042.70020 0.861118
6043.45996 0.862901
6044.22021 0.864685
6044.97998 0.866471
6045.72998 0.868257
6046.49023 0.870043
6047.25000 0.871836
6048.00977 0.873624
6048.77002 0.875421
6049.52002 0.87721
6050.27979 0.878182
6051.04004 0.877765
6051.79980 0.877349
6052.54980 0.87693
6053.31006 0.876512
6054.06982 0.876093
6054.83008 0.875676
6055.58984 0.875255
6056.35010 0.874835
6057.10986 0.874417
6057.85986 0.873997
6058.62012 0.873578
6059.37988 0.873158
6060.14014 0.872634
6060.89990 0.871636
6061.66016 0.870642
6062.41992 0.869643
6063.18018 0.868648
6063.93994 0.867654
6064.70020 0.866657
6065.45996 0.865662
6066.22021 0.864665
6066.97998 0.863669
6067.74023 0.862667
6068.50000 0.861669
6069.25977 0.860666
6070.02002 0.859669
6070.77979 0.858718
6071.54004 0.857769
6072.29980 0.856818
6073.06006 0.855866
6073.81982 0.854914
6074.58984 0.853958
6075.35010 0.853006
6076.10986 0.852048
6076.87012 0.851094
6077.62988 0.85014
6078.39014 0.849187
6079.14990 0.848233
6079.91016 0.847277
6080.66992 0.848793
6081.43994 0.850636
6082.20020 0.852472
6082.97021 0.854317
6083.72998 0.856153
6084.49023 0.85799
6085.25000 0.859829
6086.00977 0.861668
6086.77002 0.863509
6087.52979 0.865349
6088.29980 0.867197
6089.06006 0.86904
6089.83008 0.870892
6090.58984 0.87223
6091.35010 0.873417
6092.10986 0.874617
6092.87988 0.87581
6093.64014 0.877006
6094.39990 0.878201
6095.16992 0.879402
6095.93018 0.880599
6096.70020 0.881801
6097.45996 0.882999
6098.22021 0.884191
6098.99023 0.885393
6099.75000 0.886593
6100.52002 0.886195
6101.27979 0.885026
6102.04980 0.883852
6102.81006 0.882682
6103.58008 0.881507
6104.33984 0.880337
6105.10010 0.879171
6105.87012 0.877995
6106.62988 0.876822
6107.39990 0.875649
6108.16016 0.874477
6108.93018 0.873298
6109.68994 0.872124
6110.45996 0.87244
6111.22998 0.873735
6111.99023 0.875024
6112.75977 0.876325
6113.52002 0.877624
6114.29004 0.878921
6115.04980 0.880217
6115.81982 0.881521
6116.58984 0.88282
6117.35986 0.884124
6118.12012 0.885425
6118.89014 0.886718
6119.64990 0.888026
6120.41992 0.888641
6121.18994 0.888697
6121.95020 0.888754
6122.72021 0.888811
6123.49023 0.888866
6124.25977 0.888921
6125.02979 0.888977
6125.79004 0.889033
6126.56006 0.88909
6127.33008 0.889146
6128.08984 0.889202
6128.85986 0.889259
6129.62988 0.889315
6130.39990 0.889423
6131.16992 0.889582
6131.93994 0.889741
6132.70020 0.889899
6133.47021 0.890058
6134.24023 0.890216
6135.00977 0.890374
6135.77002 0.890535
6136.54980 0.890694
6137.31006 0.890852
6138.08984 0.891011
6138.85010 0.89117
6139.62012 0.891328
6140.39014 0.891519
6141.16016 0.89174
6141.93018 0.89196
6142.70020 0.89218
6143.47021 0.892401
6144.24023 0.892622
6145.00977 0.892843
6145.77979 0.893062
6146.54980 0.893283
6147.31982 0.893504
6148.08984 0.893725
6148.85986 0.893948
6149.62988 0.894169
6150.39990 0.893494
6151.16992 0.891996
6151.93994 0.890489
6152.72021 0.888989
6153.47998 0.887495
6154.25977 0.885987
6155.02979 0.884485
6155.79980 0.882982
6156.56982 0.881479
6157.33984 0.879969
6158.10986 0.878466
6158.89014 0.876953
6159.66016 0.875445
6160.41992 0.872812
6161.20020 0.869228
6161.97021 0.865654
6162.74023 0.862084
6163.50977 0.85851
6164.29004 0.854919
6165.06006 0.851344
6165.83008 0.847747
6166.60986 0.844169
6167.37988 0.840604
6168.14990 0.837005
6168.91992 0.833418
6169.68994 0.829834
6170.47021 0.826983
6171.24023 0.824604
6172.02002 0.822236
6172.79004 0.819857
6173.56006 0.817486
6174.33008 0.815124
6175.10986 0.812739
6175.87988 0.810365
6176.64990 0.807991
6177.43018 0.805615
6178.20020 0.803226
6178.97998 0.800847
6179.75977 0.798457
6180.52979 0.7964
6181.29980 0.794499
6182.08008 0.792581
6182.85010 0.79067
6183.62012 0.788758
6184.39990 0.786845
6185.18018 0.784921
6185.95020 0.783008
6186.72998 0.781084
6187.50000 0.779167
6188.27002 0.777259
6189.04980 0.775332
6189.83008 0.773415
6190.60010 0.772626
6191.37988 0.772165
6192.14990 0.771702
6192.93018 0.771241
6193.70996 0.770778
6194.47998 0.770316
6195.25977 0.769856
6196.02979 0.769391
6196.81006 0.768929
6197.58984 0.768467
6198.35986 0.768005
6199.14014 0.767541
6199.91992 0.767076
6200.70020 0.766369
6201.47021 0.765637
6202.24023 0.764908
6203.02002 0.764172
6203.79980 0.763439
6204.58008 0.762705
6205.35010 0.761971
6206.12988 0.761234
6206.91016 0.760499
6207.68994 0.759761
6208.47021 0.759025
6209.24023 0.758293
6210.02002 0.757618
6210.79980 0.759097
6211.58008 0.760576
6212.35010 0.762055
6213.14014 0.763541
6213.91016 0.765021
6214.68994 0.766509
6215.47021 0.76799
6216.25000 0.769465
6217.02979 0.770954
6217.81006 0.772438
6218.58984 0.773921
6219.35986 0.775405
6220.14990 0.777449
6220.93018 0.781886
6221.70996 0.786343
6222.49023 0.790781
6223.25977 0.795202
6224.04004 0.799663
6224.81982 0.804107
6225.60010 0.808553
6226.37988 0.812999
6227.16016 0.817466
6227.93994 0.821914
6228.72998 0.826388
6229.50977 0.830842
6230.27979 0.834244
6231.06982 0.835855
6231.85010 0.837457
6232.62988 0.839063
6233.41016 0.840669
6234.18994 0.842283
6234.97021 0.84389
6235.75000 0.845505
6236.52979 0.847106
6237.31006 0.848714
6238.10010 0.850331
6238.87988 0.851941
6239.66016 0.853553
6240.43994 0.855825
6241.22021 0.858624
6242.00977 0.861411
6242.79004 0.864213
6243.56982 0.866991
6244.35010 0.869785
6245.12988 0.872588
6245.91992 0.875381
6246.70020 0.878179
6247.47998 0.880973
6248.27002 0.883782
6249.04980 0.886581
6249.83008 0.889393
6250.60986 0.890004
6251.39014 0.890024
6252.18018 0.890045
6252.95996 0.890062
6253.75000 0.890081
6254.52979 0.890099
6255.31006 0.890118
6256.10010 0.890137
6256.87988 0.890155
6257.66016 0.890173
6258.45020 0.890192
6259.22998 0.890211
6260.02002 0.89024
6260.79980 0.890781
6261.58984 0.891323
6262.37012 0.891866
6263.16016 0.892406
6263.93994 0.892948
6264.72021 0.893488
6265.50977 0.894031
6266.29980 0.894575
6267.08008 0.895116
6267.85986 0.895659
6268.64990 0.896201
6269.43994 0.896745
6270.22021 0.897434
6271.00977 0.898498
6271.79004 0.899552
6272.58008 0.900612
6273.37012 0.901678
6274.14990 0.902737
6274.93994 0.903798
6275.72021 0.90486
6276.50977 0.905925
6277.29980 0.906987
6278.08984 0.908055
6278.87012 0.909111
6279.64990 0.910175
6280.43994 0.909382
6281.22998 0.907149
6282.02002 0.904919
6282.79980 0.902683
6283.58984 0.900438
6284.37988 0.898201
6285.16992 0.895953
6285.95020 0.893725
6286.74023 0.891485
6287.52979 0.889236
6288.31982 0.886994
6289.10010 0.884752
6289.89014 0.882506
6290.68018 0.882956
6291.47021 0.883835
6292.25977 0.884719
6293.04004 0.885596
6293.83008 0.886475
6294.62012 0.887359
6295.41016 0.888239
6296.20020 0.88912
6296.99023 0.89
6297.77979 0.890884
6298.56982 0.891765
6299.35986 0.892651
6300.14990 0.893065
6300.93018 0.891404
6301.72998 0.889733
6302.50977 0.888068
6303.29980 0.886405
6304.08984 0.884741
6304.87988 0.883066
6305.66992 0.881399
6306.47021 0.879725
6307.25000 0.878065
6308.04004 0.876397
6308.83984 0.87472
6309.62012 0.87305
6310.41016 0.87246
6311.20020 0.872848
6312.00000 0.873236
6312.79004 0.873622
6313.58008 0.874012
6314.37012 0.874399
6315.16016 0.874787
6315.95020 0.875177
6316.74023 0.875564
6317.52979 0.875952
6318.31982 0.876341
6319.12012 0.876731
6319.91016 0.87712
6320.70020 0.876502
6321.49023 0.875763
6322.27979 0.875021
6323.08008 0.874275
6323.87012 0.873531
6324.66016 0.872789
6325.45020 0.872046
6326.25000 0.871299
6327.04004 0.870554
6327.83984 0.869808
6328.62012 0.869066
6329.41992 0.86832
6330.20996 0.868172
6331.00977 0.869664
6331.79980 0.871159
6332.58984 0.872654
6333.39014 0.874155
6334.18018 0.875651
6334.97998 0.877155
6335.77002 0.878645
6336.56006 0.880143
6337.35010 0.881648
6338.14990 0.883147
6338.93994 0.884647
6339.72998 0.886146
6340.52979 0.886022
6341.33008 0.885087
6342.12012 0.884149
6342.91016 0.883219
6343.70996 0.882282
6344.50977 0.881342
6345.29980 0.880406
6346.08984 0.87947
6346.89014 0.878534
6347.68994 0.877592
6348.47998 0.876654
6349.27979 0.875712
6350.06982 0.875401
6350.85986 0.881594
6351.66016 0.887821
6352.45996 0.894019
6353.25000 0.900217
6354.04980 0.906422
6354.85010 0.912656
6355.64014 0.918863
6356.43994 0.925104
6357.22998 0.931289
6358.02979 0.937505
6358.83008 0.943749
6359.62012 0.94997
6360.41992 0.949291
6361.22021 0.942458
6362.02002 0.935596
6362.81006 0.928761
6363.60986 0.921893
6364.41016 0.915083
6365.20020 0.908236
6366.00000 0.90136
6366.79980 0.894512
6367.60010 0.88766
6368.39014 0.880806
6369.18994 0.873917
6369.99023 0.867058
6370.79004 0.869508
6371.58984 0.87203
6372.39014 0.874564
6373.18994 0.877109
6373.97998 0.879647
6374.77979 0.882182
6375.58008 0.884718
6376.37988 0.887269
6377.18018 0.889811
6377.97021 0.89234
6378.77979 0.894895
6379.56982 0.897438
6380.37988 0.895577
6381.18018 0.888739
6381.97021 0.8819
6382.77002 0.875058
6383.56982 0.868216
6384.37012 0.861339
6385.16992 0.854517
6385.97021 0.847633
6386.77002 0.84078
6387.56982 0.833896
6388.37988 0.827034
6389.16992 0.820174
6389.97021 0.81331
6390.77002 0.815189
6391.58008 0.81738
6392.37012 0.81955
6393.18018 0.82174
6393.97998 0.823924
6394.77979 0.826117
6395.58008 0.8283
6396.37988 0.830484
6397.18018 0.832671
6397.97998 0.834856
6398.79004 0.837055
6399.58984 0.839233
6400.39014 0.839168
6401.18994 0.836716
6402.00000 0.834248
6402.79980 0.831794
6403.60010 0.829336
6404.39990 0.826877
6405.20020 0.824418
6406.00977 0.821948
6406.81006 0.819497
6407.60986 0.817025
6408.41016 0.814561
6409.22021 0.812086
6410.02002 0.809799
6410.81982 0.814067
6411.62988 0.818331
6412.43018 0.822599
6413.22998 0.826886
6414.02979 0.831138
6414.83984 0.835427
6415.64014 0.839703
6416.45020 0.843997
6417.25000 0.848271
6418.06006 0.85255
6418.85986 0.856831
6419.66016 0.861111
6420.47021 0.861231
6421.27002 0.858388
6422.08008 0.85552
6422.87988 0.852659
6423.68994 0.849789
6424.49023 0.84693
6425.29980 0.844068
6426.10010 0.841205
6426.91016 0.83834
6427.72021 0.835464
6428.52002 0.832611
6429.31982 0.829729
6430.12988 0.828442
6430.93994 0.835472
6431.74023 0.842475
6432.54980 0.849481
6433.35010 0.856489
6434.16016 0.863498
6434.97021 0.870543
6435.77002 0.877527
6436.58008 0.884575
6437.37988 0.891597
6438.18994 0.898654
6439.00000 0.905677
6439.81006 0.912708
6440.60986 0.912397
6441.41992 0.909739
6442.22998 0.907067
6443.02979 0.904418
6443.83984 0.901745
6444.64990 0.899082
6445.45996 0.896407
6446.25977 0.893742
6447.06982 0.891078
6447.87988 0.88841
6448.68994 0.885743
6449.49023 0.883064
6450.29980 0.883855
6451.10986 0.890533
6451.91992 0.897186
6452.72998 0.90387
6453.54004 0.910531
6454.33984 0.917191
6455.14990 0.923855
6455.95996 0.930518
6456.77002 0.93722
6457.58008 0.943863
6458.39014 0.950565
6459.20020 0.957243
6460.00977 0.963829
6460.81982 0.959084
6461.62988 0.954338
6462.43994 0.949592
6463.24023 0.944841
6464.06006 0.94007
6464.85986 0.935339
6465.68018 0.930565
6466.47998 0.925807
6467.29980 0.92103
6468.10986 0.916272
6468.91992 0.911512
6469.72998 0.906749
6470.54004 0.908438
6471.35010 0.913447
6472.16016 0.918414
6472.97021 0.923423
6473.77979 0.928418
6474.58984 0.933432
6475.39990 0.938427
6476.22021 0.943425
6477.02979 0.948427
6477.83984 0.953428
6478.64990 0.958452
6479.45996 0.963437
6480.27002 0.964858
6481.08008 0.959139
6481.89990 0.953389
6482.70996 0.947663
6483.52002 0.94194
6484.33008 0.936207
6485.14990 0.930476
6485.95996 0.924717
6486.77002 0.919008
6487.58008 0.913245
6488.39990 0.907502
6489.20996 0.901736
6490.02002 0.896272
6490.83984 0.899862
6491.64990 0.903455
6492.45996 0.907049
6493.27979 0.910659
6494.08984 0.91424
6494.89990 0.917855
6495.72021 0.921454
6496.52979 0.925069
6497.35010 0.928673
6498.16016 0.932275
6498.97021 0.935877
6499.79004 0.939483
6500.60010 0.935319
6501.41016 0.928462
6502.22998 0.92154
6503.04980 0.914647
6503.85986 0.907723
6504.68018 0.900821
6505.49023 0.893922
6506.31006 0.887017
6507.12012 0.88011
6507.93994 0.873174
6508.75000 0.866288
6509.56982 0.859346
6510.37988 0.856627
6511.20020 0.858669
6512.02002 0.860699
6512.83008 0.862735
6513.64990 0.86477
6514.45996 0.866804
6515.27979 0.868847
6516.08984 0.870877
6516.91016 0.872913
6517.72998 0.874958
6518.54980 0.877007
6519.35986 0.879048
6520.18018 0.879837
6520.99023 0.87618
6521.81006 0.872521
6522.62988 0.868844
6523.43994 0.865198
6524.25977 0.861534
6525.08008 0.857855
6525.89990 0.85417
6526.72021 0.850504
6527.54004 0.846835
6528.35010 0.843167
6529.16992 0.839495
6529.99023 0.835823
6530.79980 0.840931
6531.62012 0.846184
6532.43994 0.851457
6533.25977 0.856736
6534.08008 0.861994
6534.89990 0.867252
6535.72021 0.872516
6536.54004 0.877777
6537.35010 0.883043
6538.16992 0.888308
6538.99023 0.893578
6539.81006 0.898871
6540.64014 0.896595
6541.45020 0.892112
6542.27002 0.887628
6543.08984 0.883144
6543.91016 0.878656
6544.72998 0.874166
6545.54980 0.869675
6546.37012 0.865182
6547.18994 0.860667
6548.02002 0.856153
6548.83008 0.851653
6549.64990 0.847153
6550.47021 0.849011
6551.29004 0.855505
6552.10986 0.862005
6552.93018 0.868504
6553.75000 0.875006
6554.58008 0.88154
6555.39990 0.888078
6556.22021 0.894588
6557.04004 0.901101
6557.85986 0.907616
6558.68994 0.914132
6559.50977 0.92065
6560.33008 0.923136
6561.14990 0.919538
6561.97021 0.915925
6562.79980 0.912307
6563.62012 0.908707
6564.43994 0.905102
6565.25977 0.901497
6566.08984 0.897891
6566.91016 0.894285
6567.72998 0.890678
6568.54980 0.887068
6569.37988 0.883442
6570.20020 0.881372
6571.02002 0.884071
6571.85010 0.886775
6572.66992 0.889475
6573.49023 0.892179
6574.31982 0.894885
6575.14014 0.897591
6575.95996 0.900298
6576.79004 0.903017
6577.62012 0.905736
6578.43994 0.908445
6579.25977 0.911156
6580.08984 0.913305
6580.91016 0.910652
6581.72998 0.907997
6582.56006 0.905339
6583.37988 0.902682
6584.20996 0.900013
6585.04004 0.897341
6585.85986 0.894679
6586.68994 0.892019
6587.50977 0.889357
6588.33008 0.886696
6589.16016 0.884031
6589.97998 0.881363
6590.81006 0.882251
6591.64014 0.883215
6592.47021 0.884179
6593.29004 0.885138
6594.12012 0.886097
6594.93994 0.887057
6595.77002 0.888017
6596.58984 0.888978
6597.41992 0.88994
6598.24023 0.8909
6599.06982 0.891866
6599.89990 0.892831
6600.72998 0.889083
6601.56006 0.88472
6602.37988 0.880353
6603.20996 0.875989
6604.04004 0.871621
6604.85986 0.867251
6605.68994 0.862881
6606.52002 0.858492
6607.35010 0.854103
6608.18018 0.849729
6609.00977 0.845356
6609.83008 0.840982
6610.66016 0.842818
6611.49023 0.846235
6612.31006 0.849655
6613.14014 0.853076
6613.97021 0.856512
6614.81006 0.859951
6615.62988 0.863376
6616.45996 0.866801
6617.29004 0.870225
6618.12012 0.873653
6618.95020 0.877081
6619.77002 0.88051
6620.60010 0.881797
6621.43994 0.882287
6622.27002 0.882778
6623.10010 0.883265
6623.93018 0.883754
6624.75977 0.884243
6625.58984 0.884733
6626.41016 0.88522
6627.24023 0.885708
6628.06982 0.886197
6628.91016 0.886689
6629.74023 0.88718
6630.56982 0.887106
6631.39990 0.886776
6632.22998 0.886445
6633.06006 0.886113
6633.89014 0.885783
6634.72021 0.88545
6635.54980 0.885119
6636.39014 0.884787
6637.22021 0.884454
6638.04980 0.884122
6638.87988 0.88379
6639.70996 0.883457
6640.54980 0.887167
6641.37988 0.892951
6642.20996 0.898758
6643.04004 0.90457
6643.87012 0.91041
6644.70996 0.916246
6645.54004 0.922063
6646.37012 0.927878
6647.20020 0.933697
6648.04004 0.939546
6648.87012 0.945342
6649.70020 0.951163
6650.52979 0.950736
6651.37012 0.946774
6652.20020 0.94281
6653.04004 0.938863
6653.87012 0.934914
6654.70020 0.930966
6655.54004 0.926996
6656.37012 0.923061
6657.20020 0.919108
6658.04004 0.915154
6658.87012 0.911183
6659.70996 0.907209
6660.54004 0.910099
6661.37988 0.916632
6662.20996 0.92317
6663.04980 0.929736
6663.87988 0.936249
6664.70996 0.942788
6665.54980 0.949331
6666.39014 0.955904
6667.22021 0.962479
6668.06006 0.969023
6668.89014 0.975567
6669.72998 0.982117
6670.56982 0.981173
6671.39990 0.976656
6672.22998 0.972119
6673.06982 0.967577
6673.91016 0.963019
6674.75000 0.958459
6675.58008 0.953916
6676.41992 0.94937
6677.25000 0.944826
6678.08984 0.940256
6678.93018 0.935731
6679.75977 0.931182
6680.60010 0.934144
6681.43994 0.940139
6682.27979 0.946136
6683.10986 0.95211
6683.95020 0.958085
6684.79004 0.964063
6685.62012 0.970041
6686.45996 0.97602
6687.29980 0.982
6688.12988 0.987981
6688.97998 0.993989
6689.81982 1.0
6690.64990 0.995648
6691.49023 0.988379
6692.33008 0.981113
6693.16992 0.973842
6694.00000 0.966572
6694.83984 0.959297
6695.68018 0.952023
6696.52002 0.944717
6697.35986 0.93741
6698.20020 0.93013
6699.04004 0.92285
6699.87988 0.915565
6700.72021 0.916845
6701.56006 0.919564
6702.39990 0.922283
6703.22998 0.925003
6704.08008 0.927738
6704.91992 0.93047
6705.75977 0.933192
6706.60010 0.935915
6707.43994 0.93864
6708.27979 0.941363
6709.12012 0.944089
6709.95996 0.946813
6710.79980 0.943119
6711.64014 0.939061
6712.47998 0.935003
6713.31982 0.930961
6714.16992 0.926919
6715.00977 0.922877
6715.85010 0.918835
6716.68994 0.914791
6717.52979 0.910746
6718.37012 0.9067
6719.20996 0.902634
6720.06006 0.898886
6720.89990 0.899455
6721.74023 0.900023
6722.58008 0.900592
6723.41992 0.901162
6724.27002 0.901731
6725.10986 0.902301
6725.95020 0.90287
6726.79004 0.903441
6727.64014 0.904013
6728.47998 0.904582
6729.31982 0.905152
6730.16992 0.905112
6731.00977 0.902598
6731.85010 0.900085
6732.68994 0.897571
6733.54004 0.895054
6734.37988 0.892526
6735.22998 0.889999
6736.06982 0.887483
6736.91992 0.884965
6737.75977 0.882446
6738.60010 0.879927
6739.45020 0.877409
6740.29004 0.877331
6741.12988 0.881901
6741.97998 0.88649
6742.83008 0.891083
6743.66992 0.895658
6744.52002 0.900234
6745.35986 0.90481
6746.20996 0.909386
6747.04980 0.913963
6747.89990 0.918543
6748.74023 0.923125
6749.58984 0.927725
6750.43994 0.927712
6751.27979 0.923374
6752.12988 0.919034
6752.97021 0.914691
6753.81982 0.910347
6754.66016 0.906004
6755.50977 0.901657
6756.35010 0.89731
6757.20020 0.892946
6758.04980 0.888577
6758.89990 0.884227
6759.74023 0.879875
6760.58984 0.878013
6761.43994 0.877223
6762.27979 0.876434
6763.12988 0.875644
6763.97998 0.874852
6764.83008 0.874059
6765.68018 0.873264
6766.52002 0.872473
6767.37012 0.871683
6768.22021 0.870893
6769.06982 0.8701
6769.91016 0.869308
6770.75977 0.877608
6771.60986 0.886942
6772.45996 0.896324
6773.31006 0.905708
6774.16016 0.91505
6775.00977 0.924398
6775.85010 0.933747
6776.70020 0.943097
6777.54980 0.952447
6778.39990 0.961799
6779.25000 0.971157
6780.10010 0.978463
6780.95020 0.970099
6781.79980 0.961761
6782.64990 0.95343
6783.50000 0.945092
6784.35010 0.936751
6785.20020 0.928411
6786.04980 0.920067
6786.89990 0.911723
6787.75000 0.903338
6788.60010 0.894951
6789.45020 0.886602
6790.29980 0.883573
6791.14990 0.890157
6792.00000 0.896741
6792.85010 0.903326
6793.70020 0.909916
6794.54980 0.916503
6795.41016 0.923123
6796.25977 0.929744
6797.10986 0.936337
6797.95996 0.94293
6798.81006 0.949526
6799.66992 0.956122
6800.52002 0.955055
6801.37012 0.949034
6802.22021 0.943016
6803.06982 0.936966
6803.93018 0.930921
6804.77979 0.924894
6805.62988 0.918874
6806.49023 0.91285
6807.33984 0.906825
6808.18994 0.9008
6809.04004 0.894776
6809.89990 0.888748
6810.75000 0.888925
6811.60986 0.889979
6812.45996 0.891028
6813.31006 0.892077
6814.16016 0.893126
6815.02002 0.894175
6815.87012 0.895225
6816.72021 0.896274
6817.58008 0.897325
6818.43994 0.898379
6819.29004 0.899433
6820.14990 0.899764
6821.00000 0.896599
6821.85010 0.893433
6822.70996 0.890266
6823.56006 0.887099
6824.41016 0.883933
6825.27002 0.880766
6826.12988 0.877585
6826.99023 0.874402
6827.83984 0.871236
6828.68994 0.868069
6829.54980 0.8649
6830.39990 0.865444
6831.25977 0.870121
6832.10986 0.874796
6832.97021 0.879472
6833.83008 0.884173
6834.68994 0.888871
6835.54004 0.89355
6836.39990 0.898231
6837.25977 0.90291
6838.10986 0.907591
6838.97021 0.912271
6839.81982 0.916954
6840.68018 0.914502
6841.54004 0.910171
6842.39990 0.905836
6843.25977 0.901521
6844.10986 0.897207
6844.97021 0.89289
6845.83008 0.888574
6846.68018 0.884257
6847.54004 0.879939
6848.39990 0.875621
6849.25977 0.871281
6850.12012 0.868309
6850.97998 0.873808
6851.83008 0.879303
6852.68994 0.884802
6853.54980 0.890303
6854.41016 0.895802
6855.27002 0.9013
6856.12012 0.906799
6856.99023 0.912329
6857.85010 0.917851
6858.70996 0.923354
6859.56006 0.928858
6860.41992 0.929862
6861.27979 0.926244
6862.14014 0.922627
6863.00000 0.919008
6863.85986 0.91539
6864.72021 0.911753
6865.58984 0.908119
6866.43994 0.904499
6867.29980 0.90088
6868.16016 0.897259
6869.02002 0.893636
6869.87988 0.890014
6870.74023 0.892892
6871.60010 0.89679
6872.47021 0.900705
6873.33008 0.904624
6874.18994 0.908525
6875.04980 0.912425
6875.91016 0.916327
6876.77002 0.920227
6877.62988 0.92413
6878.49023 0.928035
6879.35986 0.931937
6880.22021 0.933447
6881.08984 0.927919
6881.95020 0.922419
6882.81006 0.916918
6883.66992 0.911412
6884.52979 0.90591
6885.39014 0.900406
6886.25977 0.894903
6887.12012 0.889394
6887.97998 0.883865
6888.85010 0.878336
6889.70996 0.872829
6890.56982 0.872059
6891.43994 0.87367
6892.29980 0.875282
6893.16016 0.876894
6894.02002 0.878507
6894.89014 0.880119
6895.75977 0.881739
6896.62012 0.883357
6897.47998 0.884969
6898.35010 0.886583
6899.20996 0.888196
6900.06982 0.889054
6900.93994 0.881992
6901.79980 0.874932
6902.66992 0.867867
6903.52979 0.860775
6904.39990 0.853679
6905.27002 0.846615
6906.12988 0.83955
6907.00000 0.832485
6907.85986 0.825417
6908.72998 0.818348
6909.58984 0.81128
6910.45020 0.809175
6911.31982 0.811559
6912.18994 0.813941
6913.06006 0.816315
6913.91992 0.818687
6914.79004 0.821062
6915.64990 0.823435
6916.52002 0.825809
6917.39014 0.828183
6918.25000 0.830558
6919.12012 0.832942
6919.99023 0.83533
6920.85986 0.829306
6921.72021 0.823195
6922.58984 0.817084
6923.45996 0.81097
6924.31982 0.804854
6925.18994 0.798741
6926.06006 0.792626
6926.93018 0.78648
6927.79980 0.780339
6928.66992 0.77422
6929.52979 0.768102
6930.39990 0.767421
6931.27002 0.77309
6932.14014 0.778754
6933.00000 0.784423
6933.87012 0.79009
6934.74023 0.795783
6935.60986 0.801478
6936.47998 0.807147
6937.35010 0.812816
6938.22021 0.818486
6939.08984 0.824155
6939.95996 0.829826
6940.81982 0.826685
6941.68994 0.823076
6942.56982 0.819455
6943.43994 0.815831
6944.31006 0.812224
6945.18018 0.808615
6946.04980 0.805007
6946.91992 0.801397
6947.79004 0.797789
6948.66016 0.794179
6949.52979 0.790569
6950.39990 0.79213
6951.27002 0.799842
6952.14014 0.807523
6953.00977 0.815207
6953.87988 0.822888
6954.75977 0.830573
6955.62012 0.838257
6956.50000 0.845942
6957.37012 0.853627
6958.24023 0.861344
6959.12012 0.869066
6959.99023 0.876756
6960.85986 0.877772
6961.72998 0.878691
6962.60010 0.879609
6963.47021 0.880526
6964.35010 0.881445
6965.22021 0.882362
6966.08984 0.883286
6966.97021 0.884209
6967.83984 0.885128
6968.70996 0.886048
6969.58008 0.886967
6970.45996 0.889375
6971.33008 0.893135
6972.20020 0.896894
6973.06982 0.900653
6973.95020 0.90443
6974.83008 0.908206
6975.70020 0.911968
6976.56982 0.915731
6977.45020 0.919491
6978.31982 0.923252
6979.18994 0.927013
6980.06982 0.93016
6980.93994 0.926075
6981.81982 0.921966
6982.70020 0.917862
6983.56982 0.913771
6984.45020 0.909682
6985.31982 0.905593
6986.18994 0.901502
6987.06982 0.897411
6987.93994 0.893322
6988.81982 0.889231
6989.70020 0.885122
6990.58008 0.885895
6991.45020 0.889224
6992.33008 0.892554
6993.20020 0.895885
6994.08008 0.899215
6994.95020 0.902549
6995.83008 0.905881
6996.70020 0.909212
6997.58008 0.91256
6998.45996 0.915908
6999.33984 0.919243
7000.20996 0.920998
7001.08984 0.917818
7001.97021 0.914655
7002.83984 0.91149
7003.72021 0.908325
7004.60010 0.905161
7005.47998 0.901983
7006.35986 0.898807
7007.24023 0.895642
7008.10986 0.892493
7008.99023 0.889314
7009.87012 0.886154
7010.74023 0.887092
7011.62012 0.888761
7012.50000 0.890429
7013.37988 0.892106
7014.25977 0.893781
7015.14014 0.895449
7016.02002 0.89711
7016.89990 0.898786
7017.77979 0.900453
7018.64990 0.902119
7019.52979 0.903787
7020.41016 0.902416
7021.29004 0.897573
7022.18018 0.892731
7023.06006 0.887909
7023.93018 0.883109
7024.81006 0.878268
7025.68994 0.873447
7026.56982 0.868626
7027.45020 0.863803
7028.33008 0.858985
7029.22021 0.854143
7030.10010 0.850431
7030.97998 0.855542
7031.85986 0.860631
7032.74023 0.865768
7033.62012 0.870879
7034.50000 0.875989
7035.37988 0.8811
7036.25977 0.886211
7037.14990 0.891345
7038.02979 0.896478
7038.91016 0.901587
7039.79004 0.906671
7040.68018 0.904488
7041.56006 0.900045
7042.43994 0.895602
7043.31982 0.891156
7044.20020 0.886714
7045.08984 0.882251
7045.97021 0.877786
7046.85010 0.873344
7047.72998 0.868918
7048.62012 0.864454
7049.50000 0.860012
7050.37988 0.859911
7051.27002 0.865467
7052.14990 0.871026
7053.02979 0.876607
7053.91992 0.882186
7054.81006 0.887743
7055.68018 0.893276
7056.56982 0.898853
7057.45020 0.904408
7058.33984 0.909966
7059.22021 0.915519
7060.10010 0.919825
7060.99023 0.914847
7061.87988 0.909866
7062.75977 0.904908
7063.64990 0.89997
7064.52979 0.894992
7065.41992 0.890034
7066.29980 0.885072
7067.18994 0.880115
7068.06982 0.875156
7068.95996 0.870175
7069.85010 0.865195
7070.72998 0.855369
7071.60986 0.844576
7072.50000 0.833689
7073.39014 0.822852
7074.27002 0.812016
7075.16016 0.801178
7076.04980 0.790343
7076.93994 0.779462
7077.81982 0.768583
7078.70996 0.757756
7079.58984 0.746971
7080.47998 0.727627
7081.37012 0.701248
7082.25977 0.674872
7083.14014 0.648486
7084.02979 0.622102
7084.91992 0.595606
7085.81006 0.569115
7086.70020 0.542727
7087.58008 0.516475
7088.47021 0.489979
7089.35986 0.463587
7090.25000 0.439929
7091.12988 0.42336
7092.02002 0.406805
7092.91016 0.39016
7093.79980 0.373528
7094.68994 0.35697
7095.58008 0.340479
7096.47021 0.323845
7097.35986 0.307286
7098.24023 0.290722
7099.12988 0.274159
7100.02002 0.257772
7100.91016 0.24803
7101.81006 0.23829
7102.70020 0.228588
7103.58008 0.218936
7104.47998 0.209189
7105.35986 0.199493
7106.25000 0.189797
7107.14014 0.180098
7108.02979 0.170401
7108.93018 0.160663
7109.81982 0.150921
7110.70996 0.145593
7111.60010 0.141386
7112.49023 0.137143
7113.37988 0.132917
7114.27002 0.128694
7115.16016 0.124469
7116.04980 0.120245
7116.95020 0.116003
7117.83984 0.11176
7118.72998 0.107535
7119.62012 0.10333
7120.52002 0.100027
7121.41016 0.0974261
7122.29980 0.0948244
7123.18994 0.092223
7124.08008 0.0896223
7124.97998 0.0870103
7125.87012 0.0843976
7126.75977 0.0817979
7127.64990 0.0792085
7128.54980 0.0765955
7129.43994 0.0739955
7130.33008 0.0719287
7131.22998 0.0707576
7132.12012 0.0695868
7133.02002 0.0684111
7133.91016 0.067235
7134.81006 0.066064
7135.68994 0.0648984
7136.58984 0.0637229
7137.47998 0.062552
7138.37988 0.061382
7139.27002 0.0602114
7140.16992 0.0590303
7141.06006 0.0577997
7141.95996 0.0565683
7142.85010 0.0553427
7143.74023 0.0541225
7144.64014 0.0528918
7145.54004 0.0516659
7146.43018 0.0504402
7147.33008 0.0492147
7148.22021 0.0479892
7149.12012 0.0467587
7150.02002 0.0455333
7150.91016 0.0443218
7151.81006 0.043121
7152.70020 0.0419093
7153.60010 0.0407037
7154.49023 0.0394976
7155.39014 0.0382917
7156.29004 0.0370853
7157.18994 0.0358746
7158.08008 0.0346687
7158.97998 0.0334577
7159.87012 0.0322568
7160.77002 0.0310632
7161.66992 0.029877
7162.56982 0.0286912
7163.45996 0.0275055
7164.35986 0.02632
7165.25977 0.0251291
7166.16016 0.0239435
7167.04980 0.0227633
7167.95020 0.021573
7168.85010 0.0203823
7169.75000 0.019197
7170.64990 0.018259
7171.54980 0.0174161
7172.43994 0.016573
7173.35010 0.0157267
7174.24023 0.0148838
7175.14014 0.0140447
7176.04004 0.0131978
7176.93994 0.0123512
7177.83984 0.0115087
7178.74023 0.0106655
7179.64014 0.0098228
7180.52979 0.00925923
7181.43994 0.00888328
7182.33984 0.00850901
7183.22998 0.0081362
7184.14014 0.00776041
7185.04004 0.00738445
7185.93994 0.00701019
7186.83984 0.00663598
7187.74023 0.00626181
7188.64014 0.0058875
7189.54004 0.0055116
7190.43994 0.00524891
7191.33984 0.00510324
7192.24023 0.00495624
7193.14990 0.00480926
7194.04980 0.00466292
7194.95020 0.00451662
7195.85010 0.00437027
7196.75000 0.00422402
7197.64990 0.00407707
7198.54980 0.0039307
7199.45020 0.00378506
7919.39502 0.0
