# %ECSV 0.9
# ---
# datatype:
# - {name: wavelength, unit: Angstrom, datatype: float32}
# - {name: response, datatype: float32}
# meta: !!omap
# - {band_name: F625W_81}
# - {group_name: ACS_WFC}
wavelength response
4873.12207 0.0
5414.58008 0.00179481
5415.25977 0.0018289
5415.93018 0.00186286
5416.60986 0.00189683
5417.29004 0.001931
5417.95996 0.00196489
5418.64014 0.00199908
5419.31006 0.00203329
5419.99023 0.00206722
5420.66992 0.002214
5421.33984 0.00236238
5422.02002 0.0025107
5422.70020 0.00265983
5423.37012 0.00280838
5424.04980 0.00295708
5424.72998 0.00310638
5425.41016 0.00325585
5426.08008 0.00340472
5426.75977 0.00355431
5427.43994 0.00370331
5428.12012 0.003853
5428.79004 0.00400222
5429.47021 0.00415138
5430.14990 0.00430075
5430.81982 0.00445031
5431.50000 0.00460059
5432.18018 0.00475029
5432.85986 0.00490017
5433.54004 0.00505076
5434.20996 0.00520077
5434.89014 0.00535086
5435.56982 0.00550166
5436.25000 0.00565188
5436.93018 0.00580228
5437.60986 0.00595329
5438.27979 0.00610382
5438.97021 0.00625507
5439.64014 0.00640585
5440.31982 0.00667624
5441.00000 0.00707613
5441.68018 0.00747589
5442.35986 0.0078761
5443.04004 0.00827648
5443.72021 0.008679
5444.39990 0.00908141
5445.06982 0.00948081
5445.75977 0.00988382
5446.43994 0.010287
5447.10986 0.0106869
5447.79980 0.0110904
5448.47998 0.0114943
5449.16016 0.0118964
5449.83984 0.0122989
5450.52002 0.0128658
5451.20020 0.0134848
5451.87988 0.0141011
5452.56006 0.0147176
5453.24023 0.0153375
5453.91992 0.015955
5454.60010 0.0165727
5455.27979 0.0171908
5455.95996 0.0178096
5456.64014 0.0184308
5457.31982 0.0190475
5458.00000 0.0196698
5458.68994 0.0202923
5459.35986 0.0209098
5460.04980 0.0215574
5460.72998 0.0225248
5461.41016 0.0234877
5462.10010 0.0244558
5462.77979 0.0254208
5463.45996 0.0263896
5464.14014 0.0273595
5464.81982 0.0283207
5465.50977 0.0292912
5466.18994 0.0302622
5466.87012 0.0312251
5467.54980 0.0321974
5468.22998 0.0331652
5468.91992 0.0341341
5469.60010 0.0351033
5470.27979 0.0362519
5470.95996 0.037666
5471.64990 0.0390746
5472.33008 0.0404849
5473.00977 0.041902
5473.70020 0.0433197
5474.37988 0.044732
5475.06006 0.046145
5475.75000 0.0475656
5476.43018 0.048987
5477.10986 0.0503959
5477.79980 0.0518186
5478.47998 0.053243
5479.16016 0.0546549
5479.85010 0.0560797
5480.52979 0.0575706
5481.22021 0.0590673
5481.89990 0.0605774
5482.58008 0.0620816
5483.27002 0.0635874
5483.95020 0.065099
5484.64014 0.0666056
5485.31982 0.0681128
5486.00977 0.0696269
5486.68994 0.0711416
5487.37988 0.0726449
5488.06006 0.0741605
5488.75000 0.0756776
5489.43018 0.0771887
5490.12012 0.0786225
5490.79980 0.0796835
5491.47998 0.080735
5492.16992 0.0817966
5492.85986 0.0828586
5493.54004 0.0839111
5494.22998 0.0849744
5494.91016 0.0860328
5495.60010 0.0870923
5496.29004 0.0881559
5496.97021 0.0892161
5497.66016 0.0902766
5498.35010 0.0913427
5499.02979 0.0924085
5499.72021 0.0934707
5500.39990 0.0950458
5501.08984 0.0969901
5501.77979 0.0989337
5502.47021 0.10087
5503.14990 0.102808
5503.83984 0.104748
5504.52002 0.106689
5505.20996 0.108639
5505.89990 0.110581
5506.58984 0.112525
5507.27002 0.11448
5507.95996 0.116427
5508.64990 0.118373
5509.33984 0.120332
5510.02002 0.122324
5510.70996 0.125467
5511.39990 0.128626
5512.08984 0.131773
5512.77002 0.134918
5513.45996 0.138082
5514.14990 0.141245
5514.83984 0.144397
5515.52979 0.147548
5516.22021 0.150716
5516.91016 0.153871
5517.58984 0.157027
5518.27979 0.160199
5518.97021 0.163356
5519.66016 0.166517
5520.35010 0.169513
5521.04004 0.172353
5521.72998 0.175209
5522.41992 0.178063
5523.10986 0.180909
5523.79980 0.183756
5524.49023 0.186615
5525.18018 0.189464
5525.87012 0.192326
5526.56006 0.195177
5527.25000 0.198042
5527.93994 0.200897
5528.62012 0.203753
5529.31006 0.20661
5530.00000 0.209467
5530.68994 0.212117
5531.39014 0.214756
5532.06982 0.217395
5532.75977 0.220036
5533.45020 0.222679
5534.14990 0.225335
5534.83984 0.227992
5535.52979 0.23065
5536.22021 0.233298
5536.91016 0.235946
5537.60010 0.238607
5538.29980 0.241271
5538.97998 0.243911
5539.68018 0.246577
5540.37012 0.248998
5541.06006 0.25119
5541.75000 0.2534
5542.43994 0.255604
5543.12988 0.257806
5543.83008 0.26002
5544.52002 0.262216
5545.20996 0.264432
5545.89990 0.266638
5546.58984 0.268845
5547.29004 0.271063
5547.97998 0.273282
5548.66992 0.275492
5549.35986 0.277704
5550.06006 0.27995
5550.75000 0.282481
5551.43994 0.284992
5552.14014 0.287526
5552.83008 0.29006
5553.52002 0.292575
5554.22021 0.295113
5554.91016 0.297653
5555.60010 0.300172
5556.29980 0.302716
5556.99023 0.305248
5557.68018 0.307782
5558.37988 0.310329
5559.06982 0.312865
5559.75977 0.315404
5560.45996 0.31783
5561.14990 0.320188
5561.83984 0.322528
5562.54004 0.324889
5563.24023 0.327252
5563.93018 0.329605
5564.62012 0.331959
5565.31982 0.334325
5566.00977 0.336679
5566.70996 0.339037
5567.39990 0.341405
5568.08984 0.343754
5568.79004 0.346124
5569.47998 0.348484
5570.18018 0.350827
5570.87988 0.353125
5571.56982 0.355423
5572.27002 0.357712
5572.95996 0.360002
5573.66016 0.362303
5574.35010 0.364593
5575.04980 0.366885
5575.75000 0.369188
5576.43994 0.371492
5577.14014 0.373786
5577.83984 0.376081
5578.52979 0.378387
5579.22998 0.380672
5579.91992 0.382978
5580.62012 0.384644
5581.31006 0.386231
5582.00977 0.387827
5582.70996 0.389409
5583.39990 0.391005
5584.10010 0.392604
5584.79980 0.394194
5585.50000 0.395793
5586.18994 0.397385
5586.89014 0.398985
5587.58984 0.400578
5588.29004 0.402173
5588.99023 0.403775
5589.68018 0.405372
5590.37988 0.406454
5591.08008 0.407111
5591.77979 0.407766
5592.47021 0.408422
5593.16992 0.40908
5593.87012 0.409737
5594.56982 0.410393
5595.25977 0.411047
5595.95996 0.411706
5596.66016 0.412366
5597.35986 0.413025
5598.06006 0.413685
5598.75977 0.414342
5599.45996 0.415004
5600.16016 0.415905
5600.85010 0.417641
5601.56006 0.419387
5602.25000 0.421125
5602.95020 0.422864
5603.64990 0.424612
5604.35010 0.426353
5605.04980 0.428096
5605.75000 0.429846
5606.45020 0.431588
5607.14990 0.433333
5607.85010 0.435086
5608.54980 0.436832
5609.25000 0.43858
5609.95020 0.440335
5610.64990 0.442147
5611.35010 0.443967
5612.04980 0.445796
5612.75000 0.447617
5613.45020 0.449439
5614.14990 0.45127
5614.85010 0.453095
5615.54980 0.45492
5616.25977 0.456754
5616.95996 0.45858
5617.66016 0.46041
5618.35986 0.462247
5619.06006 0.464085
5619.77002 0.465925
5620.45996 0.468295
5621.16992 0.470967
5621.87012 0.47364
5622.56982 0.47629
5623.27002 0.478966
5623.97998 0.481642
5624.66992 0.484296
5625.37988 0.486975
5626.08008 0.489655
5626.77979 0.492313
5627.47998 0.494994
5628.18994 0.497679
5628.89014 0.50034
5629.58984 0.503025
5630.29980 0.505231
5630.99023 0.506761
5631.70020 0.508306
5632.39990 0.509851
5633.10010 0.511383
5633.81006 0.51293
5634.50977 0.514477
5635.20996 0.516012
5635.91992 0.51756
5636.62012 0.51911
5637.31982 0.520647
5638.02979 0.522198
5638.72998 0.523748
5639.43018 0.525287
5640.14014 0.526831
5640.85010 0.528337
5641.54980 0.52983
5642.25000 0.531338
5642.95996 0.532848
5643.66016 0.534344
5644.35986 0.535853
5645.06982 0.537364
5645.77002 0.538863
5646.47998 0.540374
5647.18994 0.541887
5647.89014 0.543388
5648.58984 0.544903
5649.29980 0.546419
5650.00000 0.547921
5650.70996 0.548371
5651.41016 0.548822
5652.12012 0.549268
5652.81982 0.549719
5653.52979 0.55017
5654.22998 0.550618
5654.93994 0.55107
5655.64990 0.551521
5656.35986 0.551974
5657.06006 0.552424
5657.77002 0.552874
5658.47998 0.553327
5659.18018 0.553779
5659.89014 0.55423
5660.58984 0.555332
5661.29980 0.556555
5662.00000 0.557779
5662.70996 0.55901
5663.41992 0.560235
5664.12012 0.561461
5664.83008 0.562694
5665.54004 0.563921
5666.25000 0.565149
5666.95020 0.566383
5667.66016 0.567612
5668.37012 0.568842
5669.08008 0.570078
5669.77979 0.571308
5670.49023 0.572837
5671.20020 0.574506
5671.91016 0.576169
5672.60986 0.577833
5673.31982 0.579506
5674.02979 0.581171
5674.74023 0.582837
5675.45020 0.584511
5676.16016 0.586179
5676.85986 0.587849
5677.56982 0.589526
5678.27979 0.591197
5678.99023 0.592871
5679.70020 0.59455
5680.41016 0.595277
5681.12012 0.595308
5681.83008 0.595339
5682.52979 0.59537
5683.24023 0.5954
5683.95020 0.595431
5684.66016 0.595462
5685.37012 0.595492
5686.08008 0.595523
5686.79004 0.595554
5687.50000 0.595585
5688.20996 0.595615
5688.91992 0.595646
5689.62988 0.595676
5690.33984 0.595462
5691.04980 0.594983
5691.75977 0.594504
5692.47021 0.594023
5693.18994 0.593542
5693.89990 0.59306
5694.60010 0.592583
5695.31982 0.592101
5696.02979 0.591618
5696.74023 0.59114
5697.45020 0.590657
5698.16016 0.590177
5698.87012 0.589694
5699.58008 0.589211
5700.29980 0.588542
5701.00977 0.587621
5701.72021 0.586691
5702.43018 0.585761
5703.14014 0.584839
5703.85010 0.583908
5704.56006 0.582979
5705.27002 0.582051
5705.99023 0.581117
5706.70020 0.580185
5707.41016 0.579258
5708.12988 0.578322
5708.83984 0.577386
5709.54980 0.576458
5710.25977 0.576224
5710.97998 0.577184
5711.68994 0.578144
5712.39990 0.57911
5713.12012 0.580076
5713.83008 0.581033
5714.54004 0.582001
5715.25977 0.582968
5715.97021 0.583929
5716.68018 0.584898
5717.39014 0.585863
5718.10986 0.586828
5718.81982 0.587799
5719.54004 0.58877
5720.25000 0.590025
5720.95996 0.591838
5721.68018 0.593655
5722.39014 0.595455
5723.10986 0.597271
5723.81982 0.59908
5724.52979 0.600888
5725.25000 0.602707
5725.97021 0.604527
5726.68018 0.60633
5727.39014 0.608151
5728.10986 0.609972
5728.81982 0.611778
5729.54004 0.613599
5730.25000 0.615512
5730.97021 0.617621
5731.68994 0.619712
5732.39990 0.621806
5733.12012 0.623909
5733.83008 0.626006
5734.54980 0.628102
5735.27002 0.63021
5735.97998 0.63231
5736.68994 0.634411
5737.41016 0.636524
5738.12988 0.638628
5738.83984 0.640734
5739.56006 0.64285
5740.27979 0.644618
5740.99023 0.645849
5741.70996 0.64709
5742.43018 0.648322
5743.14014 0.649556
5743.85986 0.650795
5744.58008 0.65203
5745.29004 0.653265
5746.00977 0.654506
5746.72998 0.655743
5747.43994 0.65698
5748.16016 0.658224
5748.87988 0.659461
5749.60010 0.660699
5750.31982 0.661325
5751.02979 0.66116
5751.75000 0.660996
5752.47021 0.66083
5753.18994 0.660663
5753.89990 0.660497
5754.62012 0.660332
5755.33984 0.660167
5756.06006 0.660001
5756.77979 0.659835
5757.50000 0.659669
5758.20996 0.659502
5758.93018 0.659335
5759.64990 0.659171
5760.37012 0.658978
5761.08984 0.65876
5761.81006 0.658543
5762.52979 0.658327
5763.25000 0.65811
5763.97021 0.657892
5764.68994 0.657675
5765.41016 0.657457
5766.12012 0.657241
5766.83984 0.657025
5767.56006 0.656807
5768.27979 0.656591
5769.00977 0.656372
5769.72998 0.656155
5770.45020 0.656301
5771.16992 0.65667
5771.89014 0.657036
5772.60986 0.657405
5773.33008 0.657775
5774.04980 0.658142
5774.77002 0.658511
5775.49023 0.658881
5776.20996 0.659249
5776.93018 0.659619
5777.66016 0.659991
5778.37012 0.66036
5779.10010 0.660732
5779.81982 0.661104
5780.54004 0.661796
5781.25977 0.662605
5781.97998 0.663413
5782.70020 0.664218
5783.43018 0.665028
5784.14990 0.665839
5784.87012 0.666644
5785.58984 0.667456
5786.31006 0.668268
5787.02979 0.669072
5787.75977 0.669886
5788.47998 0.670699
5789.20020 0.671507
5789.91992 0.672321
5790.64990 0.674288
5791.37012 0.676371
5792.08984 0.678474
5792.81982 0.680578
5793.54004 0.682666
5794.25977 0.684772
5794.99023 0.686879
5795.70996 0.68897
5796.43018 0.691081
5797.16016 0.693194
5797.87988 0.695289
5798.60010 0.697403
5799.33008 0.69952
5800.04980 0.701481
5800.77002 0.701514
5801.50000 0.701547
5802.22021 0.701579
5802.95020 0.701611
5803.66992 0.701644
5804.39014 0.701677
5805.12012 0.70171
5805.85010 0.701742
5806.56982 0.701775
5807.29980 0.701808
5808.02002 0.701842
5808.75000 0.701876
5809.47021 0.701909
5810.18994 0.701934
5810.91992 0.701935
5811.64990 0.701936
5812.37012 0.701937
5813.10010 0.701939
5813.81982 0.701939
5814.54980 0.701941
5815.27002 0.701943
5816.00000 0.701945
5816.72021 0.701945
5817.45020 0.701947
5818.18018 0.701949
5818.89990 0.70195
5819.62988 0.701952
5820.35986 0.701946
5821.08008 0.701929
5821.81006 0.701912
5822.54004 0.701896
5823.25977 0.701881
5823.99023 0.701866
5824.72021 0.70185
5825.43994 0.701833
5826.16992 0.701817
5826.89990 0.701802
5827.62012 0.701786
5828.35010 0.70177
5829.08008 0.701755
5829.81006 0.70174
5830.54004 0.702527
5831.25977 0.703601
5831.99023 0.704677
5832.72021 0.705757
5833.45020 0.706833
5834.16992 0.70791
5834.89990 0.708992
5835.62988 0.710071
5836.35986 0.711149
5837.08984 0.712233
5837.81006 0.713312
5838.54004 0.714393
5839.27002 0.71548
5840.00000 0.716561
5840.72998 0.717925
5841.45996 0.719295
5842.18994 0.72066
5842.91992 0.722026
5843.64990 0.723399
5844.37988 0.724767
5845.10010 0.726135
5845.83984 0.72751
5846.56982 0.728887
5847.29980 0.730264
5848.02002 0.731631
5848.75977 0.73301
5849.49023 0.734384
5850.22021 0.735445
5850.95020 0.735761
5851.68018 0.736077
5852.41016 0.736391
5853.14014 0.736709
5853.87012 0.737026
5854.60010 0.73734
5855.33008 0.737657
5856.06006 0.737974
5856.79004 0.738291
5857.52002 0.73861
5858.25977 0.738928
5858.97998 0.739245
5859.72021 0.739564
5860.45020 0.739416
5861.18018 0.738977
5861.91016 0.738534
5862.64014 0.738094
5863.37012 0.737653
5864.10986 0.737209
5864.83984 0.736766
5865.56982 0.736327
5866.29980 0.735882
5867.04004 0.735437
5867.77002 0.734996
5868.50000 0.734551
5869.22998 0.734108
5869.95996 0.733666
5870.70020 0.733081
5871.43018 0.732488
5872.16016 0.7319
5872.89990 0.731308
5873.62988 0.730715
5874.35986 0.730127
5875.08984 0.729533
5875.83008 0.728943
5876.56006 0.728352
5877.29004 0.727757
5878.02979 0.727163
5878.75977 0.726574
5879.49023 0.72598
5880.22998 0.725854
5880.95996 0.726745
5881.70020 0.727645
5882.43018 0.728541
5883.16016 0.729438
5883.89990 0.730339
5884.64014 0.731242
5885.37012 0.732145
5886.10986 0.733044
5886.83984 0.733944
5887.58008 0.734849
5888.31006 0.73575
5889.04004 0.736652
5889.77979 0.737559
5890.52002 0.738477
5891.25000 0.739403
5891.99023 0.740334
5892.72021 0.741262
5893.45996 0.74219
5894.18994 0.743123
5894.93018 0.744052
5895.66016 0.744982
5896.39990 0.745917
5897.14014 0.746849
5897.87012 0.747782
5898.60986 0.748718
5899.33984 0.749652
5900.08008 0.750503
5900.81982 0.750657
5901.54980 0.75081
5902.29004 0.750962
5903.02979 0.751117
5903.75977 0.751271
5904.50000 0.751424
5905.24023 0.751579
5905.97021 0.751734
5906.70996 0.751888
5907.45020 0.752042
5908.18994 0.752197
5908.91992 0.752353
5909.66016 0.752509
5910.39990 0.752224
5911.12988 0.751567
5911.87012 0.750906
5912.60986 0.750248
5913.35010 0.749589
5914.08984 0.748927
5914.81982 0.748269
5915.56006 0.74761
5916.29980 0.746947
5917.04004 0.746288
5917.77979 0.745629
5918.52002 0.744966
5919.25977 0.744306
5919.99023 0.743646
5920.72998 0.743329
5921.47021 0.743016
5922.20996 0.742702
5922.95020 0.742388
5923.68994 0.742074
5924.43018 0.741759
5925.16992 0.741446
5925.91016 0.74113
5926.64990 0.740814
5927.39014 0.740502
5928.12988 0.740186
5928.87012 0.739871
5929.60986 0.739557
5930.35010 0.739098
5931.08984 0.73848
5931.83008 0.737863
5932.56982 0.737243
5933.31006 0.736623
5934.04980 0.736007
5934.79004 0.735387
5935.52979 0.734768
5936.27002 0.734149
5937.02002 0.733528
5937.75977 0.732909
5938.49023 0.732289
5939.24023 0.731665
5939.97998 0.731042
5940.72021 0.731837
5941.45996 0.732676
5942.20020 0.733513
5942.93994 0.734349
5943.68994 0.73519
5944.43018 0.736028
5945.16992 0.736866
5945.91016 0.737707
5946.66016 0.738551
5947.39990 0.739387
5948.14014 0.74023
5948.87988 0.741071
5949.62012 0.741913
5950.37012 0.743169
5951.10986 0.744841
5951.85010 0.746513
5952.60010 0.748193
5953.33984 0.749876
5954.08008 0.751545
5954.81982 0.753231
5955.56982 0.754908
5956.31006 0.756587
5957.04980 0.758275
5957.79980 0.759958
5958.54004 0.761642
5959.27979 0.763333
5960.02979 0.765007
5960.77002 0.766252
5961.52002 0.767509
5962.25977 0.768762
5963.00000 0.770015
5963.75000 0.771281
5964.50000 0.772537
5965.24023 0.773798
5965.99023 0.775055
5966.72998 0.776314
5967.47998 0.777579
5968.22021 0.77884
5968.95996 0.780101
5969.70996 0.781369
5970.45020 0.781684
5971.20020 0.781396
5971.95020 0.781106
5972.68994 0.780817
5973.43994 0.780529
5974.18018 0.780239
5974.93018 0.77995
5975.66992 0.779661
5976.41992 0.77937
5977.16016 0.779081
5977.91016 0.77879
5978.66016 0.7785
5979.39990 0.778211
5980.14990 0.777834
5980.89990 0.777104
5981.64014 0.77638
5982.39014 0.775654
5983.14014 0.774924
5983.87988 0.774198
5984.62988 0.773469
5985.37988 0.772737
5986.12012 0.772008
5986.87012 0.771279
5987.62012 0.770547
5988.35986 0.769818
5989.10986 0.769086
5989.85986 0.768352
5990.60986 0.767089
5991.35010 0.765704
5992.10010 0.764311
5992.85010 0.762925
5993.60010 0.761535
5994.35010 0.76014
5995.08984 0.758751
5995.83984 0.757358
5996.58984 0.755959
5997.33984 0.754567
5998.08984 0.753172
5998.83984 0.75177
5999.58984 0.750375
6000.33008 0.749926
6001.08008 0.750661
6001.83008 0.751394
6002.58008 0.752127
6003.33008 0.752864
6004.08008 0.7536
6004.83008 0.754333
6005.58008 0.755068
6006.33008 0.755805
6007.08008 0.756544
6007.83008 0.757277
6008.58008 0.758015
6009.33008 0.75875
6010.08008 0.759527
6010.83008 0.760646
6011.58008 0.761761
6012.33008 0.762876
6013.08008 0.763999
6013.83008 0.76512
6014.58008 0.766232
6015.33008 0.767355
6016.08008 0.768475
6016.83008 0.769594
6017.58984 0.770717
6018.33984 0.771837
6019.08984 0.772957
6019.83984 0.774084
6020.58984 0.776079
6021.33984 0.778292
6022.08984 0.780525
6022.83984 0.78275
6023.60010 0.784977
6024.35010 0.787214
6025.10010 0.789442
6025.85010 0.791673
6026.60010 0.793916
6027.35986 0.796159
6028.10986 0.798385
6028.85986 0.80063
6029.60986 0.802868
6030.35986 0.804415
6031.12012 0.80523
6031.87012 0.806042
6032.62012 0.806854
6033.37988 0.807671
6034.12988 0.808488
6034.87988 0.809298
6035.64014 0.810115
6036.39014 0.81093
6037.14014 0.811746
6037.89990 0.812564
6038.64990 0.813381
6039.39990 0.814198
6040.16016 0.814925
6040.91016 0.815294
6041.66016 0.815662
6042.41992 0.816033
6043.16992 0.816402
6043.93018 0.816774
6044.68994 0.817143
6045.43994 0.817513
6046.20020 0.817885
6046.95020 0.818255
6047.70020 0.818623
6048.45996 0.818995
6049.20996 0.819366
6049.97021 0.819736
6050.72998 0.819868
6051.47998 0.81999
6052.22998 0.820112
6052.99023 0.820235
6053.74023 0.820355
6054.50000 0.820478
6055.25977 0.820601
6056.00977 0.820722
6056.77002 0.820843
6057.52002 0.820965
6058.27979 0.821087
6059.02979 0.821209
6059.79004 0.82133
6060.54980 0.820896
6061.29980 0.82025
6062.06006 0.8196
6062.81982 0.818955
6063.56982 0.818308
6064.33008 0.817657
6065.08984 0.817009
6065.85010 0.81636
6066.60010 0.815708
6067.35986 0.815059
6068.12012 0.81441
6068.87988 0.813756
6069.62988 0.813105
6070.39014 0.812801
6071.14990 0.812827
6071.89990 0.812851
6072.66016 0.812877
6073.41992 0.812901
6074.18018 0.812926
6074.93994 0.812952
6075.70020 0.812977
6076.45020 0.813001
6077.20996 0.813025
6077.97021 0.81305
6078.72998 0.813075
6079.49023 0.813099
6080.25000 0.813279
6081.00977 0.81378
6081.75977 0.81428
6082.52002 0.814783
6083.27979 0.815284
6084.04004 0.815787
6084.79980 0.816289
6085.56006 0.816794
6086.31982 0.817296
6087.08008 0.817797
6087.83984 0.818304
6088.60010 0.818807
6089.35986 0.819309
6090.12012 0.819613
6090.87988 0.818865
6091.64014 0.818118
6092.39990 0.817366
6093.16016 0.816617
6093.91992 0.815868
6094.68018 0.815114
6095.43994 0.814364
6096.20020 0.813613
6096.97021 0.812859
6097.72998 0.812106
6098.49023 0.811353
6099.25000 0.810597
6100.00977 0.809828
6100.77002 0.807834
6101.52979 0.805832
6102.29004 0.803839
6103.06006 0.801841
6103.81982 0.799837
6104.58008 0.797837
6105.33984 0.795837
6106.10010 0.793826
6106.85986 0.791825
6107.62988 0.789821
6108.39014 0.787809
6109.14990 0.785802
6109.91016 0.783795
6110.68018 0.783578
6111.43994 0.78359
6112.20020 0.783601
6112.97021 0.783612
6113.72998 0.783623
6114.49023 0.783634
6115.25977 0.783644
6116.02002 0.783655
6116.77979 0.783665
6117.54980 0.783676
6118.31006 0.783687
6119.06982 0.783696
6119.83984 0.783707
6120.60010 0.784945
6121.35986 0.78652
6122.12988 0.788102
6122.89014 0.789679
6123.64990 0.791257
6124.41992 0.792849
6125.18994 0.794427
6125.95020 0.796014
6126.72021 0.797595
6127.47998 0.799177
6128.25000 0.800766
6129.00977 0.80235
6129.77979 0.803934
6130.54004 0.805897
6131.31006 0.808007
6132.06982 0.810117
6132.83984 0.812237
6133.60010 0.814351
6134.37012 0.816466
6135.14014 0.818589
6135.89990 0.820706
6136.66016 0.822825
6137.43018 0.824954
6138.20020 0.827073
6138.95996 0.829196
6139.72998 0.831327
6140.50000 0.833601
6141.25977 0.835956
6142.02979 0.838322
6142.79980 0.84068
6143.56006 0.84304
6144.33008 0.845411
6145.10010 0.847772
6145.85986 0.850135
6146.62988 0.85251
6147.39990 0.854877
6148.16016 0.857245
6148.93018 0.859625
6149.70020 0.861995
6150.47021 0.863303
6151.24023 0.863927
6152.00000 0.864549
6152.77002 0.865169
6153.54004 0.865794
6154.31006 0.866416
6155.06982 0.867038
6155.83984 0.867663
6156.60986 0.868286
6157.37988 0.868909
6158.14990 0.869535
6158.91992 0.870158
6159.68018 0.870783
6160.45020 0.870831
6161.22021 0.870477
6161.99023 0.870123
6162.75977 0.869767
6163.52979 0.869414
6164.29980 0.869059
6165.06982 0.868702
6165.83984 0.868346
6166.60986 0.867989
6167.37988 0.867633
6168.14990 0.867275
6168.91992 0.866917
6169.68994 0.866561
6170.45996 0.86539
6171.22998 0.863673
6172.00000 0.861955
6172.77002 0.860229
6173.54004 0.858507
6174.31006 0.856787
6175.08008 0.855056
6175.85010 0.853331
6176.62012 0.851606
6177.39990 0.849872
6178.16016 0.848144
6178.93994 0.846415
6179.70996 0.844678
6180.47998 0.844291
6181.25000 0.844727
6182.02002 0.845166
6182.79004 0.845603
6183.56006 0.846039
6184.33984 0.846478
6185.10986 0.846916
6185.87988 0.847355
6186.64990 0.847794
6187.41992 0.848231
6188.18994 0.848669
6188.97021 0.849108
6189.74023 0.849546
6190.50977 0.849746
6191.29004 0.849824
6192.06006 0.849903
6192.83008 0.849982
6193.60010 0.85006
6194.37988 0.850138
6195.14990 0.850216
6195.93018 0.850294
6196.70020 0.850373
6197.47021 0.850451
6198.24023 0.850529
6199.02002 0.850606
6199.79004 0.850683
6200.56982 0.851816
6201.33984 0.853332
6202.10986 0.85485
6202.89014 0.856375
6203.66016 0.857893
6204.43994 0.859413
6205.20996 0.860939
6205.99023 0.862466
6206.77002 0.863993
6207.54004 0.865515
6208.31006 0.867038
6209.08984 0.868567
6209.85986 0.87009
6210.64014 0.871055
6211.41016 0.871901
6212.18994 0.872742
6212.95996 0.873586
6213.74023 0.874431
6214.52002 0.875274
6215.29004 0.876118
6216.06982 0.876965
6216.83984 0.877808
6217.62012 0.878653
6218.39990 0.879502
6219.16992 0.880347
6219.93994 0.881192
6220.72021 0.882107
6221.50000 0.883023
6222.27002 0.88394
6223.04980 0.884863
6223.83008 0.885778
6224.60010 0.886697
6225.37988 0.88762
6226.16016 0.888539
6226.93994 0.889459
6227.70996 0.890383
6228.49023 0.891302
6229.27002 0.892222
6230.04980 0.893073
6230.81982 0.892773
6231.60010 0.892472
6232.37988 0.892168
6233.16016 0.891865
6233.93018 0.891563
6234.70996 0.891259
6235.49023 0.890956
6236.27002 0.890653
6237.04980 0.890348
6237.81982 0.890044
6238.60010 0.889741
6239.37988 0.889435
6240.16016 0.889137
6240.93994 0.888869
6241.72021 0.888599
6242.50000 0.88833
6243.27979 0.888059
6244.06006 0.887787
6244.83984 0.887517
6245.60986 0.887247
6246.39990 0.886975
6247.16992 0.886704
6247.95996 0.886432
6248.72998 0.886159
6249.52002 0.885886
6250.29980 0.886168
6251.06982 0.887351
6251.85986 0.88854
6252.64014 0.889727
6253.41992 0.890912
6254.20020 0.892102
6254.97998 0.893289
6255.75977 0.894476
6256.54004 0.895669
6257.31982 0.896856
6258.10010 0.898044
6258.87988 0.899239
6259.66016 0.900428
6260.43994 0.901232
6261.22998 0.901745
6262.00977 0.902254
6262.79004 0.902764
6263.56982 0.903277
6264.35010 0.903787
6265.12988 0.904296
6265.91992 0.904811
6266.70020 0.905322
6267.47998 0.905834
6268.25977 0.906348
6269.04980 0.90686
6269.83008 0.907372
6270.60986 0.907437
6271.39014 0.907375
6272.16992 0.907313
6272.95996 0.907251
6273.74023 0.90719
6274.52002 0.907127
6275.31006 0.907064
6276.08984 0.907001
6276.87012 0.90694
6277.66016 0.906876
6278.43994 0.906813
6279.22021 0.90675
6280.00977 0.906683
6280.79004 0.906367
6281.56982 0.906051
6282.35986 0.905734
6283.14014 0.905418
6283.93018 0.905103
6284.70996 0.904784
6285.50000 0.904467
6286.27979 0.90415
6287.06982 0.903832
6287.85010 0.903513
6288.62988 0.903197
6289.43018 0.902877
6290.20996 0.901956
6291.00000 0.899358
6291.77979 0.896772
6292.56006 0.894184
6293.35010 0.891583
6294.14014 0.888991
6294.91992 0.886399
6295.70996 0.883793
6296.49023 0.881197
6297.27979 0.8786
6298.06982 0.875991
6298.85010 0.873391
6299.64014 0.870792
6300.41992 0.868388
6301.20996 0.866172
6301.99023 0.863955
6302.77979 0.86173
6303.56982 0.859511
6304.35010 0.857291
6305.14014 0.855062
6305.93018 0.852838
6306.72021 0.850615
6307.50977 0.848381
6308.29004 0.846156
6309.08008 0.843929
6309.87012 0.841693
6310.64990 0.84056
6311.43994 0.839649
6312.22998 0.838733
6313.02002 0.83782
6313.79980 0.836907
6314.58984 0.835989
6315.37988 0.835076
6316.16992 0.834161
6316.95996 0.83324
6317.75000 0.832326
6318.52979 0.831409
6319.31982 0.830487
6320.10986 0.829896
6320.89990 0.831295
6321.68994 0.832698
6322.47998 0.834099
6323.27002 0.835498
6324.06006 0.836905
6324.85010 0.838306
6325.62988 0.839709
6326.43018 0.841118
6327.20996 0.842522
6328.00000 0.843927
6328.79980 0.845338
6329.58008 0.846745
6330.37012 0.849256
6331.16016 0.853023
6331.95996 0.856789
6332.75000 0.860542
6333.54004 0.864297
6334.33008 0.868072
6335.12012 0.871832
6335.91016 0.875594
6336.70020 0.879375
6337.49023 0.883141
6338.27979 0.886911
6339.06982 0.890699
6339.85986 0.894473
6340.64990 0.896161
6341.45020 0.89742
6342.24023 0.898675
6343.02979 0.89993
6343.81982 0.901192
6344.60986 0.902447
6345.39990 0.903703
6346.20020 0.904966
6346.99023 0.906224
6347.77979 0.907482
6348.56982 0.908745
6349.35986 0.910004
6350.16016 0.911441
6350.95020 0.913603
6351.74023 0.915757
6352.52979 0.917911
6353.33008 0.920078
6354.12012 0.922235
6354.91016 0.924395
6355.70996 0.926564
6356.50000 0.928725
6357.29004 0.930887
6358.08984 0.933057
6358.87988 0.935224
6359.66992 0.937389
6360.47021 0.938384
6361.25977 0.938558
6362.06006 0.93873
6362.85010 0.938906
6363.64990 0.939079
6364.43994 0.939252
6365.22998 0.939426
6366.02979 0.9396
6366.81982 0.939774
6367.62012 0.939947
6368.41016 0.940121
6369.20996 0.940295
6370.00000 0.940465
6370.79980 0.939343
6371.58984 0.938222
6372.39014 0.937094
6373.18994 0.935965
6373.97998 0.934836
6374.77979 0.933711
6375.56982 0.932585
6376.37012 0.931452
6377.16016 0.930323
6377.95996 0.929194
6378.75977 0.92806
6379.54980 0.926934
6380.35010 0.926748
6381.14990 0.927792
6381.93994 0.928832
6382.74023 0.929872
6383.54004 0.93092
6384.33008 0.931961
6385.12988 0.933003
6385.93018 0.934049
6386.72021 0.935089
6387.52002 0.936138
6388.31982 0.937188
6389.10986 0.938233
6389.91016 0.939277
6390.70996 0.940062
6391.50977 0.94081
6392.29980 0.941558
6393.10010 0.942312
6393.89990 0.943056
6394.70020 0.943807
6395.50000 0.944559
6396.29980 0.945309
6397.08984 0.946058
6397.89014 0.946813
6398.68994 0.947562
6399.49023 0.948313
6400.29004 0.948743
6401.08008 0.948592
6401.87988 0.948443
6402.68994 0.948293
6403.47998 0.948143
6404.27979 0.947993
6405.08008 0.947841
6405.87988 0.947691
6406.68018 0.947542
6407.47998 0.947391
6408.27979 0.94724
6409.08008 0.947086
6409.87988 0.946934
6410.68018 0.947038
6411.47998 0.947187
6412.27979 0.947336
6413.08008 0.947486
6413.87988 0.947634
6414.68018 0.947785
6415.47998 0.947933
6416.27979 0.948081
6417.08008 0.948231
6417.89014 0.94838
6418.68994 0.948528
6419.49023 0.948676
6420.29004 0.948238
6421.08984 0.94677
6421.89014 0.9453
6422.68994 0.943825
6423.50000 0.942357
6424.29980 0.940886
6425.10010 0.93941
6425.89990 0.937934
6426.70020 0.936463
6427.50977 0.934985
6428.31006 0.933511
6429.10986 0.932037
6429.91016 0.930557
6430.72021 0.929708
6431.52002 0.928935
6432.31982 0.928159
6433.12012 0.927386
6433.93018 0.926614
6434.72998 0.925836
6435.52979 0.925061
6436.33008 0.924287
6437.14014 0.923509
6437.93994 0.922732
6438.74023 0.921957
6439.54980 0.921178
6440.35010 0.920849
6441.14990 0.921091
6441.95996 0.921334
6442.77002 0.921576
6443.56982 0.92182
6444.37012 0.922063
6445.18018 0.922304
6445.97998 0.922549
6446.79004 0.922791
6447.58984 0.923032
6448.39014 0.923274
6449.20020 0.923519
6450.00977 0.923763
6450.81006 0.92402
6451.62012 0.924281
6452.41992 0.92454
6453.22998 0.924799
6454.02979 0.925057
6454.83984 0.925318
6455.64014 0.925576
6456.45020 0.925836
6457.25000 0.926096
6458.06982 0.926358
6458.87012 0.926616
6459.68018 0.926876
6460.47998 0.928098
6461.29004 0.929955
6462.10010 0.931816
6462.89990 0.933683
6463.70996 0.935543
6464.52002 0.937404
6465.31982 0.939272
6466.12988 0.941125
6466.93994 0.942995
6467.74023 0.944865
6468.54980 0.946728
6469.35986 0.948592
6470.16992 0.950345
6470.97021 0.951639
6471.77979 0.952933
6472.58984 0.954233
6473.39014 0.955521
6474.20020 0.956822
6475.00977 0.958124
6475.81982 0.959421
6476.62988 0.960718
6477.43994 0.96202
6478.25000 0.963319
6479.04980 0.964617
6479.85986 0.965923
6480.66992 0.965243
6481.47998 0.964151
6482.29004 0.963058
6483.10010 0.961968
6483.91016 0.960877
6484.72021 0.959784
6485.52979 0.958694
6486.33008 0.957603
6487.14990 0.956508
6487.95020 0.95542
6488.75977 0.954325
6489.56982 0.953227
6490.37988 0.951669
6491.18994 0.949598
6492.00977 0.947516
6492.81006 0.94544
6493.62012 0.943366
6494.43994 0.941282
6495.24023 0.939212
6496.06006 0.937126
6496.87012 0.935038
6497.68018 0.932966
6498.49023 0.930876
6499.29980 0.928786
6500.10986 0.92659
6500.91992 0.92369
6501.72998 0.920772
6502.54980 0.917852
6503.35986 0.914947
6504.16992 0.912038
6504.97998 0.909113
6505.79980 0.906202
6506.60986 0.903288
6507.41992 0.900361
6508.22998 0.897443
6509.04004 0.894525
6509.85986 0.891594
6510.66992 0.890333
6511.47998 0.889427
6512.29980 0.888517
6513.10986 0.887611
6513.91992 0.886704
6514.72998 0.885794
6515.54980 0.884885
6516.35986 0.883977
6517.16992 0.883065
6517.97998 0.882155
6518.79980 0.881247
6519.60986 0.880333
6520.43018 0.880123
6521.24023 0.880547
6522.06006 0.880972
6522.87012 0.881396
6523.68018 0.881819
6524.50000 0.882245
6525.31006 0.882669
6526.12012 0.883092
6526.93994 0.883518
6527.75000 0.883942
6528.56982 0.884366
6529.39014 0.884793
6530.20020 0.885333
6531.00977 0.886226
6531.83008 0.887125
6532.64014 0.88802
6533.45996 0.888915
6534.27979 0.889814
6535.08984 0.89071
6535.89990 0.891605
6536.72021 0.892507
6537.54004 0.893404
6538.35010 0.894301
6539.16992 0.895203
6539.97998 0.8961
6540.79980 0.899596
6541.62012 0.903156
6542.43994 0.906701
6543.25000 0.910249
6544.06982 0.913814
6544.89014 0.917385
6545.70996 0.920955
6546.52002 0.924496
6547.33984 0.928071
6548.16016 0.931651
6548.97021 0.9352
6549.79004 0.93878
6550.60986 0.940552
6551.43018 0.941698
6552.24023 0.942843
6553.06006 0.943995
6553.87988 0.945137
6554.70020 0.946289
6555.52002 0.947441
6556.33008 0.948584
6557.14990 0.949739
6557.97021 0.950891
6558.79004 0.952041
6559.60986 0.95319
6560.43018 0.95389
6561.24023 0.954173
6562.06006 0.954456
6562.89014 0.954741
6563.70020 0.955023
6564.52002 0.955309
6565.33984 0.955593
6566.16016 0.955877
6566.97998 0.95616
6567.79980 0.956444
6568.62012 0.956727
6569.43994 0.957013
6570.25977 0.957018
6571.08008 0.956422
6571.89990 0.955817
6572.72021 0.955215
6573.54004 0.954615
6574.35986 0.954016
6575.18018 0.953414
6576.00000 0.952814
6576.81982 0.952212
6577.64990 0.951608
6578.45996 0.951009
6579.27979 0.950405
6580.10986 0.95005
6580.93018 0.951351
6581.75000 0.95265
6582.56982 0.953957
6583.39014 0.955254
6584.20996 0.956562
6585.04004 0.95787
6585.85010 0.959168
6586.68018 0.960476
6587.50000 0.961786
6588.33008 0.963098
6589.14990 0.964402
6589.97021 0.965708
6590.79004 0.965293
6591.62012 0.964812
6592.43994 0.964332
6593.25977 0.963849
6594.08008 0.963368
6594.91016 0.962888
6595.72998 0.962406
6596.54980 0.961923
6597.37988 0.961441
6598.20020 0.960958
6599.02002 0.960475
6599.85010 0.959991
6600.66992 0.961569
6601.49023 0.963611
6602.31982 0.965653
6603.14014 0.967705
6603.97021 0.969748
6604.79004 0.971793
6605.62012 0.973848
6606.43994 0.975896
6607.25977 0.977943
6608.08984 0.98
6608.91016 0.98205
6609.74023 0.984101
6610.56006 0.984832
6611.39014 0.984948
6612.20996 0.985064
6613.04004 0.985181
6613.85986 0.985295
6614.68994 0.985411
6615.52002 0.985529
6616.33984 0.985645
6617.16992 0.98576
6617.99023 0.985876
6618.81982 0.985992
6619.64014 0.986108
6620.47021 0.986029
6621.29980 0.985803
6622.12012 0.985576
6622.95020 0.985349
6623.77979 0.985123
6624.60010 0.984897
6625.43018 0.98467
6626.25977 0.984442
6627.08008 0.984217
6627.91016 0.983988
6628.74023 0.983761
6629.56006 0.983534
6630.39990 0.983615
6631.22021 0.984035
6632.06006 0.984459
6632.87988 0.984876
6633.70996 0.985298
6634.54004 0.985721
6635.35986 0.986141
6636.18994 0.986562
6637.02002 0.986984
6637.85010 0.987404
6638.68018 0.987827
6639.50977 0.988251
6640.33008 0.987728
6641.16016 0.98579
6641.99023 0.983851
6642.81982 0.98192
6643.64990 0.979989
6644.47998 0.978049
6645.31006 0.976125
6646.14014 0.974183
6646.97021 0.972239
6647.79980 0.970313
6648.62988 0.968369
6649.45996 0.966423
6650.29004 0.965255
6651.12012 0.965531
6651.95020 0.965807
6652.77002 0.966082
6653.60986 0.966359
6654.43994 0.966637
6655.27002 0.966912
6656.10010 0.967188
6656.93018 0.967465
6657.75977 0.967742
6658.58984 0.968018
6659.43018 0.968295
6660.25000 0.968657
6661.08984 0.969224
6661.91992 0.969792
6662.75000 0.970354
6663.58008 0.970922
6664.41016 0.971489
6665.24023 0.972054
6666.06982 0.972621
6666.91016 0.973189
6667.74023 0.973753
6668.56982 0.974321
6669.41016 0.97489
6670.22998 0.975647
6671.06982 0.976905
6671.89990 0.978163
6672.72998 0.979417
6673.56982 0.98067
6674.39990 0.98193
6675.22998 0.983178
6676.06982 0.984444
6676.89990 0.985699
6677.74023 0.986959
6678.56982 0.988214
6679.39990 0.98947
6680.24023 0.990534
6681.06982 0.991092
6681.89990 0.991651
6682.74023 0.992213
6683.56982 0.992772
6684.39990 0.993332
6685.24023 0.993894
6686.06982 0.994454
6686.91016 0.995014
6687.74023 0.995576
6688.58008 0.996137
6689.41016 0.996699
6690.25000 0.996699
6691.08008 0.995378
6691.91992 0.994058
6692.75977 0.99273
6693.58984 0.991408
6694.41992 0.990085
6695.25977 0.988756
6696.10010 0.987432
6696.93018 0.98611
6697.77002 0.984781
6698.60010 0.983454
6699.43994 0.982127
6700.27979 0.981112
6701.10986 0.980746
6701.95020 0.980378
6702.79004 0.980009
6703.62012 0.979642
6704.45996 0.979273
6705.29980 0.978905
6706.12988 0.978538
6706.97021 0.978169
6707.81006 0.977801
6708.64014 0.977433
6709.47998 0.977065
6710.31982 0.976217
6711.14990 0.974591
6711.99023 0.972963
6712.83008 0.971332
6713.66992 0.969703
6714.50000 0.968074
6715.35010 0.966437
6716.18018 0.964805
6717.02002 0.963174
6717.85986 0.961533
6718.70020 0.9599
6719.52979 0.958265
6720.37988 0.957666
6721.22021 0.958363
6722.06006 0.959058
6722.89014 0.959748
6723.72998 0.960443
6724.56982 0.961139
6725.41016 0.961833
6726.25000 0.962528
6727.08984 0.963225
6727.93018 0.963915
6728.77002 0.964615
6729.60986 0.965313
6730.45020 0.965871
6731.29004 0.966318
6732.12988 0.966765
6732.97021 0.96721
6733.81006 0.967656
6734.64990 0.968102
6735.49023 0.968545
6736.33008 0.968992
6737.18018 0.96944
6738.00977 0.969884
6738.85010 0.970331
6739.70020 0.970779
6740.54004 0.971609
6741.37988 0.972654
6742.22021 0.973701
6743.06006 0.974741
6743.89990 0.975794
6744.75000 0.976843
6745.58008 0.977884
6746.43018 0.978935
6747.27002 0.979987
6748.10986 0.981035
6748.95020 0.982082
6749.79980 0.983134
6750.64014 0.984449
6751.47998 0.985864
6752.33008 0.987278
6753.16016 0.988681
6754.00977 0.990097
6754.85010 0.991511
6755.70020 0.992923
6756.54004 0.994335
6757.39014 0.995753
6758.22021 0.99716
6759.06982 0.99858
6759.91992 1.0
6760.75000 0.999745
6761.60010 0.999297
6762.45020 0.998849
6763.29004 0.998403
6764.12988 0.997957
6764.97998 0.997509
6765.83008 0.997062
6766.66992 0.996616
6767.50977 0.996169
6768.35986 0.99572
6769.20020 0.995274
6770.04980 0.994814
6770.89990 0.99412
6771.74023 0.993431
6772.58008 0.992742
6773.43018 0.992048
6774.27002 0.991357
6775.12012 0.990666
6775.97021 0.98997
6776.81006 0.989279
6777.64990 0.988587
6778.50000 0.98789
6779.35010 0.987197
6780.18994 0.98663
6781.04004 0.986488
6781.89014 0.986348
6782.72998 0.986207
6783.58008 0.986064
6784.43018 0.985923
6785.27002 0.985781
6786.12012 0.985638
6786.97021 0.985497
6787.81006 0.985354
6788.66016 0.985211
6789.50977 0.985069
6790.35010 0.984829
6791.20020 0.984453
6792.04980 0.984078
6792.89990 0.983701
6793.75000 0.983324
6794.60010 0.982948
6795.43994 0.982572
6796.29004 0.982193
6797.14014 0.981817
6797.99023 0.98144
6798.83984 0.981063
6799.68994 0.980686
6800.52979 0.981372
6801.37988 0.982694
6802.22998 0.984012
6803.08008 0.985329
6803.93018 0.986655
6804.77979 0.987973
6805.62988 0.989291
6806.47998 0.990615
6807.33008 0.991937
6808.18018 0.993256
6809.02979 0.994582
6809.87988 0.995903
6810.72998 0.994846
6811.58008 0.993401
6812.43018 0.991941
6813.27979 0.990483
6814.12988 0.989038
6814.97998 0.987578
6815.83008 0.986118
6816.68018 0.984671
6817.52979 0.983209
6818.39014 0.981747
6819.22998 0.9803
6820.08984 0.978961
6820.93994 0.978712
6821.79004 0.978467
6822.64014 0.978219
6823.49023 0.977971
6824.33984 0.977725
6825.18994 0.977477
6826.04980 0.977228
6826.89990 0.97698
6827.75000 0.976732
6828.60010 0.976484
6829.45020 0.976237
6830.31006 0.975774
6831.16016 0.974931
6832.00977 0.974097
6832.85986 0.973255
6833.72021 0.972412
6834.56982 0.971576
6835.41992 0.970732
6836.27979 0.969889
6837.12988 0.969052
6837.97998 0.968208
6838.83984 0.967361
6839.68994 0.966525
6840.54004 0.965632
6841.39990 0.964711
6842.25000 0.963798
6843.10010 0.962877
6843.95996 0.961956
6844.81006 0.961042
6845.66992 0.960121
6846.52002 0.959199
6847.37988 0.958285
6848.22998 0.957364
6849.08984 0.956442
6849.93994 0.955526
6850.79980 0.956089
6851.64990 0.956767
6852.50000 0.957439
6853.35986 0.958117
6854.22021 0.958796
6855.06982 0.959468
6855.93018 0.960149
6856.79004 0.960825
6857.64990 0.961505
6858.50000 0.962181
6859.35010 0.962858
6860.20996 0.963337
6861.06982 0.963203
6861.91992 0.963068
6862.77979 0.962933
6863.64014 0.9628
6864.49023 0.962665
6865.35010 0.96253
6866.20996 0.962395
6867.06006 0.962261
6867.91992 0.962125
6868.77979 0.96199
6869.62988 0.961855
6870.49023 0.962072
6871.35010 0.962548
6872.20996 0.963022
6873.06982 0.963502
6873.91992 0.963979
6874.77979 0.964455
6875.64014 0.964935
6876.50000 0.965412
6877.35010 0.965889
6878.22021 0.966368
6879.06982 0.966844
6879.93018 0.967321
6880.79004 0.967022
6881.64990 0.966653
6882.50977 0.966284
6883.37012 0.965913
6884.22998 0.965544
6885.08008 0.965175
6885.93994 0.964804
6886.79980 0.964434
6887.66016 0.964062
6888.52002 0.96369
6889.37988 0.96332
6890.24023 0.962774
6891.10010 0.961772
6891.95996 0.960772
6892.81982 0.959775
6893.68018 0.958771
6894.54004 0.95777
6895.39990 0.95677
6896.27002 0.955767
6897.12012 0.954767
6897.97998 0.953765
6898.85010 0.95276
6899.70996 0.951759
6900.56982 0.951027
6901.43018 0.950431
6902.29980 0.949833
6903.16016 0.949236
6904.02002 0.948643
6904.87988 0.948046
6905.74023 0.947447
6906.60010 0.946855
6907.47021 0.946257
6908.33008 0.945659
6909.18994 0.945065
6910.04980 0.944516
6910.91992 0.944721
6911.77002 0.944924
6912.64014 0.945128
6913.50977 0.945334
6914.35986 0.945536
6915.22998 0.945739
6916.08984 0.945944
6916.95020 0.946147
6917.81982 0.946351
6918.68994 0.946555
6919.54004 0.946756
6920.41016 0.947407
6921.27002 0.948556
6922.12988 0.949695
6923.00000 0.950844
6923.87012 0.951993
6924.72998 0.953132
6925.58984 0.954282
6926.45996 0.955432
6927.31982 0.956571
6928.18994 0.957721
6929.04980 0.958873
6929.91016 0.960011
6930.77979 0.960249
6931.64990 0.960386
6932.50977 0.960521
6933.37988 0.960657
6934.24023 0.960792
6935.10010 0.960926
6935.97021 0.961062
6936.83984 0.961197
6937.70020 0.961329
6938.56982 0.961464
6939.43994 0.9616
6940.29980 0.961429
6941.16992 0.960679
6942.04004 0.959928
6942.89990 0.959185
6943.77002 0.958434
6944.64014 0.957682
6945.50000 0.956936
6946.37012 0.956184
6947.24023 0.955431
6948.10986 0.954675
6948.97021 0.953926
6949.83984 0.953173
6950.70996 0.951662
6951.56982 0.949985
6952.43994 0.948309
6953.31006 0.946625
6954.18018 0.944947
6955.04980 0.94327
6955.91992 0.941583
6956.77979 0.939905
6957.64990 0.938227
6958.52002 0.936541
6959.39014 0.934861
6960.25977 0.932984
6961.12988 0.930624
6961.99023 0.928274
6962.85986 0.925924
6963.72998 0.923563
6964.60010 0.921211
6965.47021 0.918859
6966.33984 0.916496
6967.20996 0.914143
6968.08008 0.911788
6968.95020 0.909425
6969.81982 0.90707
6970.68994 0.904688
6971.56006 0.902286
6972.43018 0.899896
6973.29980 0.897504
6974.16992 0.895101
6975.04004 0.892706
6975.91016 0.890314
6976.77979 0.887906
6977.64990 0.88551
6978.52002 0.883113
6979.39014 0.880703
6980.25977 0.877969
6981.12988 0.874463
6982.00977 0.87094
6982.87988 0.867431
6983.75000 0.863918
6984.62012 0.86039
6985.49023 0.856873
6986.35986 0.853355
6987.24023 0.849821
6988.10986 0.846301
6988.97998 0.842777
6989.85010 0.839238
6990.72998 0.834014
6991.60010 0.828442
6992.47021 0.822846
6993.33984 0.817272
6994.22021 0.81165
6995.08984 0.806094
6995.97021 0.800491
6996.83984 0.794886
6997.70996 0.789327
6998.58984 0.783717
6999.45996 0.778103
7000.33008 0.770368
7001.20996 0.758983
7002.08008 0.747599
7002.95020 0.736316
7003.83008 0.724933
7004.70020 0.713541
7005.56982 0.702251
7006.45020 0.690859
7007.33008 0.679468
7008.20020 0.668179
7009.06982 0.656781
7009.95020 0.645383
7010.81982 0.630648
7011.70020 0.615579
7012.58008 0.600499
7013.45020 0.585551
7014.31982 0.570468
7015.20020 0.555384
7016.06982 0.540425
7016.95020 0.525338
7017.83008 0.510242
7018.70020 0.495279
7019.58008 0.480172
7020.45996 0.466597
7021.33008 0.45452
7022.20996 0.442332
7023.08984 0.430142
7023.95996 0.418052
7024.83984 0.405852
7025.72021 0.39365
7026.58984 0.381554
7027.47021 0.369348
7028.35010 0.357134
7029.22021 0.345025
7030.10010 0.333229
7030.97998 0.324722
7031.85010 0.316284
7032.72998 0.307775
7033.60986 0.299259
7034.47998 0.290817
7035.37012 0.282294
7036.25000 0.273775
7037.12012 0.265324
7038.00000 0.256798
7038.87988 0.248265
7039.75977 0.239811
7040.64014 0.23342
7041.52002 0.227914
7042.39990 0.222383
7043.27979 0.216876
7044.14990 0.211366
7045.04004 0.205832
7045.91016 0.200321
7046.79004 0.194811
7047.66992 0.189273
7048.54980 0.183759
7049.43018 0.178245
7050.31006 0.172887
7051.18994 0.167879
7052.06982 0.162867
7052.95020 0.157833
7053.83008 0.152821
7054.70996 0.147805
7055.60010 0.14277
7056.47021 0.137754
7057.35010 0.132737
7058.24023 0.127698
7059.12012 0.122678
7060.00000 0.11766
7060.87988 0.113142
7061.75977 0.108643
7062.64014 0.104148
7063.52002 0.0996323
7064.39990 0.0951348
7065.27979 0.0906377
7066.16992 0.0861184
7067.04980 0.081622
7067.93018 0.0771233
7068.81006 0.072605
7069.70020 0.068107
7070.58008 0.0647207
7071.45996 0.061905
7072.33984 0.0591014
7073.22998 0.0562974
7074.10986 0.0534805
7074.99023 0.0506741
7075.87012 0.0478675
7076.75977 0.0450479
7077.64014 0.0422405
7078.52002 0.0394327
7079.41016 0.0366105
7080.29004 0.0342375
7081.16992 0.0327476
7082.06006 0.0312509
7082.93994 0.0297599
7083.83008 0.0282686
7084.70996 0.0267705
7085.60010 0.0252789
7086.47998 0.0237871
7087.37012 0.0222877
7088.25000 0.020788
7089.14014 0.0192883
7090.02002 0.0178181
7090.91016 0.0170942
7091.79980 0.0163698
7092.68018 0.015652
7093.56006 0.0149278
7094.45020 0.0142032
7095.33008 0.0134852
7096.22021 0.0127608
7097.10986 0.0120365
7097.99023 0.0113186
7098.87988 0.010594
7099.77002 0.00986946
7100.64990 0.00943433
7101.52979 0.00909914
7102.41992 0.00876378
7103.31006 0.00843155
7104.18994 0.00809619
7105.08008 0.00776065
7105.97021 0.00742827
7106.85010 0.00709273
7107.74023 0.00675722
7108.62988 0.00642467
7109.52002 0.00608917
7110.41016 0.00582876
7111.29004 0.0056597
7112.18018 0.00548912
7113.06982 0.00531852
7113.95020 0.0051494
7114.83984 0.00497868
7115.72998 0.00480794
7116.60986 0.00463867
7117.50977 0.0044678
7118.39990 0.004297
7119.27979 0.00412759
7120.16992 0.00397378
7121.06006 0.00389208
7121.95020 0.00381111
7122.83984 0.00372937
7123.72998 0.00364762
7124.60986 0.00356657
7125.50977 0.00348474
7126.39014 0.0034033
7127.27979 0.00332181
7128.16992 0.00323994
7129.06006 0.003158
7129.95020 0.00307682
7130.83984 0.00299467
7131.72998 0.0029125
7132.62012 0.00283105
7133.50977 0.00274883
7134.41016 0.00266661
7135.29980 0.00258438
7136.18994 0.00250251
7137.08008 0.00242064
7137.97021 0.00233836
7851.76709 0.0
