# %ECSV 0.9
# ---
# datatype:
# - {name: wavelength, unit: Angstrom, datatype: float32}
# - {name: response, datatype: float32}
# meta: !!omap
# - {band_name: F606W_81}
# - {group_name: ACS_WFC}
wavelength response
4144.84180 0.0
4605.37988 0.00141801
4605.95996 0.00150542
4606.52979 0.00159322
4607.10986 0.0016814
4607.68994 0.00176923
4608.27002 0.00185707
4608.85010 0.00194538
4609.41992 0.00203325
4610.00000 0.00212159
4610.58008 0.00220948
4611.16016 0.00229738
4611.72998 0.00238529
4612.31006 0.00247358
4612.89014 0.00256113
4613.47021 0.00264914
4614.04980 0.00273753
4614.62012 0.00282555
4615.20020 0.00291322
4615.77979 0.003002
4616.35010 0.00308967
4616.93018 0.0031778
4617.50977 0.00326624
4618.08984 0.00335439
4618.66992 0.00344254
4619.25000 0.00353107
4619.83008 0.00361924
4620.41016 0.00386628
4620.99023 0.00417807
4621.56982 0.00449021
4622.14990 0.00480243
4622.72998 0.00511605
4623.29980 0.00542711
4623.87988 0.00573957
4624.45996 0.00605368
4625.04004 0.00636629
4625.62012 0.00667794
4626.20020 0.00699362
4626.77979 0.00730541
4627.35986 0.0076186
4627.93994 0.00793319
4628.52002 0.00824682
4629.10010 0.00856026
4629.68018 0.00887536
4630.25977 0.00910846
4630.83984 0.0092424
4631.41992 0.00937579
4632.00000 0.00950932
4632.58008 0.00964272
4633.16016 0.00977683
4633.74023 0.00990973
4634.31982 0.0100433
4634.89990 0.0101776
4635.47998 0.0103112
4636.06006 0.0104443
4636.64990 0.0105791
4637.22021 0.0107122
4637.81006 0.010846
4638.39014 0.0109804
4638.97021 0.0111142
4639.54980 0.0112481
4640.12988 0.0115143
4640.70996 0.0122266
4641.29980 0.0129421
4641.87988 0.0136541
4642.45996 0.0143669
4643.04004 0.0150803
4643.62012 0.0157963
4644.20020 0.0165064
4644.77979 0.0172203
4645.37012 0.0179372
4645.95020 0.0186513
4646.52979 0.0193619
4647.10986 0.0200828
4647.68994 0.0207942
4648.27979 0.0215094
4648.85986 0.0222271
4649.43994 0.0229425
4650.02002 0.0237166
4650.60986 0.0258667
4651.18994 0.02801
4651.77002 0.0301519
4652.35986 0.0323051
4652.93994 0.0344496
4653.52002 0.0365927
4654.10986 0.0387488
4654.68994 0.0408838
4655.27002 0.0430318
4655.85010 0.0451874
4656.43994 0.0473362
4657.02002 0.0494854
4657.60986 0.0516439
4658.18994 0.053785
4658.77002 0.0559355
4659.35986 0.0580953
4659.93994 0.0602483
4660.52002 0.0608949
4661.10986 0.0613696
4661.68994 0.0618423
4662.27002 0.0623152
4662.85986 0.0627905
4663.43994 0.0632636
4664.02979 0.0637372
4664.62012 0.0642128
4665.20020 0.0646842
4665.77979 0.0651582
4666.37012 0.0656341
4666.95020 0.0661085
4667.54004 0.0665827
4668.12012 0.0670594
4668.70020 0.0675317
4669.29004 0.0680067
4669.87988 0.068484
4670.45996 0.0688265
4671.04980 0.0691334
4671.62988 0.0694418
4672.22021 0.0697487
4672.79980 0.070056
4673.39014 0.0703646
4673.97021 0.0706719
4674.56006 0.0709796
4675.14990 0.0712883
4675.72998 0.0715946
4676.31006 0.0719025
4676.89990 0.0722116
4677.49023 0.0725196
4678.06982 0.0728277
4678.66016 0.0731371
4679.24023 0.0734439
4679.83008 0.0737521
4680.41992 0.0767332
4681.00977 0.0807786
4681.58984 0.0848249
4682.18018 0.0888922
4682.77002 0.0929401
4683.35010 0.0969921
4683.93994 0.101058
4684.52979 0.105112
4685.10986 0.109166
4685.70020 0.113238
4686.29004 0.117277
4686.87012 0.121338
4687.45996 0.125416
4688.04980 0.129474
4688.64014 0.133536
4689.22021 0.1376
4689.81006 0.141664
4690.39990 0.144624
4690.99023 0.147066
4691.56982 0.149498
4692.16016 0.151929
4692.75000 0.154375
4693.33984 0.156809
4693.93018 0.159243
4694.52002 0.161688
4695.10010 0.164125
4695.68994 0.166561
4696.27979 0.169012
4696.87012 0.171438
4697.45020 0.173878
4698.04980 0.176329
4698.62988 0.17877
4699.22021 0.181213
4699.81006 0.183654
4700.39990 0.183062
4700.99023 0.181017
4701.58008 0.178961
4702.16992 0.176915
4702.75000 0.174868
4703.35010 0.172811
4703.93994 0.170761
4704.52002 0.168711
4705.10986 0.166652
4705.70020 0.164601
4706.29004 0.162547
4706.89014 0.160485
4707.47021 0.158441
4708.06006 0.156386
4708.64990 0.154322
4709.24023 0.152265
4709.83008 0.150209
4710.41992 0.151044
4711.00977 0.153039
4711.60010 0.155037
4712.18994 0.157043
4712.77979 0.159041
4713.37012 0.161038
4713.97021 0.163047
4714.56006 0.165045
4715.14990 0.167045
4715.74023 0.169053
4716.33008 0.171053
4716.91992 0.173053
4717.50977 0.175064
4718.10010 0.177064
4718.68994 0.179056
4719.27979 0.181067
4719.87012 0.18307
4720.47021 0.188304
4721.06006 0.194414
4721.64990 0.200527
4722.24023 0.206645
4722.83008 0.212791
4723.41992 0.218907
4724.00977 0.22503
4724.60986 0.231185
4725.20020 0.237311
4725.79004 0.243438
4726.39014 0.249597
4726.97998 0.255732
4727.56982 0.261863
4728.16016 0.268032
4728.75000 0.274172
4729.33984 0.280287
4729.93994 0.28646
4730.52979 0.286884
4731.12012 0.286644
4731.72021 0.286404
4732.31006 0.286163
4732.89990 0.285923
4733.49023 0.285682
4734.08984 0.285442
4734.68018 0.285201
4735.27002 0.284959
4735.87012 0.284719
4736.45996 0.284478
4737.06006 0.284236
4737.64990 0.283995
4738.24023 0.283754
4738.83984 0.283512
4739.43018 0.28327
4740.02002 0.282943
4740.62012 0.280296
4741.20996 0.277659
4741.79980 0.27502
4742.39990 0.27238
4742.99023 0.269742
4743.58984 0.267102
4744.18018 0.264448
4744.77002 0.261807
4745.37012 0.259165
4745.97021 0.256511
4746.56006 0.253867
4747.14990 0.251224
4747.75000 0.248566
4748.35010 0.245921
4748.93994 0.243275
4749.54004 0.240616
4750.12988 0.239306
4750.72021 0.242797
4751.31982 0.246302
4751.91016 0.249795
4752.50977 0.253288
4753.10010 0.256785
4753.70020 0.260281
4754.29980 0.26378
4754.89014 0.267295
4755.49023 0.270796
4756.08008 0.274299
4756.68018 0.277819
4757.27979 0.281324
4757.87012 0.284832
4758.47021 0.288355
4759.06982 0.291866
4759.66016 0.295377
4760.25977 0.300483
4760.85010 0.30759
4761.45020 0.314733
4762.04980 0.321907
4762.64014 0.329047
4763.24023 0.336194
4763.83984 0.343348
4764.43018 0.350497
4765.02979 0.357648
4765.62988 0.364836
4766.22998 0.371995
4766.81982 0.379156
4767.41992 0.386348
4768.02002 0.393511
4768.60986 0.400682
4769.20996 0.407849
4769.81006 0.415051
4770.41016 0.416333
4771.00977 0.414869
4771.60010 0.413418
4772.20020 0.41196
4772.79980 0.410494
4773.39990 0.409034
4773.99023 0.407573
4774.58984 0.406113
4775.18994 0.404651
4775.79004 0.403189
4776.39014 0.40172
4776.97998 0.400257
4777.58008 0.398792
4778.18018 0.397322
4778.77979 0.395856
4779.37988 0.39439
4779.97998 0.392924
4780.58008 0.389339
4781.18018 0.38569
4781.77979 0.382025
4782.37988 0.378392
4782.97021 0.374741
4783.56982 0.371071
4784.16992 0.367418
4784.77002 0.363765
4785.37012 0.360093
4785.97021 0.356451
4786.56982 0.352792
4787.16992 0.349118
4787.77002 0.345458
4788.37012 0.341795
4788.97021 0.338116
4789.56982 0.334454
4790.16992 0.332753
4790.77002 0.335996
4791.37012 0.339223
4791.97021 0.342451
4792.56982 0.345696
4793.16992 0.348912
4793.77002 0.352145
4794.37988 0.355392
4794.97998 0.358626
4795.58008 0.361863
4796.18018 0.365111
4796.77979 0.368337
4797.37988 0.371574
4797.97998 0.374827
4798.58008 0.378068
4799.18018 0.381313
4799.77979 0.384568
4800.39014 0.389617
4800.97998 0.395648
4801.58984 0.401764
4802.18994 0.407823
4802.79004 0.413894
4803.39990 0.419986
4803.99023 0.42603
4804.60010 0.432105
4805.20020 0.438206
4805.79980 0.444285
4806.39990 0.450335
4807.00977 0.456472
4807.60986 0.46253
4808.20996 0.468621
4808.81006 0.474738
4809.41016 0.480826
4810.02002 0.486738
4810.62012 0.486016
4811.22021 0.485296
4811.81982 0.48458
4812.43018 0.483854
4813.02979 0.483134
4813.64014 0.482413
4814.24023 0.481689
4814.83984 0.480973
4815.43994 0.480251
4816.04980 0.479526
4816.64990 0.478804
4817.25000 0.478086
4817.85986 0.477356
4818.45996 0.476636
4819.06006 0.475913
4819.66992 0.475187
4820.27002 0.475045
4820.87988 0.475607
4821.47998 0.476173
4822.08984 0.476736
4822.68994 0.477297
4823.29980 0.477867
4823.89990 0.478431
4824.50000 0.478995
4825.10986 0.479561
4825.70996 0.480123
4826.31006 0.480688
4826.91992 0.481257
4827.52979 0.481822
4828.12988 0.482385
4828.74023 0.482955
4829.33984 0.483519
4829.93994 0.484086
4830.54980 0.485919
4831.16016 0.487871
4831.75977 0.489823
4832.37012 0.491788
4832.97021 0.493743
4833.56982 0.49569
4834.18994 0.497664
4834.79004 0.499622
4835.39990 0.501582
4836.00000 0.503551
4836.60986 0.505502
4837.20996 0.507463
4837.81982 0.509433
4838.43018 0.511398
4839.02979 0.513354
4839.64014 0.515336
4840.24023 0.517039
4840.85010 0.51837
4841.45996 0.519706
4842.06006 0.521039
4842.66992 0.522371
4843.27979 0.52371
4843.87988 0.525042
4844.49023 0.526371
4845.10010 0.527716
4845.70996 0.52905
4846.31006 0.530385
4846.91992 0.531726
4847.52979 0.533055
4848.12988 0.534391
4848.74023 0.535734
4849.35010 0.537071
4849.95020 0.538403
4850.56982 0.538097
4851.16992 0.537664
4851.77979 0.537229
4852.39014 0.536791
4853.00000 0.536356
4853.60010 0.53592
4854.20996 0.535482
4854.81982 0.535045
4855.43018 0.53461
4856.04004 0.53417
4856.64990 0.533734
4857.25977 0.533297
4857.85986 0.53286
4858.47021 0.532424
4859.08008 0.531986
4859.68994 0.531547
4860.29980 0.531579
4860.89990 0.532096
4861.52002 0.532621
4862.12012 0.53314
4862.72998 0.53366
4863.33984 0.534184
4863.95020 0.534705
4864.56006 0.535227
4865.16992 0.535751
4865.77979 0.536272
4866.39014 0.536793
4867.00000 0.53732
4867.60986 0.537843
4868.22021 0.538365
4868.83008 0.538889
4869.43994 0.539412
4870.04980 0.539957
4870.66016 0.54075
4871.27002 0.54154
4871.87988 0.542326
4872.49023 0.543124
4873.10010 0.543911
4873.70996 0.544702
4874.31982 0.545497
4874.93018 0.546289
4875.54004 0.54708
4876.16016 0.547875
4876.77002 0.548668
4877.37988 0.549456
4877.99023 0.550255
4878.60010 0.551048
4879.20996 0.551842
4879.81982 0.552636
4880.43018 0.550794
4881.04980 0.547879
4881.66016 0.544948
4882.27002 0.542031
4882.87988 0.539126
4883.49023 0.53618
4884.10010 0.533272
4884.72021 0.530346
4885.33008 0.527412
4885.93994 0.524485
4886.54980 0.521561
4887.16992 0.518622
4887.77979 0.515693
4888.39014 0.512774
4889.00000 0.509818
4889.62012 0.506887
4890.22998 0.504325
4890.83984 0.502386
4891.45020 0.500448
4892.06006 0.498508
4892.68018 0.496558
4893.29004 0.494616
4893.89990 0.492681
4894.52002 0.490719
4895.12988 0.488783
4895.74023 0.486836
4896.35986 0.484881
4896.97021 0.482931
4897.58008 0.480982
4898.20020 0.479023
4898.81006 0.477071
4899.41992 0.475127
4900.04004 0.473289
4900.66016 0.473255
4901.27002 0.473221
4901.87988 0.473187
4902.50000 0.473152
4903.10986 0.473116
4903.72998 0.473082
4904.33984 0.473047
4904.95020 0.473013
4905.56982 0.472978
4906.18018 0.472944
4906.79980 0.472909
4907.41016 0.472873
4908.02979 0.472838
4908.64014 0.472804
4909.25977 0.472769
4909.87012 0.472734
4910.47998 0.473501
4911.10010 0.474492
4911.72021 0.475474
4912.33984 0.476457
4912.95020 0.477441
4913.56006 0.478424
4914.18018 0.479408
4914.79980 0.480396
4915.41016 0.481377
4916.02979 0.482361
4916.64990 0.483357
4917.25977 0.484339
4917.87988 0.485326
4918.49023 0.486317
4919.10986 0.487304
4919.72998 0.488293
4920.33984 0.489851
4920.95996 0.491842
4921.56982 0.493845
4922.18994 0.495866
4922.81006 0.49787
4923.43018 0.499875
4924.04004 0.50188
4924.66016 0.503887
4925.27002 0.505894
4925.89990 0.507912
4926.50977 0.509911
4927.12012 0.51192
4927.75000 0.513948
4928.35986 0.515959
4928.97998 0.517964
4929.60010 0.519985
4930.22021 0.522116
4930.83008 0.524469
4931.45020 0.526833
4932.06982 0.529176
4932.68018 0.531533
4933.31006 0.53391
4933.91992 0.536268
4934.54004 0.538628
4935.16016 0.540988
4935.77979 0.543349
4936.39990 0.545711
4937.02002 0.548085
4937.62988 0.55044
4938.25000 0.552807
4938.87012 0.555195
4939.49023 0.557563
4940.10986 0.559695
4940.72998 0.560753
4941.35010 0.561808
4941.97021 0.562863
4942.58984 0.563922
4943.20020 0.564972
4943.81982 0.566028
4944.43994 0.567093
4945.06006 0.56815
4945.68018 0.56921
4946.29980 0.570268
4946.91992 0.571325
4947.54004 0.572385
4948.16016 0.573449
4948.77979 0.574504
4949.39990 0.575565
4950.02002 0.576536
4950.64014 0.57498
4951.25977 0.57343
4951.87988 0.571866
4952.50000 0.570307
4953.12012 0.568748
4953.74023 0.567182
4954.35986 0.56563
4954.97998 0.56407
4955.60986 0.562495
4956.22998 0.560934
4956.85010 0.559372
4957.47021 0.557811
4958.08984 0.556248
4958.70996 0.554685
4959.33008 0.553114
4959.95020 0.551557
4960.56982 0.549368
4961.20020 0.547108
4961.81982 0.544864
4962.43994 0.542628
4963.06006 0.540374
4963.68018 0.538126
4964.31006 0.535879
4964.93018 0.533629
4965.54980 0.531378
4966.16992 0.529127
4966.79980 0.526854
4967.41992 0.524601
4968.04004 0.522344
4968.66016 0.520088
4969.27979 0.51783
4969.91016 0.515571
4970.52979 0.516151
4971.14990 0.517235
4971.77002 0.51832
4972.39990 0.519414
4973.02002 0.5205
4973.64014 0.521577
4974.27002 0.522674
4974.89014 0.523761
4975.50977 0.524848
4976.14014 0.525936
4976.75977 0.527027
4977.37988 0.528116
4978.00977 0.529216
4978.62988 0.530305
4979.25977 0.531396
4979.87988 0.532488
4980.50000 0.534804
4981.12988 0.537414
4981.75000 0.540025
4982.37012 0.542637
4983.00000 0.545249
4983.62988 0.547886
4984.25000 0.550502
4984.87012 0.553094
4985.50000 0.555734
4986.12012 0.558352
4986.75000 0.560973
4987.37012 0.563592
4988.00000 0.566215
4988.62012 0.568837
4989.25000 0.571484
4989.87012 0.574108
4990.50000 0.575499
4991.12012 0.576578
4991.75000 0.577657
4992.37012 0.578738
4993.00000 0.57982
4993.62012 0.580902
4994.25000 0.581983
4994.87988 0.583076
4995.50000 0.584159
4996.12012 0.585234
4996.75977 0.586328
4997.37988 0.587413
4998.00977 0.588498
4998.62988 0.589584
4999.25977 0.59067
4999.87988 0.591758
5000.50977 0.592588
5001.14014 0.59335
5001.77002 0.594111
5002.39014 0.594873
5003.02002 0.595636
5003.64990 0.596397
5004.27002 0.59716
5004.89990 0.597923
5005.52002 0.598687
5006.16016 0.599457
5006.77979 0.600221
5007.39990 0.600979
5008.04004 0.601752
5008.66016 0.602516
5009.29004 0.603282
5009.91992 0.604047
5010.54004 0.603373
5011.16992 0.602479
5011.79980 0.601576
5012.43018 0.600681
5013.06006 0.599785
5013.68994 0.59889
5014.31006 0.597993
5014.93994 0.597096
5015.56982 0.5962
5016.20020 0.595302
5016.81982 0.594403
5017.45996 0.593495
5018.08984 0.592595
5018.70996 0.591703
5019.33984 0.590795
5019.97021 0.589894
5020.60010 0.587814
5021.22998 0.585678
5021.85986 0.583538
5022.47998 0.581401
5023.12012 0.579243
5023.75000 0.577103
5024.37988 0.57496
5025.00977 0.572818
5025.64014 0.570671
5026.25977 0.568526
5026.89014 0.566381
5027.52002 0.564233
5028.14990 0.562084
5028.79004 0.559916
5029.41992 0.557763
5030.04004 0.555611
5030.68018 0.553141
5031.31006 0.55069
5031.93994 0.548238
5032.56006 0.545785
5033.18994 0.543331
5033.81982 0.540875
5034.45996 0.538396
5035.08984 0.535937
5035.72021 0.533478
5036.35010 0.531016
5036.97998 0.528553
5037.60986 0.526089
5038.24023 0.523625
5038.87012 0.521157
5039.50000 0.518688
5040.14014 0.516571
5040.77002 0.515777
5041.39990 0.514988
5042.02979 0.514184
5042.66016 0.513388
5043.29980 0.512591
5043.93018 0.511793
5044.56006 0.510995
5045.18994 0.510197
5045.83008 0.50939
5046.45996 0.508591
5047.08984 0.507791
5047.72021 0.50699
5048.35010 0.506189
5048.99023 0.505387
5049.62012 0.504585
5050.25000 0.504172
5050.87988 0.504356
5051.52002 0.50454
5052.14990 0.504723
5052.77979 0.504905
5053.41992 0.50509
5054.04980 0.505274
5054.68018 0.505457
5055.31006 0.50564
5055.95020 0.505823
5056.58008 0.506007
5057.22021 0.506193
5057.85010 0.506376
5058.47998 0.506559
5059.12012 0.506744
5059.75000 0.506928
5060.39014 0.509507
5061.02002 0.51363
5061.64990 0.517756
5062.29004 0.521882
5062.93018 0.526049
5063.56006 0.530181
5064.18994 0.534299
5064.83008 0.538454
5065.45996 0.542591
5066.10010 0.546733
5066.72998 0.550874
5067.35986 0.555019
5068.00000 0.559166
5068.62988 0.563318
5069.27002 0.567503
5069.89990 0.571639
5070.54004 0.572701
5071.18018 0.573202
5071.81006 0.573703
5072.43994 0.574204
5073.08008 0.574706
5073.72021 0.575208
5074.35010 0.57571
5074.99023 0.576218
5075.62012 0.576718
5076.25977 0.577223
5076.89990 0.577726
5077.52979 0.57823
5078.16992 0.578734
5078.79980 0.579237
5079.43994 0.579741
5080.06982 0.580392
5080.72021 0.582159
5081.35010 0.583903
5081.99023 0.585663
5082.62012 0.587417
5083.25977 0.589171
5083.89990 0.590926
5084.52979 0.592682
5085.16992 0.59444
5085.81006 0.596197
5086.45020 0.597963
5087.08008 0.599722
5087.72021 0.60149
5088.35986 0.60325
5089.00000 0.605012
5089.62988 0.606775
5090.27002 0.606631
5090.91016 0.6039
5091.54980 0.601169
5092.18994 0.598424
5092.81982 0.59569
5093.45996 0.592941
5094.10010 0.590204
5094.74023 0.587464
5095.37988 0.584722
5096.00977 0.581978
5096.64990 0.579235
5097.29004 0.576489
5097.93018 0.57373
5098.56982 0.570981
5099.20996 0.568218
5099.85010 0.565465
5100.49023 0.565051
5101.12012 0.565371
5101.75977 0.56569
5102.39990 0.56601
5103.04004 0.56633
5103.68018 0.566651
5104.31982 0.566971
5104.95996 0.567292
5105.60010 0.567613
5106.24023 0.567934
5106.87988 0.568254
5107.52002 0.568575
5108.16016 0.568895
5108.79980 0.569218
5109.43994 0.569538
5110.08008 0.56979
5110.72021 0.569553
5111.35986 0.569315
5112.00000 0.569077
5112.64014 0.568839
5113.27979 0.568601
5113.91992 0.568363
5114.56006 0.568124
5115.20020 0.567886
5115.85010 0.567647
5116.49023 0.567407
5117.12988 0.567168
5117.77002 0.566929
5118.41016 0.566689
5119.04980 0.56645
5119.68994 0.56621
5120.33984 0.566252
5120.97998 0.566555
5121.62012 0.566857
5122.25977 0.56716
5122.89990 0.567464
5123.54004 0.567767
5124.18994 0.56807
5124.83008 0.568372
5125.47021 0.568676
5126.10986 0.56898
5126.75000 0.569284
5127.39990 0.569588
5128.04004 0.569893
5128.68018 0.570196
5129.31982 0.5705
5129.97021 0.570804
5130.60986 0.572439
5131.25000 0.574134
5131.89990 0.575844
5132.54004 0.577548
5133.18018 0.579253
5133.81982 0.580959
5134.47021 0.582673
5135.10986 0.58438
5135.75000 0.586089
5136.39990 0.587798
5137.04004 0.589509
5137.68994 0.591228
5138.33008 0.592941
5138.97021 0.594654
5139.62012 0.596375
5140.25977 0.597591
5140.89990 0.598077
5141.54980 0.598562
5142.18994 0.599051
5142.83984 0.599536
5143.47998 0.600025
5144.12988 0.600512
5144.77002 0.600998
5145.41016 0.601486
5146.06006 0.601976
5146.70020 0.602461
5147.35010 0.602951
5147.99023 0.603438
5148.64014 0.603926
5149.27979 0.604417
5149.93018 0.604905
5150.56982 0.60652
5151.22021 0.60828
5151.87012 0.610035
5152.50977 0.611789
5153.16016 0.613546
5153.79980 0.61531
5154.45020 0.617061
5155.10010 0.618828
5155.74023 0.620586
5156.39014 0.622347
5157.02979 0.624109
5157.68018 0.625878
5158.31982 0.627633
5158.97021 0.629405
5159.62012 0.63117
5160.25977 0.631377
5160.91016 0.629295
5161.56006 0.627218
5162.20020 0.625139
5162.85010 0.623052
5163.50000 0.620972
5164.14990 0.61889
5164.79004 0.616807
5165.43994 0.614714
5166.08008 0.612639
5166.72998 0.610543
5167.37988 0.608455
5168.02979 0.606366
5168.66992 0.604278
5169.31982 0.602177
5169.97021 0.600092
5170.62012 0.600045
5171.27002 0.600104
5171.91016 0.600163
5172.56006 0.600222
5173.20996 0.600281
5173.85986 0.600339
5174.50977 0.600398
5175.16016 0.600456
5175.79980 0.600514
5176.45020 0.600573
5177.10010 0.600632
5177.75000 0.600689
5178.39990 0.600747
5179.04980 0.600804
5179.68994 0.600862
5180.33984 0.600355
5180.99023 0.59934
5181.64014 0.598334
5182.29004 0.597319
5182.93994 0.596307
5183.58984 0.595295
5184.24023 0.594277
5184.89014 0.593263
5185.54004 0.592249
5186.18994 0.591229
5186.83984 0.590213
5187.49023 0.589197
5188.14014 0.58818
5188.79004 0.587159
5189.43994 0.586144
5190.08984 0.585914
5190.74023 0.590598
5191.39014 0.595287
5192.04004 0.599977
5192.68994 0.604689
5193.33984 0.609361
5193.99023 0.614078
5194.64014 0.618778
5195.29004 0.62348
5195.95020 0.628201
5196.60010 0.632906
5197.25000 0.637616
5197.89990 0.642345
5198.54980 0.647055
5199.20020 0.65177
5199.85010 0.656487
5200.50000 0.655554
5201.14990 0.652964
5201.81006 0.650361
5202.45996 0.647766
5203.10986 0.645171
5203.77002 0.642562
5204.41992 0.639962
5205.06006 0.637371
5205.72021 0.634756
5206.37012 0.632152
5207.02002 0.629544
5207.66992 0.626935
5208.33008 0.624313
5208.97998 0.621701
5209.64014 0.619076
5210.29004 0.618095
5210.93994 0.61918
5211.58984 0.620266
5212.24023 0.621352
5212.89990 0.62244
5213.54980 0.623528
5214.20020 0.624621
5214.85986 0.625712
5215.50977 0.626807
5216.16992 0.627898
5216.81982 0.628984
5217.47021 0.630081
5218.12012 0.631174
5218.77979 0.632268
5219.43018 0.633362
5220.08984 0.633742
5220.74023 0.629484
5221.39990 0.625207
5222.04980 0.620948
5222.70020 0.616685
5223.35986 0.61242
5224.00977 0.608154
5224.66992 0.603887
5225.31982 0.599614
5225.97998 0.595325
5226.62988 0.59105
5227.29004 0.586754
5227.93994 0.582476
5228.60010 0.578215
5229.25000 0.573915
5229.91016 0.56963
5230.56006 0.568535
5231.22021 0.567971
5231.87012 0.567404
5232.52979 0.566838
5233.18994 0.566269
5233.83984 0.565703
5234.50000 0.565137
5235.14990 0.56457
5235.81006 0.564003
5236.45996 0.563435
5237.12012 0.562867
5237.77979 0.562296
5238.43018 0.561727
5239.08984 0.561155
5239.75000 0.560586
5240.39990 0.562973
5241.06006 0.567277
5241.70996 0.571561
5242.37012 0.575851
5243.02979 0.580143
5243.68994 0.584456
5244.33984 0.588753
5245.00000 0.593074
5245.66016 0.597375
5246.31006 0.601681
5246.97021 0.605989
5247.62988 0.610301
5248.27979 0.614614
5248.93994 0.618932
5249.60010 0.623269
5250.25977 0.624866
5250.91992 0.622266
5251.58008 0.619677
5252.22998 0.617099
5252.89014 0.614494
5253.54980 0.611902
5254.20996 0.609306
5254.85986 0.60671
5255.52002 0.6041
5256.18018 0.6015
5256.83984 0.598886
5257.50000 0.596284
5258.16016 0.593679
5258.81982 0.591074
5259.47998 0.588466
5260.14014 0.587103
5260.79004 0.590592
5261.45020 0.594101
5262.10986 0.597596
5262.77002 0.601105
5263.43018 0.604605
5264.08984 0.608088
5264.75000 0.611605
5265.41016 0.615111
5266.06982 0.618617
5266.72998 0.622124
5267.39014 0.625648
5268.04980 0.629159
5268.70996 0.63269
5269.37012 0.636204
5270.02979 0.639494
5270.68994 0.638213
5271.35010 0.636929
5272.00977 0.635638
5272.66992 0.634359
5273.33008 0.633066
5273.99023 0.631778
5274.66016 0.630484
5275.31006 0.6292
5275.97021 0.62791
5276.64014 0.626613
5277.29980 0.625321
5277.95996 0.624029
5278.62012 0.622735
5279.27979 0.621434
5279.93994 0.620138
5280.60986 0.622609
5281.27002 0.625415
5281.93018 0.628224
5282.58984 0.631033
5283.25000 0.633845
5283.91992 0.636669
5284.56982 0.639471
5285.24023 0.642296
5285.89990 0.645111
5286.56006 0.64794
5287.22021 0.650744
5287.89014 0.653565
5288.54980 0.656396
5289.20996 0.659218
5289.87988 0.66204
5290.54004 0.661255
5291.20020 0.659621
5291.85986 0.657992
5292.52979 0.656356
5293.18994 0.654726
5293.85010 0.653093
5294.52002 0.651461
5295.18018 0.649826
5295.85010 0.648185
5296.50977 0.646555
5297.16992 0.64491
5297.83984 0.643273
5298.50000 0.641625
5299.16016 0.639992
5299.81982 0.638351
5300.49023 0.637275
5301.14990 0.636408
5301.81982 0.635541
5302.47998 0.634673
5303.14990 0.6338
5303.81006 0.63293
5304.47998 0.632058
5305.14014 0.631189
5305.81006 0.630318
5306.47021 0.629447
5307.14014 0.628576
5307.79980 0.627699
5308.45996 0.62683
5309.12988 0.625957
5309.79980 0.62508
5310.45996 0.62328
5311.12988 0.621091
5311.79004 0.618894
5312.45996 0.616682
5313.12012 0.61448
5313.79004 0.612276
5314.45020 0.610072
5315.12012 0.607866
5315.79004 0.605646
5316.45996 0.603426
5317.12012 0.601214
5317.79004 0.599002
5318.45020 0.596787
5319.12012 0.594571
5319.79004 0.592344
5320.45020 0.594359
5321.12012 0.598398
5321.77979 0.602456
5322.45020 0.606517
5323.12012 0.610545
5323.77979 0.61459
5324.45020 0.618657
5325.12012 0.622707
5325.79004 0.62676
5326.45020 0.630814
5327.12012 0.634873
5327.79004 0.638951
5328.45996 0.643026
5329.12012 0.647088
5329.79004 0.651153
5330.45996 0.650665
5331.12988 0.648123
5331.79004 0.645578
5332.45996 0.643031
5333.12988 0.640483
5333.79980 0.637922
5334.47021 0.635361
5335.14014 0.632819
5335.79980 0.630263
5336.47021 0.627697
5337.14014 0.62514
5337.81006 0.622583
5338.47998 0.620024
5339.14990 0.617462
5339.81982 0.614887
5340.49023 0.61748
5341.16016 0.621987
5341.83008 0.626494
5342.49023 0.631002
5343.16016 0.635516
5343.83008 0.640031
5344.50000 0.644549
5345.16992 0.649069
5345.83984 0.653611
5346.50977 0.658155
5347.18018 0.662684
5347.85010 0.667195
5348.52002 0.671749
5349.18994 0.676286
5349.85986 0.680823
5350.52979 0.680991
5351.20020 0.680018
5351.87012 0.679039
5352.54980 0.67806
5353.22021 0.677084
5353.89014 0.676107
5354.56006 0.67513
5355.22998 0.674152
5355.89990 0.673174
5356.56982 0.672196
5357.24023 0.671217
5357.91016 0.670233
5358.58984 0.669248
5359.25977 0.668266
5359.91992 0.667288
5360.60010 0.666824
5361.27002 0.666428
5361.93994 0.666032
5362.60986 0.665636
5363.27979 0.665238
5363.95996 0.664839
5364.62988 0.664439
5365.29980 0.664041
5365.97021 0.663642
5366.64990 0.663243
5367.31982 0.662845
5367.99023 0.662445
5368.66016 0.662046
5369.33008 0.661645
5370.00977 0.661251
5370.68018 0.661549
5371.35986 0.661848
5372.02002 0.662145
5372.70020 0.662444
5373.37012 0.662742
5374.04980 0.66304
5374.72021 0.663338
5375.39014 0.663636
5376.06982 0.663936
5376.74023 0.664235
5377.41992 0.664534
5378.08984 0.664832
5378.75977 0.66513
5379.43994 0.665429
5380.10986 0.66548
5380.77979 0.664254
5381.45996 0.663029
5382.12988 0.661797
5382.81006 0.660563
5383.47998 0.659334
5384.14990 0.65811
5384.83008 0.656875
5385.50977 0.655644
5386.18018 0.654413
5386.85010 0.65318
5387.52979 0.651947
5388.20020 0.650708
5388.87988 0.649468
5389.56006 0.648231
5390.22998 0.64645
5390.91016 0.643631
5391.58008 0.640807
5392.25977 0.637981
5392.93018 0.635156
5393.60986 0.632329
5394.27979 0.629486
5394.95996 0.626655
5395.64014 0.623811
5396.31006 0.62099
5396.99023 0.61814
5397.66016 0.615304
5398.33984 0.612465
5399.02002 0.609625
5399.68994 0.606783
5400.37012 0.605243
5401.04980 0.604801
5401.72998 0.604356
5402.39990 0.603913
5403.08008 0.60347
5403.75000 0.603026
5404.43018 0.602581
5405.10986 0.602137
5405.77979 0.601692
5406.45996 0.601245
5407.14014 0.600799
5407.81982 0.60035
5408.49023 0.599906
5409.16992 0.599458
5409.85010 0.59901
5410.52979 0.600889
5411.20020 0.603428
5411.87988 0.605971
5412.56006 0.608523
5413.24023 0.611067
5413.91992 0.613621
5414.60010 0.616168
5415.27979 0.618716
5415.95020 0.621266
5416.62988 0.623815
5417.31006 0.626368
5417.99023 0.628922
5418.66992 0.631486
5419.35010 0.634042
5420.02979 0.63658
5420.70020 0.638637
5421.39014 0.640707
5422.06006 0.642769
5422.74023 0.644831
5423.41992 0.646894
5424.10010 0.648956
5424.77979 0.65103
5425.45996 0.653095
5426.14014 0.655161
5426.81982 0.657239
5427.50000 0.659307
5428.18018 0.661376
5428.85986 0.663447
5429.54004 0.665527
5430.22021 0.667449
5430.89990 0.669091
5431.58008 0.670727
5432.25977 0.672364
5432.93994 0.674002
5433.62988 0.675649
5434.31006 0.677289
5434.99023 0.678929
5435.66992 0.68057
5436.35010 0.682213
5437.02979 0.683865
5437.70996 0.685508
5438.39014 0.687152
5439.08008 0.688806
5439.75977 0.690453
5440.43994 0.691977
5441.12012 0.693431
5441.79980 0.694893
5442.47998 0.696343
5443.16992 0.697807
5443.85010 0.699264
5444.52979 0.700722
5445.20996 0.70218
5445.89014 0.703646
5446.58008 0.705107
5447.25977 0.706569
5447.93994 0.708029
5448.62012 0.709491
5449.31006 0.710961
5449.99023 0.712425
5450.66992 0.711978
5451.35986 0.711497
5452.04004 0.711016
5452.72021 0.710536
5453.39990 0.710056
5454.08984 0.709573
5454.77002 0.709093
5455.45020 0.708609
5456.14014 0.708127
5456.81982 0.707645
5457.50000 0.707162
5458.18994 0.706677
5458.87012 0.706193
5459.56006 0.705709
5460.24023 0.705499
5460.91992 0.705793
5461.60986 0.70609
5462.29004 0.706385
5462.97998 0.706681
5463.66016 0.706977
5464.35010 0.707272
5465.02979 0.707567
5465.72021 0.707862
5466.39990 0.708159
5467.08008 0.708454
5467.77002 0.70875
5468.45996 0.709046
5469.14014 0.709341
5469.81982 0.709636
5470.50977 0.710423
5471.20020 0.711374
5471.87988 0.712322
5472.56982 0.713274
5473.25000 0.714225
5473.93994 0.715179
5474.62988 0.716132
5475.31006 0.717084
5476.00000 0.71804
5476.68994 0.718993
5477.37012 0.719946
5478.06006 0.720899
5478.74023 0.721858
5479.43018 0.722809
5480.12012 0.723532
5480.79980 0.723093
5481.49023 0.722654
5482.18018 0.722215
5482.85986 0.721776
5483.54980 0.721336
5484.24023 0.720896
5484.91992 0.720455
5485.60986 0.720015
5486.29980 0.719573
5486.99023 0.719132
5487.66992 0.718691
5488.35986 0.718247
5489.04980 0.717805
5489.74023 0.717362
5490.41992 0.717021
5491.10986 0.71674
5491.79980 0.716461
5492.49023 0.71618
5493.18018 0.7159
5493.85986 0.71562
5494.54980 0.715338
5495.24023 0.715056
5495.93018 0.714775
5496.62012 0.714494
5497.31006 0.714212
5497.99023 0.71393
5498.68994 0.713647
5499.37988 0.713365
5500.06006 0.712887
5500.75000 0.710453
5501.43994 0.708027
5502.12988 0.705599
5502.81982 0.70317
5503.50977 0.700728
5504.20020 0.698307
5504.89014 0.695861
5505.58008 0.693425
5506.27002 0.690989
5506.95996 0.688538
5507.64990 0.686097
5508.33984 0.683654
5509.02979 0.681209
5509.72021 0.678764
5510.41016 0.67814
5511.10010 0.678776
5511.79004 0.679408
5512.47998 0.680041
5513.16992 0.680678
5513.85986 0.681311
5514.54980 0.681946
5515.24023 0.68258
5515.93994 0.683216
5516.62012 0.683848
5517.31006 0.684483
5518.00977 0.685122
5518.70020 0.685757
5519.39014 0.686394
5520.08984 0.687067
5520.77979 0.687999
5521.47021 0.688931
5522.16016 0.689863
5522.85010 0.690797
5523.54004 0.691731
5524.22998 0.692669
5524.93018 0.693603
5525.62012 0.694542
5526.31006 0.695477
5527.00000 0.696413
5527.70020 0.697349
5528.39014 0.698289
5529.08008 0.699221
5529.77002 0.700159
5530.47021 0.701075
5531.16016 0.701976
5531.85010 0.702881
5532.54980 0.703782
5533.24023 0.704681
5533.93018 0.705586
5534.62012 0.706487
5535.31982 0.70739
5536.00977 0.708293
5536.70996 0.709201
5537.39990 0.710105
5538.10010 0.711013
5538.79004 0.711916
5539.47998 0.712821
5540.18018 0.713689
5540.87012 0.714454
5541.56006 0.715212
5542.25977 0.715974
5542.95020 0.716739
5543.64990 0.717501
5544.35010 0.718267
5545.04004 0.719029
5545.72998 0.719788
5546.43018 0.720553
5547.12012 0.721317
5547.81982 0.72208
5548.50977 0.722843
5549.20996 0.72361
5549.89990 0.724375
5550.60010 0.723293
5551.29980 0.721915
5551.99023 0.720537
5552.68994 0.719158
5553.37988 0.717771
5554.06982 0.716395
5554.77002 0.715014
5555.47021 0.713625
5556.16016 0.712242
5556.85986 0.710851
5557.56006 0.709466
5558.25000 0.708084
5558.95020 0.706691
5559.64990 0.705301
5560.33984 0.705221
5561.04004 0.706502
5561.74023 0.707788
5562.43018 0.70907
5563.12988 0.710357
5563.83008 0.71164
5564.52002 0.712923
5565.22021 0.714206
5565.91992 0.715494
5566.60986 0.716773
5567.31006 0.718058
5568.00977 0.719348
5568.70996 0.720634
5569.41016 0.721926
5570.10986 0.723082
5570.79980 0.723504
5571.50000 0.723929
5572.20020 0.724354
5572.89990 0.724777
5573.58984 0.725201
5574.29004 0.725627
5574.99023 0.72605
5575.68994 0.726478
5576.39014 0.726902
5577.08984 0.727326
5577.79004 0.72775
5578.49023 0.728176
5579.18994 0.7286
5579.87988 0.729023
5580.58008 0.728659
5581.27979 0.728135
5581.97998 0.727608
5582.68018 0.727087
5583.37988 0.726563
5584.08008 0.726037
5584.77979 0.72551
5585.47998 0.724985
5586.18018 0.724459
5586.87988 0.723931
5587.58008 0.723404
5588.27979 0.722875
5588.97998 0.722348
5589.68018 0.721821
5590.37988 0.721382
5591.08008 0.721016
5591.77979 0.720652
5592.47998 0.72029
5593.18018 0.719925
5593.87988 0.719561
5594.58008 0.719196
5595.29004 0.718829
5595.99023 0.718463
5596.68994 0.718098
5597.39014 0.717733
5598.08984 0.717366
5598.79004 0.716997
5599.50000 0.716628
5600.18994 0.715792
5600.89990 0.713676
5601.60010 0.711559
5602.29980 0.709449
5603.00000 0.707328
5603.70020 0.705225
5604.39990 0.703113
5605.10986 0.70099
5605.81006 0.698863
5606.50977 0.696765
5607.20996 0.694637
5607.91992 0.692509
5608.62012 0.690388
5609.31982 0.688266
5610.02002 0.686223
5610.72998 0.686366
5611.43018 0.686511
5612.14014 0.686656
5612.83008 0.686798
5613.54004 0.686942
5614.25000 0.687086
5614.95020 0.68723
5615.64990 0.687373
5616.35010 0.687516
5617.06006 0.687659
5617.75977 0.687805
5618.47021 0.687949
5619.16992 0.68809
5619.87012 0.688235
5620.58008 0.689869
5621.27979 0.691821
5621.99023 0.693775
5622.68994 0.695728
5623.39990 0.697683
5624.10010 0.699648
5624.81006 0.701612
5625.50977 0.703553
5626.20996 0.70552
5626.91992 0.707488
5627.62012 0.709447
5628.33008 0.711408
5629.02979 0.71337
5629.74023 0.715332
5630.45020 0.717049
5631.14990 0.718617
5631.85010 0.720168
5632.56006 0.721739
5633.27002 0.723311
5633.97998 0.724877
5634.68018 0.726444
5635.39014 0.728012
5636.08984 0.729579
5636.79980 0.731154
5637.50977 0.732731
5638.20996 0.734288
5638.91992 0.735865
5639.62012 0.737444
5640.33008 0.738407
5641.04004 0.738682
5641.74023 0.738958
5642.45020 0.739234
5643.16016 0.739513
5643.87012 0.739789
5644.56982 0.740063
5645.27979 0.740341
5645.99023 0.740619
5646.68994 0.740894
5647.39990 0.74117
5648.10986 0.741447
5648.81982 0.741724
5649.52979 0.742003
5650.24023 0.741869
5650.93994 0.740919
5651.64990 0.739957
5652.35986 0.738994
5653.06982 0.738035
5653.77002 0.737076
5654.47998 0.736116
5655.18994 0.735156
5655.89990 0.734191
5656.60986 0.733225
5657.31006 0.732272
5658.02002 0.731305
5658.74023 0.730338
5659.43994 0.729376
5660.14990 0.7284
5660.85986 0.727381
5661.56982 0.72636
5662.27979 0.725335
5662.99023 0.724311
5663.70020 0.723298
5664.41016 0.722272
5665.12012 0.721245
5665.83008 0.720222
5666.54004 0.719198
5667.25000 0.718174
5667.95996 0.717149
5668.66992 0.71612
5669.37988 0.715089
5670.08984 0.71422
5670.79980 0.714429
5671.50977 0.714639
5672.22021 0.714849
5672.93018 0.715059
5673.64014 0.715269
5674.35010 0.715478
5675.06006 0.715688
5675.77979 0.715898
5676.47998 0.716106
5677.20020 0.716318
5677.91016 0.716528
5678.62012 0.716739
5679.33008 0.716949
5680.04004 0.717203
5680.75000 0.71815
5681.47021 0.719102
5682.18018 0.720046
5682.89014 0.720993
5683.60010 0.721948
5684.31982 0.722901
5685.02979 0.723851
5685.74023 0.724802
5686.45020 0.725753
5687.16016 0.726706
5687.87988 0.727662
5688.58984 0.72861
5689.29980 0.729564
5690.00977 0.730528
5690.72998 0.731767
5691.43994 0.732999
5692.14990 0.734232
5692.87012 0.735468
5693.58008 0.736703
5694.29980 0.737944
5695.00977 0.739176
5695.72021 0.740412
5696.43018 0.741655
5697.14990 0.742899
5697.85986 0.744139
5698.58008 0.745378
5699.29004 0.746618
5700.00000 0.747856
5700.72021 0.748383
5701.43018 0.748907
5702.14014 0.749433
5702.85986 0.749962
5703.58008 0.750491
5704.29004 0.751017
5705.00977 0.751544
5705.72021 0.752072
5706.43018 0.7526
5707.14990 0.753132
5707.85986 0.753656
5708.58008 0.754185
5709.29980 0.754717
5710.00977 0.755221
5710.72998 0.754209
5711.43994 0.753195
5712.16016 0.75218
5712.87012 0.751166
5713.58984 0.750145
5714.29980 0.749134
5715.02002 0.748119
5715.74023 0.747098
5716.45020 0.746078
5717.16992 0.74506
5717.89014 0.744042
5718.60010 0.743023
5719.31982 0.742005
5720.04004 0.741034
5720.75000 0.741041
5721.47021 0.74105
5722.18994 0.741059
5722.89990 0.741066
5723.62012 0.741074
5724.33984 0.741082
5725.04980 0.74109
5725.77002 0.741099
5726.49023 0.741108
5727.20020 0.741116
5727.91992 0.741126
5728.64014 0.741135
5729.35986 0.741144
5730.08008 0.741299
5730.79980 0.742648
5731.50977 0.743996
5732.22998 0.745346
5732.95020 0.746703
5733.66992 0.748048
5734.37988 0.7494
5735.10010 0.750758
5735.83008 0.752119
5736.54004 0.753473
5737.25977 0.754829
5737.97998 0.756187
5738.70020 0.757545
5739.41992 0.758909
5740.14014 0.75936
5740.85010 0.755912
5741.56982 0.75245
5742.29980 0.748988
5743.02002 0.745537
5743.72998 0.742083
5744.45020 0.738632
5745.16992 0.735177
5745.89990 0.731708
5746.60986 0.728266
5747.33008 0.724809
5748.04980 0.721336
5748.77979 0.717861
5749.49023 0.714402
5750.22021 0.711971
5750.93994 0.711962
5751.64990 0.711955
5752.37988 0.711946
5753.10010 0.711936
5753.81006 0.711926
5754.54004 0.711919
5755.25977 0.711911
5755.97998 0.711901
5756.70020 0.711893
5757.41992 0.711885
5758.14014 0.711876
5758.87012 0.711867
5759.58984 0.71186
5760.31006 0.711736
5761.02979 0.711453
5761.75977 0.711172
5762.47998 0.710892
5763.20020 0.710611
5763.91992 0.71033
5764.64014 0.710049
5765.35986 0.709767
5766.08008 0.709487
5766.81006 0.709208
5767.52979 0.708926
5768.25977 0.708644
5768.97998 0.708363
5769.70020 0.708082
5770.41992 0.708413
5771.14990 0.709181
5771.87012 0.709952
5772.58984 0.710716
5773.31006 0.711485
5774.04004 0.712258
5774.75977 0.713031
5775.49023 0.713801
5776.20996 0.714571
5776.93018 0.715342
5777.66016 0.716115
5778.37988 0.716891
5779.10010 0.717661
5779.83008 0.718435
5780.54980 0.719787
5781.27979 0.721321
5782.00000 0.722848
5782.72998 0.724378
5783.45020 0.725907
5784.16992 0.727438
5784.89990 0.728976
5785.62012 0.730503
5786.35010 0.732035
5787.06982 0.733575
5787.79980 0.735116
5788.52979 0.736651
5789.25000 0.738188
5789.97998 0.739726
5790.70020 0.741593
5791.43018 0.743482
5792.14990 0.745355
5792.87988 0.747238
5793.60010 0.74913
5794.33008 0.751023
5795.06006 0.752909
5795.77979 0.754795
5796.50977 0.756685
5797.22998 0.758575
5797.95996 0.760475
5798.68994 0.762359
5799.41016 0.764252
5800.14014 0.765978
5800.87012 0.766959
5801.60010 0.767935
5802.31982 0.768911
5803.04980 0.769889
5803.77002 0.770867
5804.50000 0.77185
5805.22998 0.772824
5805.95020 0.773803
5806.68018 0.774787
5807.41016 0.775772
5808.14014 0.776753
5808.87012 0.777735
5809.60010 0.778717
5810.31982 0.779465
5811.04980 0.77992
5811.77979 0.780373
5812.50000 0.780828
5813.22998 0.781285
5813.97021 0.781742
5814.68994 0.782199
5815.41992 0.782655
5816.14990 0.783113
5816.87988 0.783568
5817.60010 0.784026
5818.33008 0.784484
5819.06006 0.784941
5819.79004 0.785403
5820.52002 0.784543
5821.25000 0.783171
5821.97998 0.781796
5822.70996 0.780422
5823.43994 0.779048
5824.16992 0.777673
5824.89990 0.776296
5825.62988 0.774918
5826.35986 0.773534
5827.08984 0.77215
5827.81982 0.770769
5828.54980 0.769389
5829.27979 0.768009
5830.00977 0.766646
5830.74023 0.766624
5831.47021 0.766602
5832.20020 0.766581
5832.93018 0.766559
5833.66992 0.766538
5834.39990 0.766517
5835.12988 0.766495
5835.85986 0.766475
5836.58984 0.766453
5837.31982 0.766431
5838.04980 0.766411
5838.77979 0.766391
5839.50977 0.76637
5840.25000 0.765855
5840.97998 0.764384
5841.70996 0.762912
5842.43994 0.76144
5843.16992 0.759966
5843.89990 0.758492
5844.64014 0.757017
5845.37012 0.755542
5846.10010 0.754058
5846.83984 0.752574
5847.56982 0.751097
5848.29980 0.749619
5849.02979 0.74814
5849.77002 0.746661
5850.50000 0.747798
5851.22998 0.750169
5851.95996 0.75254
5852.70020 0.754924
5853.43994 0.757308
5854.16992 0.759682
5854.89990 0.762057
5855.62988 0.764435
5856.37012 0.766813
5857.10010 0.769193
5857.83008 0.771575
5858.56006 0.773957
5859.29980 0.776351
5860.04004 0.778607
5860.77002 0.778342
5861.50977 0.778078
5862.24023 0.777814
5862.97021 0.77755
5863.70996 0.777284
5864.43994 0.777019
5865.18018 0.776754
5865.91016 0.776488
5866.64990 0.776221
5867.37988 0.775955
5868.12012 0.775689
5868.85010 0.775423
5869.58984 0.775157
5870.31982 0.775043
5871.06006 0.775121
5871.79004 0.775198
5872.52979 0.775277
5873.27002 0.775355
5874.00000 0.775433
5874.74023 0.775511
5875.47998 0.77559
5876.20996 0.77567
5876.95020 0.775748
5877.68018 0.775827
5878.41992 0.775906
5879.16016 0.775985
5879.89990 0.776065
5880.62988 0.774871
5881.37012 0.773464
5882.10010 0.772057
5882.83984 0.770648
5883.58008 0.769238
5884.31006 0.767829
5885.04980 0.766419
5885.79004 0.765001
5886.52979 0.763582
5887.27002 0.762169
5888.00000 0.760755
5888.74023 0.75934
5889.47998 0.757924
5890.20996 0.758095
5890.95020 0.76214
5891.68994 0.76619
5892.43018 0.770259
5893.16992 0.774329
5893.91016 0.778383
5894.64990 0.782443
5895.37988 0.786508
5896.12012 0.790572
5896.85986 0.794639
5897.60010 0.798711
5898.33984 0.802785
5899.08008 0.806879
5899.81982 0.810978
5900.56006 0.810061
5901.29980 0.807526
5902.04004 0.80499
5902.77002 0.802455
5903.50977 0.799918
5904.25000 0.79738
5904.99023 0.794839
5905.72998 0.792288
5906.47998 0.789734
5907.22021 0.78719
5907.95020 0.784643
5908.68994 0.782099
5909.43018 0.779552
5910.16992 0.77824
5910.91016 0.780959
5911.64990 0.783679
5912.39990 0.786413
5913.14014 0.789148
5913.87988 0.791873
5914.62012 0.7946
5915.35986 0.797328
5916.10010 0.800055
5916.83984 0.802787
5917.58008 0.805519
5918.31982 0.808252
5919.06982 0.811
5919.81006 0.813748
5920.54980 0.813524
5921.29004 0.812287
5922.02979 0.81105
5922.77979 0.809813
5923.52002 0.808573
5924.25977 0.807333
5925.00000 0.806093
5925.75000 0.804846
5926.49023 0.803599
5927.22998 0.802356
5927.97021 0.801113
5928.72021 0.799867
5929.45996 0.798622
5930.20020 0.797233
5930.93994 0.795452
5931.68994 0.793671
5932.43018 0.79188
5933.18018 0.790089
5933.91992 0.788304
5934.66016 0.786519
5935.39990 0.784732
5936.14990 0.782945
5936.89014 0.781157
5937.62988 0.779368
5938.37988 0.777577
5939.12012 0.775776
5939.87012 0.773983
5940.60986 0.771199
5941.35986 0.768214
5942.10010 0.765228
5942.85010 0.762238
5943.58984 0.75925
5944.33008 0.756257
5945.08008 0.753264
5945.81982 0.750255
5946.56982 0.747259
5947.31982 0.744248
5948.06006 0.741246
5948.81006 0.738246
5949.54980 0.735242
5950.29980 0.735002
5951.04004 0.738971
5951.77979 0.742944
5952.52979 0.746936
5953.27979 0.750914
5954.02979 0.754913
5954.77002 0.758896
5955.52002 0.762882
5956.25977 0.766871
5957.00977 0.770863
5957.75000 0.774856
5958.50000 0.778853
5959.25000 0.782869
5959.99023 0.786872
5960.74023 0.785653
5961.49023 0.784404
5962.24023 0.783154
5962.97998 0.781903
5963.72998 0.780652
5964.47998 0.779399
5965.22021 0.778145
5965.97021 0.776884
5966.72021 0.77563
5967.47021 0.774368
5968.22021 0.773111
5968.95996 0.771853
5969.70996 0.770594
5970.45996 0.770644
5971.20996 0.771522
5971.95020 0.7724
5972.70020 0.773282
5973.45020 0.774161
5974.20020 0.775045
5974.95020 0.775925
5975.70020 0.776806
5976.45020 0.777687
5977.18994 0.778569
5977.93994 0.77945
5978.68994 0.780334
5979.43994 0.781222
5980.18994 0.781875
5980.93994 0.781855
5981.68994 0.781836
5982.43994 0.781817
5983.18994 0.781797
5983.93994 0.781777
5984.68994 0.781756
5985.43994 0.781735
5986.18994 0.781714
5986.93994 0.781694
5987.68994 0.781675
5988.43994 0.781654
5989.18994 0.781632
5989.93994 0.781611
5990.68994 0.781467
5991.43994 0.781311
5992.18994 0.781156
5992.93994 0.781001
5993.68994 0.780843
5994.45020 0.780687
5995.20020 0.780531
5995.95020 0.780374
5996.70020 0.780217
5997.45020 0.780061
5998.20020 0.779904
5998.95020 0.779746
5999.70020 0.779588
6000.45020 0.780052
6001.20996 0.780924
6001.95996 0.781793
6002.70996 0.782663
6003.45996 0.783533
6004.22021 0.784403
6004.97021 0.785273
6005.72021 0.786144
6006.47021 0.78702
6007.22998 0.787892
6007.97998 0.788768
6008.72998 0.78964
6009.47998 0.790514
6010.24023 0.79124
6010.99023 0.791643
6011.74023 0.792046
6012.49023 0.792449
6013.25000 0.792855
6014.00000 0.79326
6014.75977 0.793665
6015.50977 0.79407
6016.27002 0.794475
6017.02002 0.79488
6017.77002 0.795283
6018.52002 0.795688
6019.27979 0.796093
6020.02979 0.796503
6020.79004 0.796958
6021.54004 0.797415
6022.29980 0.797871
6023.04980 0.798327
6023.81006 0.798782
6024.56006 0.799237
6025.31006 0.799694
6026.06982 0.800151
6026.83008 0.80061
6027.58008 0.801067
6028.33984 0.801526
6029.08984 0.801983
6029.85010 0.802442
6030.60010 0.802828
6031.35986 0.803196
6032.10986 0.803566
6032.87012 0.803935
6033.62988 0.804306
6034.37988 0.804675
6035.14014 0.805045
6035.89990 0.805414
6036.64990 0.805785
6037.41016 0.806154
6038.16016 0.806523
6038.91992 0.806895
6039.66992 0.807266
6040.43018 0.808406
6041.18994 0.810119
6041.95020 0.811842
6042.70020 0.813558
6043.45996 0.815273
6044.22021 0.81699
6044.97998 0.818707
6045.72998 0.820427
6046.49023 0.822147
6047.25000 0.823874
6048.00977 0.825594
6048.77002 0.827325
6049.52002 0.829048
6050.27979 0.830014
6051.04004 0.829693
6051.79980 0.829372
6052.54980 0.829052
6053.31006 0.828731
6054.06982 0.828407
6054.83008 0.828087
6055.58984 0.827763
6056.35010 0.82744
6057.10986 0.827117
6057.85986 0.826794
6058.62012 0.826471
6059.37988 0.826147
6060.14014 0.825724
6060.89990 0.824863
6061.66016 0.824001
6062.41992 0.823137
6063.18018 0.822277
6063.93994 0.821414
6064.70020 0.820552
6065.45996 0.819689
6066.22021 0.818825
6066.97998 0.817959
6067.74023 0.817092
6068.50000 0.816227
6069.25977 0.815356
6070.02002 0.814489
6070.77979 0.813632
6071.54004 0.812773
6072.29980 0.811913
6073.06006 0.811055
6073.81982 0.810194
6074.58984 0.80933
6075.35010 0.80847
6076.10986 0.807604
6076.87012 0.806741
6077.62988 0.805879
6078.39014 0.805015
6079.14990 0.804152
6079.91016 0.803287
6080.66992 0.804823
6081.43994 0.806677
6082.20020 0.808523
6082.97021 0.810379
6083.72998 0.812227
6084.49023 0.814077
6085.25000 0.815929
6086.00977 0.817782
6086.77002 0.819633
6087.52979 0.821489
6088.29980 0.823354
6089.06006 0.82521
6089.83008 0.827076
6090.58984 0.828419
6091.35010 0.829608
6092.10986 0.830809
6092.87988 0.832003
6093.64014 0.833201
6094.39990 0.834397
6095.16992 0.835599
6095.93018 0.836798
6096.70020 0.838002
6097.45996 0.839201
6098.22021 0.840395
6098.99023 0.841601
6099.75000 0.842803
6100.52002 0.842478
6101.27979 0.841419
6102.04980 0.840357
6102.81006 0.839296
6103.58008 0.838231
6104.33984 0.83717
6105.10010 0.836112
6105.87012 0.835044
6106.62988 0.833981
6107.39990 0.832917
6108.16016 0.831852
6108.93018 0.830782
6109.68994 0.829716
6110.45996 0.830118
6111.22998 0.831483
6111.99023 0.832841
6112.75977 0.834213
6113.52002 0.835581
6114.29004 0.836948
6115.04980 0.838315
6115.81982 0.839691
6116.58984 0.84106
6117.35986 0.842437
6118.12012 0.84381
6118.89014 0.845176
6119.64990 0.846556
6120.41992 0.84724
6121.18994 0.84736
6121.95020 0.847479
6122.72021 0.847599
6123.49023 0.84772
6124.25977 0.84784
6125.02979 0.84796
6125.79004 0.848079
6126.56006 0.848199
6127.33008 0.848319
6128.08984 0.848439
6128.85986 0.848558
6129.62988 0.848678
6130.39990 0.84887
6131.16992 0.849128
6131.93994 0.849386
6132.70020 0.849641
6133.47021 0.849901
6134.24023 0.850159
6135.00977 0.850416
6135.77002 0.850674
6136.54980 0.850934
6137.31006 0.851192
6138.08984 0.85145
6138.85010 0.851709
6139.62012 0.851967
6140.39014 0.852248
6141.16016 0.852548
6141.93018 0.852848
6142.70020 0.853149
6143.47021 0.85345
6144.24023 0.853751
6145.00977 0.854052
6145.77979 0.854353
6146.54980 0.854653
6147.31982 0.854955
6148.08984 0.855256
6148.85986 0.855559
6149.62988 0.855859
6150.39990 0.855278
6151.16992 0.853884
6151.93994 0.852484
6152.72021 0.851088
6153.47998 0.849698
6154.25977 0.848294
6155.02979 0.846895
6155.79980 0.845496
6156.56982 0.844097
6157.33984 0.84269
6158.10986 0.841289
6158.89014 0.839881
6159.66016 0.838478
6160.41992 0.836038
6161.20020 0.832725
6161.97021 0.829422
6162.74023 0.82612
6163.50977 0.822814
6164.29004 0.819492
6165.06006 0.816181
6165.83008 0.812852
6166.60986 0.809538
6167.37988 0.806234
6168.14990 0.802899
6168.91992 0.799574
6169.68994 0.79625
6170.47021 0.793614
6171.24023 0.791419
6172.02002 0.789232
6172.79004 0.787034
6173.56006 0.784845
6174.33008 0.782662
6175.10986 0.780459
6175.87988 0.778264
6176.64990 0.776069
6177.43018 0.773872
6178.20020 0.771663
6178.97998 0.769462
6179.75977 0.76725
6180.52979 0.765351
6181.29980 0.763599
6182.08008 0.761832
6182.85010 0.760071
6183.62012 0.758308
6184.39990 0.756544
6185.18018 0.754772
6185.95020 0.753008
6186.72998 0.751233
6187.50000 0.749464
6188.27002 0.747702
6189.04980 0.745922
6189.83008 0.744151
6190.60010 0.74348
6191.37988 0.743129
6192.14990 0.742777
6192.93018 0.742426
6193.70996 0.742072
6194.47998 0.74172
6195.25977 0.741368
6196.02979 0.741014
6196.81006 0.740662
6197.58984 0.740309
6198.35986 0.739955
6199.14014 0.739598
6199.91992 0.739244
6200.70020 0.738584
6201.47021 0.737892
6202.24023 0.737202
6203.02002 0.736506
6203.79980 0.735812
6204.58008 0.735117
6205.35010 0.734423
6206.12988 0.733724
6206.91016 0.733027
6207.68994 0.732329
6208.47021 0.731632
6209.24023 0.730939
6210.02002 0.730302
6210.79980 0.731765
6211.58008 0.733227
6212.35010 0.73469
6213.14014 0.73616
6213.91016 0.737623
6214.68994 0.739095
6215.47021 0.74056
6216.25000 0.742019
6217.02979 0.743492
6217.81006 0.74496
6218.58984 0.746429
6219.35986 0.747897
6220.14990 0.749917
6220.93018 0.754295
6221.70996 0.758694
6222.49023 0.763077
6223.25977 0.767442
6224.04004 0.771846
6224.81982 0.776238
6225.60010 0.780631
6226.37988 0.785027
6227.16016 0.789444
6227.93994 0.793844
6228.72998 0.798267
6229.50977 0.802673
6230.27979 0.806038
6231.06982 0.807627
6231.85010 0.80921
6232.62988 0.810793
6233.41016 0.812377
6234.18994 0.813969
6234.97021 0.815555
6235.75000 0.817147
6236.52979 0.818727
6237.31006 0.820315
6238.10010 0.82191
6238.87988 0.8235
6239.66016 0.825088
6240.43994 0.827338
6241.22021 0.830118
6242.00977 0.832887
6242.79004 0.835668
6243.56982 0.838425
6244.35010 0.841198
6245.12988 0.843983
6245.91992 0.846758
6246.70020 0.849536
6247.47998 0.852314
6248.27002 0.855107
6249.04980 0.857886
6249.83008 0.860684
6250.60986 0.861318
6251.39014 0.86137
6252.18018 0.861424
6252.95996 0.861478
6253.75000 0.861529
6254.52979 0.861581
6255.31006 0.861634
6256.10010 0.861687
6256.87988 0.861739
6257.66016 0.86179
6258.45020 0.861842
6259.22998 0.861894
6260.02002 0.861958
6260.79980 0.862576
6261.58984 0.863193
6262.37012 0.863811
6263.16016 0.864428
6263.93994 0.865049
6264.72021 0.865662
6265.50977 0.86628
6266.29980 0.866901
6267.08008 0.867519
6267.85986 0.868138
6268.64990 0.868757
6269.43994 0.86938
6270.22021 0.870147
6271.00977 0.871297
6271.79004 0.872437
6272.58008 0.873584
6273.37012 0.874737
6274.14990 0.875884
6274.93994 0.877033
6275.72021 0.878181
6276.50977 0.879336
6277.29980 0.880487
6278.08984 0.881644
6278.87012 0.88279
6279.64990 0.883943
6280.43994 0.883237
6281.22998 0.881089
6282.02002 0.878941
6282.79980 0.876791
6283.58984 0.874631
6284.37988 0.872478
6285.16992 0.870315
6285.95020 0.86817
6286.74023 0.866015
6287.52979 0.863849
6288.31982 0.861691
6289.10010 0.859534
6289.89014 0.857373
6290.68018 0.857858
6291.47021 0.858765
6292.25977 0.859676
6293.04004 0.860579
6293.83008 0.861487
6294.62012 0.862399
6295.41016 0.863307
6296.20020 0.864216
6296.99023 0.865125
6297.77979 0.866039
6298.56982 0.866949
6299.35986 0.867865
6300.14990 0.868318
6300.93018 0.866747
6301.72998 0.865172
6302.50977 0.863602
6303.29980 0.862032
6304.08984 0.86046
6304.87988 0.858882
6305.66992 0.857307
6306.47021 0.855726
6307.25000 0.854158
6308.04004 0.852582
6308.83984 0.850998
6309.62012 0.849421
6310.41016 0.848918
6311.20020 0.849389
6312.00000 0.849862
6312.79004 0.850333
6313.58008 0.850806
6314.37012 0.851275
6315.16016 0.851747
6315.95020 0.852223
6316.74023 0.852693
6317.52979 0.853166
6318.31982 0.85364
6319.12012 0.854114
6319.91016 0.854586
6320.70020 0.854074
6321.49023 0.853441
6322.27979 0.852806
6323.08008 0.852168
6323.87012 0.851531
6324.66016 0.850893
6325.45020 0.850256
6326.25000 0.849615
6327.04004 0.848977
6327.83984 0.848335
6328.62012 0.847698
6329.41992 0.847058
6330.20996 0.847004
6331.00977 0.848558
6331.79980 0.850113
6332.58984 0.851669
6333.39014 0.853232
6334.18018 0.85479
6334.97998 0.856356
6335.77002 0.857907
6336.56006 0.859468
6337.35010 0.861035
6338.14990 0.862597
6338.93994 0.86416
6339.72998 0.865724
6340.52979 0.86563
6341.33008 0.864709
6342.12012 0.863784
6342.91016 0.862867
6343.70996 0.861946
6344.50977 0.861019
6345.29980 0.860096
6346.08984 0.859173
6346.89014 0.85825
6347.68994 0.857322
6348.47998 0.856398
6349.27979 0.855469
6350.06982 0.855164
6350.85986 0.861301
6351.66016 0.867471
6352.45996 0.873613
6353.25000 0.879759
6354.04980 0.885911
6354.85010 0.892093
6355.64014 0.898251
6356.43994 0.904442
6357.22998 0.910577
6358.02979 0.916745
6358.83008 0.922945
6359.62012 0.92912
6360.41992 0.928527
6361.22021 0.921894
6362.02002 0.91523
6362.81006 0.908594
6363.60986 0.901926
6364.41016 0.895311
6365.20020 0.888662
6366.00000 0.881982
6366.79980 0.875328
6367.60010 0.868671
6368.39014 0.862011
6369.18994 0.855317
6369.99023 0.848649
6370.79004 0.851162
6371.58984 0.853747
6372.39014 0.856345
6373.18994 0.858953
6373.97998 0.861553
6374.77979 0.864155
6375.58008 0.866759
6376.37988 0.869377
6377.18018 0.871983
6377.97021 0.874579
6378.77979 0.877203
6379.56982 0.879815
6380.37988 0.878099
6381.18018 0.871491
6381.97021 0.86488
6382.77002 0.858266
6383.56982 0.851649
6384.37012 0.844997
6385.16992 0.838397
6385.97021 0.831737
6386.77002 0.825103
6387.56982 0.818438
6388.37988 0.811793
6389.16992 0.80515
6389.97021 0.798497
6390.77002 0.800381
6391.58008 0.802566
6392.37012 0.804733
6393.18018 0.806921
6393.97998 0.809098
6394.77979 0.811287
6395.58008 0.813467
6396.37988 0.815647
6397.18018 0.81783
6397.97998 0.820014
6398.79004 0.822208
6399.58984 0.824384
6400.39014 0.824357
6401.18994 0.821981
6402.00000 0.819594
6402.79980 0.817217
6403.60010 0.814839
6404.39990 0.812458
6405.20020 0.810076
6406.00977 0.807683
6406.81006 0.80531
6407.60986 0.802916
6408.41016 0.800528
6409.22021 0.798128
6410.02002 0.795918
6410.81982 0.800212
6411.62988 0.804506
6412.43018 0.808806
6413.22998 0.813125
6414.02979 0.81741
6414.83984 0.821734
6415.64014 0.826042
6416.45020 0.830372
6417.25000 0.834683
6418.06006 0.839002
6418.85986 0.843319
6419.66016 0.847638
6420.47021 0.847795
6421.27002 0.844983
6422.08008 0.842146
6422.87988 0.83932
6423.68994 0.836481
6424.49023 0.833655
6425.29980 0.830825
6426.10010 0.827992
6426.91016 0.825162
6427.72021 0.822317
6428.52002 0.819497
6429.31982 0.816649
6430.12988 0.815376
6430.93994 0.82232
6431.74023 0.829242
6432.54980 0.836166
6433.35010 0.843094
6434.16016 0.850024
6434.97021 0.856987
6435.77002 0.863891
6436.58008 0.87086
6437.37988 0.877802
6438.18994 0.884779
6439.00000 0.891726
6439.81006 0.898679
6440.60986 0.898419
6441.41992 0.895851
6442.22998 0.893269
6443.02979 0.890712
6443.83984 0.88813
6444.64990 0.885555
6445.45996 0.882971
6446.25977 0.880395
6447.06982 0.877819
6447.87988 0.875239
6448.68994 0.872661
6449.49023 0.87007
6450.29980 0.870893
6451.10986 0.877507
6451.91992 0.884099
6452.72998 0.89072
6453.54004 0.897318
6454.33984 0.903915
6455.14990 0.91052
6455.95996 0.917121
6456.77002 0.923762
6457.58008 0.930346
6458.39014 0.936988
6459.20020 0.943609
6460.00977 0.950134
6460.81982 0.945438
6461.62988 0.940738
6462.43994 0.93604
6463.24023 0.931338
6464.06006 0.926615
6464.85986 0.92193
6465.68018 0.917205
6466.47998 0.912497
6467.29980 0.907768
6468.10986 0.903057
6468.91992 0.898346
6469.72998 0.893634
6470.54004 0.895332
6471.35010 0.900329
6472.16016 0.905288
6472.97021 0.910287
6473.77979 0.915272
6474.58984 0.920278
6475.39990 0.925267
6476.22021 0.930258
6477.02979 0.935253
6477.83984 0.940248
6478.64990 0.945268
6479.45996 0.950249
6480.27002 0.951685
6481.08008 0.946026
6481.89990 0.94034
6482.70996 0.934675
6483.52002 0.929011
6484.33008 0.92334
6485.14990 0.917672
6485.95996 0.911974
6486.77002 0.906327
6487.58008 0.900627
6488.39990 0.894947
6489.20996 0.889246
6490.02002 0.883839
6490.83984 0.887417
6491.64990 0.890995
6492.45996 0.894574
6493.27979 0.898169
6494.08984 0.901739
6494.89990 0.905338
6495.72021 0.908924
6496.52979 0.912526
6497.35010 0.916116
6498.16016 0.919704
6498.97021 0.923297
6499.79004 0.92689
6500.60010 0.922838
6501.41016 0.916136
6502.22998 0.909369
6503.04980 0.902628
6503.85986 0.895858
6504.68018 0.889107
6505.49023 0.882359
6506.31006 0.875604
6507.12012 0.868846
6507.93994 0.862056
6508.75000 0.855317
6509.56982 0.848522
6510.37988 0.845875
6511.20020 0.847906
6512.02002 0.849928
6512.83008 0.851951
6513.64990 0.853975
6514.45996 0.856
6515.27979 0.858035
6516.08984 0.860051
6516.91016 0.862079
6517.72998 0.864115
6518.54980 0.866153
6519.35986 0.868183
6520.18018 0.868968
6520.99023 0.865331
6521.81006 0.86169
6522.62988 0.858033
6523.43994 0.854406
6524.25977 0.85076
6525.08008 0.847102
6525.89990 0.843437
6526.72021 0.839792
6527.54004 0.836142
6528.35010 0.832493
6529.16992 0.828842
6529.99023 0.825193
6530.79980 0.830248
6531.62012 0.835451
6532.43994 0.840674
6533.25977 0.845901
6534.08008 0.851108
6534.89990 0.856316
6535.72021 0.861528
6536.54004 0.86674
6537.35010 0.871956
6538.16992 0.877173
6538.99023 0.882392
6539.81006 0.887635
6540.64014 0.885486
6541.45020 0.88118
6542.27002 0.876872
6543.08984 0.872562
6543.91016 0.868244
6544.72998 0.86393
6545.54980 0.859609
6546.37012 0.855285
6547.18994 0.85094
6548.02002 0.846594
6548.83008 0.842261
6549.64990 0.837925
6550.47021 0.839801
6551.29004 0.846209
6552.10986 0.85262
6552.93018 0.859029
6553.75000 0.865445
6554.58008 0.871892
6555.39990 0.878339
6556.22021 0.884757
6557.04004 0.891183
6557.85986 0.897607
6558.68994 0.904034
6559.50977 0.910462
6560.33008 0.912942
6561.14990 0.909466
6561.97021 0.905972
6562.79980 0.902477
6563.62012 0.898996
6564.43994 0.895511
6565.25977 0.892025
6566.08984 0.888537
6566.91016 0.885047
6567.72998 0.881556
6568.54980 0.878061
6569.37988 0.874552
6570.20020 0.872561
6571.02002 0.875225
6571.85010 0.877889
6572.66992 0.880555
6573.49023 0.883222
6574.31982 0.885891
6575.14014 0.888561
6575.95996 0.89123
6576.79004 0.893913
6577.62012 0.896595
6578.43994 0.899268
6579.25977 0.901942
6580.08984 0.904064
6580.91016 0.90148
6581.72998 0.89889
6582.56006 0.8963
6583.37988 0.893711
6584.20996 0.891108
6585.04004 0.888502
6585.85986 0.885908
6586.68994 0.883312
6587.50977 0.880715
6588.33008 0.878119
6589.16016 0.87552
6589.97998 0.872918
6590.81006 0.873825
6591.64014 0.874804
6592.47021 0.875783
6593.29004 0.876758
6594.12012 0.877734
6594.93994 0.878711
6595.77002 0.87969
6596.58984 0.880665
6597.41992 0.881642
6598.24023 0.88262
6599.06982 0.883602
6599.89990 0.884584
6600.72998 0.880982
6601.56006 0.876779
6602.37988 0.872571
6603.20996 0.868364
6604.04004 0.864152
6604.85986 0.859939
6605.68994 0.855724
6606.52002 0.851489
6607.35010 0.847252
6608.18018 0.843029
6609.00977 0.838806
6609.83008 0.834581
6610.66016 0.836444
6611.49023 0.839856
6612.31006 0.843271
6613.14014 0.846688
6613.97021 0.850119
6614.81006 0.853554
6615.62988 0.856976
6616.45996 0.860398
6617.29004 0.863819
6618.12012 0.867241
6618.95020 0.870667
6619.77002 0.874094
6620.60010 0.875429
6621.43994 0.875986
6622.27002 0.876544
6623.10010 0.877099
6623.93018 0.877655
6624.75977 0.878212
6625.58984 0.878768
6626.41016 0.879324
6627.24023 0.879881
6628.06982 0.880437
6628.91016 0.880996
6629.74023 0.881556
6630.56982 0.88157
6631.39990 0.881336
6632.22998 0.881101
6633.06006 0.880865
6633.89014 0.880631
6634.72021 0.880396
6635.54980 0.880161
6636.39014 0.879925
6637.22021 0.879689
6638.04980 0.879454
6638.87988 0.879219
6639.70996 0.878983
6640.54980 0.882748
6641.37988 0.888563
6642.20996 0.894403
6643.04004 0.900249
6643.87012 0.906125
6644.70996 0.912
6645.54004 0.917854
6646.37012 0.923707
6647.20020 0.929564
6648.04004 0.935452
6648.87012 0.941289
6649.70020 0.947152
6650.52979 0.946774
6651.37012 0.942863
6652.20020 0.938948
6653.04004 0.935051
6653.87012 0.931153
6654.70020 0.927255
6655.54004 0.923335
6656.37012 0.919448
6657.20020 0.915545
6658.04004 0.91164
6658.87012 0.907716
6659.70996 0.90379
6660.54004 0.906788
6661.37988 0.913464
6662.20996 0.920147
6663.04980 0.92686
6663.87988 0.933521
6664.70996 0.940212
6665.54980 0.94691
6666.39014 0.953638
6667.22021 0.960373
6668.06006 0.967078
6668.89014 0.973786
6669.72998 0.980502
6670.56982 0.979617
6671.39990 0.975105
6672.22998 0.970574
6673.06982 0.96604
6673.91016 0.961486
6674.75000 0.956931
6675.58008 0.952395
6676.41992 0.947855
6677.25000 0.943317
6678.08984 0.938755
6678.93018 0.934234
6679.75977 0.929692
6680.60010 0.932739
6681.43994 0.938855
6682.27979 0.944973
6683.10986 0.951068
6683.95020 0.957167
6684.79004 0.96327
6685.62012 0.969377
6686.45996 0.975485
6687.29980 0.981596
6688.12988 0.987709
6688.97998 0.993853
6689.81982 1.0
6690.64990 0.995755
6691.49023 0.988583
6692.33008 0.981413
6693.16992 0.974237
6694.00000 0.967057
6694.83984 0.959877
6695.68018 0.952696
6696.52002 0.945478
6697.35986 0.93826
6698.20020 0.931067
6699.04004 0.923871
6699.87988 0.91667
6700.72021 0.917995
6701.56006 0.920753
6702.39990 0.923512
6703.22998 0.926272
6704.08008 0.929044
6704.91992 0.931818
6705.75977 0.934582
6706.60010 0.937345
6707.43994 0.940111
6708.27979 0.942877
6709.12012 0.945643
6709.95996 0.948411
6710.79980 0.944865
6711.64014 0.940962
6712.47998 0.93706
6713.31982 0.933172
6714.16992 0.92928
6715.00977 0.925389
6715.85010 0.921494
6716.68994 0.917596
6717.52979 0.913695
6718.37012 0.909793
6719.20996 0.905871
6720.06006 0.902264
6720.89990 0.902919
6721.74023 0.903575
6722.58008 0.90423
6723.41992 0.904885
6724.27002 0.90554
6725.10986 0.906196
6725.95020 0.906853
6726.79004 0.907513
6727.64014 0.908172
6728.47998 0.908829
6729.31982 0.909487
6730.16992 0.909521
6731.00977 0.907021
6731.85010 0.904523
6732.68994 0.902022
6733.54004 0.899522
6734.37988 0.897009
6735.22998 0.894496
6736.06982 0.891993
6736.91992 0.88949
6737.75977 0.886986
6738.60010 0.88448
6739.45020 0.881974
6740.29004 0.881933
6741.12988 0.886585
6741.97998 0.891255
6742.83008 0.89593
6743.66992 0.900589
6744.52002 0.905249
6745.35986 0.909907
6746.20996 0.914569
6747.04980 0.91923
6747.89990 0.923898
6748.74023 0.928564
6749.58984 0.933253
6750.43994 0.933345
6751.27979 0.929124
6752.12988 0.924897
6752.97021 0.920668
6753.81982 0.916439
6754.66016 0.912206
6755.50977 0.90797
6756.35010 0.903732
6757.20020 0.899475
6758.04980 0.895214
6758.89990 0.890969
6759.74023 0.886721
6760.58984 0.884874
6761.43994 0.88406
6762.27979 0.883244
6763.12988 0.882431
6763.97998 0.881616
6764.83008 0.880797
6765.68018 0.879979
6766.52002 0.879164
6767.37012 0.878348
6768.22021 0.877532
6769.06982 0.876715
6769.91016 0.8759
6770.75977 0.884342
6771.60986 0.893841
6772.45996 0.903391
6773.31006 0.912944
6774.16016 0.922455
6775.00977 0.931976
6775.85010 0.941498
6776.70020 0.951025
6777.54980 0.960554
6778.39990 0.970085
6779.25000 0.979625
6780.10010 0.987096
6780.95020 0.978749
6781.79980 0.97043
6782.64990 0.962112
6783.50000 0.953787
6784.35010 0.94546
6785.20020 0.93713
6786.04980 0.928792
6786.89990 0.920459
6787.75000 0.912077
6788.60010 0.903695
6789.45020 0.895348
6790.29980 0.892359
6791.14990 0.899057
6792.00000 0.905756
6792.85010 0.912455
6793.70020 0.91916
6794.54980 0.925863
6795.41016 0.932601
6796.25977 0.939341
6797.10986 0.94605
6797.95996 0.952761
6798.81006 0.959479
6799.66992 0.966197
6800.52002 0.965199
6801.37012 0.959213
6802.22021 0.95323
6803.06982 0.947214
6803.93018 0.941203
6804.77979 0.935209
6805.62988 0.929217
6806.49023 0.923221
6807.33984 0.917225
6808.18994 0.911227
6809.04004 0.905228
6809.89990 0.899224
6810.75000 0.899465
6811.60986 0.900587
6812.45996 0.901704
6813.31006 0.902822
6814.16016 0.90394
6815.02002 0.905058
6815.87012 0.906177
6816.72021 0.907296
6817.58008 0.908414
6818.43994 0.909538
6819.29004 0.910663
6820.14990 0.91107
6821.00000 0.908001
6821.85010 0.904932
6822.70996 0.90186
6823.56006 0.898789
6824.41016 0.895716
6825.27002 0.892641
6826.12988 0.889552
6826.99023 0.88646
6827.83984 0.883382
6828.68994 0.880304
6829.54980 0.877222
6830.39990 0.877892
6831.25977 0.882737
6832.10986 0.887585
6832.97021 0.892433
6833.83008 0.897308
6834.68994 0.90218
6835.54004 0.907034
6836.39990 0.911893
6837.25977 0.91675
6838.10986 0.92161
6838.97021 0.92647
6839.81982 0.931334
6840.68018 0.928895
6841.54004 0.924531
6842.39990 0.920164
6843.25977 0.915817
6844.10986 0.911471
6844.97021 0.90712
6845.83008 0.902771
6846.68018 0.898419
6847.54004 0.894069
6848.39990 0.889719
6849.25977 0.885345
6850.12012 0.882368
6850.97998 0.88806
6851.83008 0.893753
6852.68994 0.89945
6853.54980 0.90515
6854.41016 0.91085
6855.27002 0.91655
6856.12012 0.922252
6856.99023 0.927985
6857.85010 0.933716
6858.70996 0.939425
6859.56006 0.945139
6860.41992 0.946301
6861.27979 0.942784
6862.14014 0.939266
6863.00000 0.935747
6863.85986 0.932227
6864.72021 0.928687
6865.58984 0.925148
6866.43994 0.921622
6867.29980 0.918095
6868.16016 0.914565
6869.02002 0.911033
6869.87988 0.9075
6870.74023 0.910528
6871.60010 0.914586
6872.47021 0.918663
6873.33008 0.922744
6874.18994 0.926808
6875.04980 0.930871
6875.91016 0.93494
6876.77002 0.939004
6877.62988 0.943073
6878.49023 0.947144
6879.35986 0.951212
6880.22021 0.952851
6881.08984 0.947334
6881.95020 0.941838
6882.81006 0.936342
6883.66992 0.930841
6884.52979 0.925342
6885.39014 0.91984
6886.25977 0.914335
6887.12012 0.908825
6887.97998 0.903291
6888.85010 0.897757
6889.70996 0.892245
6890.56982 0.891551
6891.43994 0.893279
6892.29980 0.895009
6893.16016 0.896739
6894.02002 0.898469
6894.89014 0.900199
6895.75977 0.901938
6896.62012 0.903678
6897.47998 0.905409
6898.35010 0.90714
6899.20996 0.908874
6900.06982 0.909834
6900.93994 0.902693
6901.79980 0.895549
6902.66992 0.8884
6903.52979 0.881222
6904.39990 0.874038
6905.27002 0.866886
6906.12988 0.85973
6907.00000 0.852577
6907.85986 0.845416
6908.72998 0.838254
6909.58984 0.831092
6910.45020 0.829068
6911.31982 0.831696
6912.18994 0.834322
6913.06006 0.83694
6913.91992 0.839559
6914.79004 0.842179
6915.64990 0.8448
6916.52002 0.847423
6917.39014 0.850047
6918.25000 0.852674
6919.12012 0.85531
6919.99023 0.85795
6920.85986 0.851829
6921.72021 0.845618
6922.58984 0.839406
6923.45996 0.833189
6924.31982 0.82697
6925.18994 0.82075
6926.06006 0.814531
6926.93018 0.808277
6927.79980 0.802025
6928.66992 0.795799
6929.52979 0.789571
6930.39990 0.788925
6931.27002 0.794802
6932.14014 0.800676
6933.00000 0.806556
6933.87012 0.812433
6934.74023 0.818337
6935.60986 0.824245
6936.47998 0.830126
6937.35010 0.836007
6938.22021 0.841891
6939.08984 0.847774
6939.95996 0.85366
6940.81982 0.850558
6941.68994 0.846978
6942.56982 0.843384
6943.43994 0.839786
6944.31006 0.836203
6945.18018 0.832619
6946.04980 0.829033
6946.91992 0.825446
6947.79004 0.821854
6948.66016 0.818264
6949.52979 0.814671
6950.39990 0.816351
6951.27002 0.824301
6952.14014 0.832218
6953.00977 0.840141
6953.87988 0.848058
6954.75977 0.85598
6955.62012 0.8639
6956.50000 0.871821
6957.37012 0.879743
6958.24023 0.8877
6959.12012 0.89566
6959.99023 0.903584
6960.85986 0.90464
6961.72998 0.905594
6962.60010 0.90655
6963.47021 0.907505
6964.35010 0.90846
6965.22021 0.909413
6966.08984 0.910372
6966.97021 0.911332
6967.83984 0.912285
6968.70996 0.91324
6969.58008 0.914195
6970.45996 0.916734
6971.33008 0.920713
6972.20020 0.924693
6973.06982 0.928675
6973.95020 0.932675
6974.83008 0.936673
6975.70020 0.940659
6976.56982 0.944645
6977.45020 0.94863
6978.31982 0.952618
6979.18994 0.956604
6980.06982 0.959965
6980.93994 0.955937
6981.81982 0.951885
6982.70020 0.947834
6983.56982 0.943795
6984.45020 0.939757
6985.31982 0.935716
6986.18994 0.931672
6987.06982 0.927625
6987.93994 0.923579
6988.81982 0.919528
6989.70020 0.915459
6990.58008 0.916367
6991.45020 0.91988
6992.33008 0.923393
6993.20020 0.926908
6994.08008 0.930426
6994.95020 0.933942
6995.83008 0.937461
6996.70020 0.940978
6997.58008 0.944514
6998.45996 0.948051
6999.33984 0.951573
7000.20996 0.953465
7001.08984 0.950268
7001.97021 0.947086
7002.83984 0.943903
7003.72021 0.94072
7004.60010 0.937536
7005.47998 0.934335
7006.35986 0.931137
7007.24023 0.927949
7008.10986 0.924778
7008.99023 0.921576
7009.87012 0.918389
7010.74023 0.919464
7011.62012 0.921304
7012.50000 0.923141
7013.37988 0.924986
7014.25977 0.92683
7015.14014 0.928667
7016.02002 0.930496
7016.89990 0.932341
7017.77979 0.934179
7018.64990 0.936017
7019.52979 0.937855
7020.41016 0.936552
7021.29004 0.931664
7022.18018 0.926774
7023.06006 0.921904
7023.93018 0.917054
7024.81006 0.912161
7025.68994 0.907286
7026.56982 0.902409
7027.45020 0.897531
7028.33008 0.892654
7029.22021 0.887751
7030.10010 0.884024
7030.97998 0.889485
7031.85986 0.894923
7032.74023 0.900413
7033.62012 0.90588
7034.50000 0.911346
7035.37988 0.916814
7036.25977 0.922285
7037.14990 0.927779
7038.02979 0.933277
7038.91016 0.93875
7039.79004 0.944199
7040.68018 0.942015
7041.56006 0.937455
7042.43994 0.932896
7043.31982 0.928333
7044.20020 0.923771
7045.08984 0.919187
7045.97021 0.914603
7046.85010 0.910039
7047.72998 0.905491
7048.62012 0.900905
7049.50000 0.896339
7050.37988 0.896316
7051.27002 0.902216
7052.14990 0.90812
7053.02979 0.914049
7053.91992 0.919978
7054.81006 0.925884
7055.68018 0.931765
7056.56982 0.937696
7057.45020 0.943604
7058.33984 0.949515
7059.22021 0.955424
7060.10010 0.960022
7060.99023 0.954846
7061.87988 0.949667
7062.75977 0.944514
7063.64990 0.93938
7064.52979 0.934204
7065.41992 0.929049
7066.29980 0.92389
7067.18994 0.918735
7068.06982 0.913577
7068.95996 0.908396
7069.85010 0.903215
7070.72998 0.893091
7071.60986 0.881976
7072.50000 0.870762
7073.39014 0.859594
7074.27002 0.848424
7075.16016 0.837247
7076.04980 0.826069
7076.93994 0.814839
7077.81982 0.803608
7078.70996 0.792424
7079.58984 0.781283
7080.47998 0.761165
7081.37012 0.733664
7082.25977 0.70616
7083.14014 0.678637
7084.02979 0.651109
7084.91992 0.623457
7085.81006 0.595802
7086.70020 0.56825
7087.58008 0.540831
7088.47021 0.51315
7089.35986 0.485572
7090.25000 0.460839
7091.12988 0.443498
7092.02002 0.426168
7092.91016 0.408745
7093.79980 0.391332
7094.68994 0.373998
7095.58008 0.356732
7096.47021 0.339315
7097.35986 0.321975
7098.24023 0.304628
7099.12988 0.287282
7100.02002 0.27012
7100.91016 0.25993
7101.81006 0.24974
7102.70020 0.239589
7103.58008 0.229489
7104.47998 0.219289
7105.35986 0.209139
7106.25000 0.198989
7107.14014 0.188833
7108.02979 0.178678
7108.93018 0.168479
7109.81982 0.158274
7110.70996 0.152705
7111.60010 0.148313
7112.49023 0.143881
7113.37988 0.139466
7114.27002 0.135053
7115.16016 0.130637
7116.04980 0.126221
7116.95020 0.121785
7117.83984 0.117346
7118.72998 0.112925
7119.62012 0.108524
7120.52002 0.10507
7121.41016 0.102355
7122.29980 0.0996378
7123.18994 0.0969203
7124.08008 0.0942024
7124.97998 0.0914719
7125.87012 0.0887396
7126.75977 0.0860201
7127.64990 0.0833106
7128.54980 0.0805753
7129.43994 0.0778528
7130.33008 0.0756889
7131.22998 0.0744644
7132.12012 0.0732399
7133.02002 0.0720099
7133.91016 0.0707791
7134.81006 0.0695537
7135.68994 0.0683335
7136.58984 0.0671026
7137.47998 0.0658764
7138.37988 0.0646508
7139.27002 0.0634244
7140.16992 0.0621862
7141.06006 0.0608942
7141.95996 0.0596015
7142.85010 0.0583144
7143.74023 0.0570331
7144.64014 0.0557403
7145.54004 0.0544524
7146.43018 0.0531645
7147.33008 0.0518766
7148.22021 0.0505887
7149.12012 0.0492952
7150.02002 0.0480068
7150.91016 0.0467318
7151.81006 0.0454678
7152.70020 0.0441922
7153.60010 0.0429229
7154.49023 0.041653
7155.39014 0.0403832
7156.29004 0.0391128
7157.18994 0.0378378
7158.08008 0.0365675
7158.97998 0.0352918
7159.87012 0.0340267
7160.77002 0.0327732
7161.66992 0.0315278
7162.56982 0.0302822
7163.45996 0.0290364
7164.35986 0.0277904
7165.25977 0.026538
7166.16016 0.0252908
7167.04980 0.0240487
7167.95020 0.0227956
7168.85010 0.0215416
7169.75000 0.0202928
7170.64990 0.0193035
7171.54980 0.0184141
7172.43994 0.0175242
7173.35010 0.0166309
7174.24023 0.0157409
7175.14014 0.0148548
7176.04004 0.0139604
7176.93994 0.013066
7177.83984 0.0121758
7178.74023 0.0112847
7179.64014 0.0103941
7180.52979 0.00979863
7181.43994 0.00940169
7182.33984 0.00900644
7183.22998 0.00861266
7184.14014 0.00821562
7185.04004 0.00781837
7185.93994 0.00742282
7186.83984 0.00702722
7187.74023 0.0066316
7188.64014 0.00623574
7189.54004 0.00583814
7190.43994 0.00556039
7191.33984 0.00540655
7192.24023 0.00525128
7193.14990 0.00509601
7194.04980 0.00494141
7194.95020 0.0047868
7195.85010 0.00463211
7196.75000 0.0044775
7197.64990 0.00432213
7198.54980 0.00416734
7199.45020 0.0040133
7200.35010 0.0038578
7201.25977 0.00370225
7202.16016 0.00354737
7203.06006 0.0033925
7203.97021 0.00323754
7204.87012 0.00308267
7205.77002 0.00292696
7206.68018 0.00277202
7207.56982 0.00261775
7208.47998 0.00246205
7209.39014 0.00230636
7210.29004 0.00218864
7931.31885 0.0
