# %ECSV 0.9
# ---
# datatype:
# - {name: wavelength, unit: Angstrom, datatype: float32}
# - {name: response, datatype: float32}
# meta: !!omap
# - {band_name: F652W}
# - {group_name: ACS_HRC}
wavelength response
4880.43018 0.0
5422.70020 0.00296731
5423.37012 0.00313287
5424.04980 0.00329859
5424.72998 0.00346497
5425.41016 0.00363152
5426.08008 0.00379739
5426.75977 0.00396403
5427.43994 0.00413
5428.12012 0.00429674
5428.79004 0.00446292
5429.47021 0.00462904
5430.14990 0.00479532
5430.81982 0.00496169
5431.50000 0.00512882
5432.18018 0.00529528
5432.85986 0.00546191
5433.54004 0.00562932
5434.20996 0.00579606
5434.89014 0.00596284
5435.56982 0.00613041
5436.25000 0.0062973
5436.93018 0.00646435
5437.60986 0.00663206
5438.27979 0.00679922
5438.97021 0.00696716
5439.64014 0.00713454
5440.31982 0.00743524
5441.00000 0.00788033
5441.68018 0.00832525
5442.35986 0.00877062
5443.04004 0.00921614
5443.72021 0.00966406
5444.39990 0.0101118
5445.06982 0.0105562
5445.75977 0.0110045
5446.43994 0.011453
5447.10986 0.0118978
5447.79980 0.0123466
5448.47998 0.0127959
5449.16016 0.0132431
5449.83984 0.0136907
5450.52002 0.0143208
5451.20020 0.0150086
5451.87988 0.0156932
5452.56006 0.016378
5453.24023 0.0170665
5453.91992 0.0177521
5454.60010 0.018438
5455.27979 0.0191241
5455.95996 0.0198109
5456.64014 0.0205004
5457.31982 0.0211846
5458.00000 0.0218749
5458.68994 0.0225655
5459.35986 0.0232503
5460.04980 0.0239686
5460.72998 0.0250431
5461.41016 0.0261126
5462.10010 0.0271877
5462.77979 0.0282594
5463.45996 0.0293351
5464.14014 0.030412
5464.81982 0.0314791
5465.50977 0.0325566
5466.18994 0.0336344
5466.87012 0.0347032
5467.54980 0.0357824
5468.22998 0.0368565
5468.91992 0.0379317
5469.60010 0.0390071
5470.27979 0.0402812
5470.95996 0.0418487
5471.64990 0.0434099
5472.33008 0.0449728
5473.00977 0.0465429
5473.70020 0.0481134
5474.37988 0.0496777
5475.06006 0.0512425
5475.75000 0.0528156
5476.43018 0.0543892
5477.10986 0.0559487
5477.79980 0.0575233
5478.47998 0.0590994
5479.16016 0.0606615
5479.85010 0.0622375
5480.52979 0.0638901
5481.22021 0.06555
5481.89990 0.0672249
5482.58008 0.0688931
5483.27002 0.0705629
5483.95020 0.0722391
5484.64014 0.0739099
5485.31982 0.0755812
5486.00977 0.0772602
5486.68994 0.0789397
5487.37988 0.0806066
5488.06006 0.0822871
5488.75000 0.0839691
5489.43018 0.0856447
5490.12012 0.0872347
5490.79980 0.0884119
5491.47998 0.0895789
5492.16992 0.0907573
5492.85986 0.0919358
5493.54004 0.0931039
5494.22998 0.0942841
5494.91016 0.0954587
5495.60010 0.0966349
5496.29004 0.0978155
5496.97021 0.0989921
5497.66016 0.100169
5498.35010 0.101352
5499.02979 0.102535
5499.72021 0.103714
5500.39990 0.105456
5501.08984 0.107603
5501.77979 0.109749
5502.47021 0.111887
5503.14990 0.114025
5503.83984 0.116166
5504.52002 0.118307
5505.20996 0.120458
5505.89990 0.1226
5506.58984 0.124743
5507.27002 0.126898
5507.95996 0.129044
5508.64990 0.13119
5509.33984 0.133348
5510.02002 0.135542
5510.70996 0.139027
5511.39990 0.14253
5512.08984 0.146019
5512.77002 0.149507
5513.45996 0.153015
5514.14990 0.156522
5514.83984 0.160018
5515.52979 0.163512
5516.22021 0.167025
5516.91016 0.170524
5517.58984 0.174024
5518.27979 0.177542
5518.97021 0.181044
5519.66016 0.18455
5520.35010 0.187869
5521.04004 0.191012
5521.72998 0.194172
5522.41992 0.19733
5523.10986 0.200478
5523.79980 0.203627
5524.49023 0.206791
5525.18018 0.209942
5525.87012 0.213108
5526.56006 0.216261
5527.25000 0.219431
5527.93994 0.222588
5528.62012 0.225747
5529.31006 0.228906
5530.00000 0.232066
5530.68994 0.234992
5531.39014 0.237907
5532.06982 0.240821
5532.75977 0.243737
5533.45020 0.246654
5534.14990 0.249587
5534.83984 0.252521
5535.52979 0.255455
5536.22021 0.258378
5536.91016 0.261302
5537.60010 0.264238
5538.29980 0.267178
5538.97998 0.270092
5539.68018 0.273033
5540.37012 0.275715
5541.06006 0.278151
5541.75000 0.280608
5542.43994 0.283058
5543.12988 0.285507
5543.83008 0.287968
5544.52002 0.29041
5545.20996 0.292875
5545.89990 0.295329
5546.58984 0.297783
5547.29004 0.30025
5547.97998 0.302718
5548.66992 0.305177
5549.35986 0.307639
5550.06006 0.310135
5550.75000 0.312916
5551.43994 0.315674
5552.14014 0.318456
5552.83008 0.321239
5553.52002 0.324
5554.22021 0.326787
5554.91016 0.329574
5555.60010 0.332338
5556.29980 0.335129
5556.99023 0.337907
5557.68018 0.340687
5558.37988 0.343482
5559.06982 0.346263
5559.75977 0.349047
5560.45996 0.351722
5561.14990 0.354329
5561.83984 0.356916
5562.54004 0.359528
5563.24023 0.362139
5563.93018 0.364741
5564.62012 0.367343
5565.31982 0.369959
5566.00977 0.372563
5566.70996 0.37517
5567.39990 0.377788
5568.08984 0.380385
5568.79004 0.383006
5569.47998 0.385616
5570.18018 0.388214
5570.87988 0.390783
5571.56982 0.393352
5572.27002 0.395912
5572.95996 0.398472
5573.66016 0.401047
5574.35010 0.403609
5575.04980 0.406174
5575.75000 0.408751
5576.43994 0.411331
5577.14014 0.413899
5577.83984 0.416469
5578.52979 0.419051
5579.22998 0.42161
5579.91992 0.424195
5580.62012 0.426033
5581.31006 0.42778
5582.00977 0.429538
5582.70996 0.431279
5583.39990 0.433036
5584.10010 0.434795
5584.79980 0.436545
5585.50000 0.438306
5586.18994 0.440058
5586.89014 0.44182
5587.58984 0.443574
5588.29004 0.445328
5588.99023 0.447091
5589.68018 0.448849
5590.37988 0.450035
5591.08008 0.450747
5591.77979 0.451457
5592.47021 0.452169
5593.16992 0.452883
5593.87012 0.453595
5594.56982 0.454307
5595.25977 0.455016
5595.95996 0.455731
5596.66016 0.456447
5597.35986 0.45716
5598.06006 0.457877
5598.75977 0.458591
5599.45996 0.459309
5600.16016 0.460288
5600.85010 0.462181
5601.56006 0.464083
5602.25000 0.465978
5602.95020 0.467873
5603.64990 0.469777
5604.35010 0.471673
5605.04980 0.473572
5605.75000 0.475478
5606.45020 0.477376
5607.14990 0.479277
5607.85010 0.481187
5608.54980 0.483088
5609.25000 0.484991
5609.95020 0.486903
5610.64990 0.488865
5611.35010 0.490833
5612.04980 0.492812
5612.75000 0.494783
5613.45020 0.496755
5614.14990 0.498735
5614.85010 0.500709
5615.54980 0.502682
5616.25977 0.504665
5616.95996 0.506639
5617.66016 0.508616
5618.35986 0.510603
5619.06006 0.51259
5619.77002 0.514577
5620.45996 0.517179
5621.16992 0.520128
5621.87012 0.523078
5622.56982 0.526002
5623.27002 0.528956
5623.97998 0.531908
5624.66992 0.534837
5625.37988 0.537793
5626.08008 0.540751
5626.77979 0.543684
5627.47998 0.546643
5628.18994 0.549604
5628.89014 0.55254
5629.58984 0.555503
5630.29980 0.557931
5630.99023 0.559602
5631.70020 0.561287
5632.39990 0.562972
5633.10010 0.564646
5633.81006 0.566333
5634.50977 0.56802
5635.20996 0.569694
5635.91992 0.571384
5636.62012 0.573074
5637.31982 0.57475
5638.02979 0.576442
5638.72998 0.578134
5639.43018 0.579812
5640.14014 0.581493
5640.85010 0.583119
5641.54980 0.58473
5642.25000 0.586356
5642.95996 0.587985
5643.66016 0.589598
5644.35986 0.591225
5645.06982 0.592855
5645.77002 0.594473
5646.47998 0.596103
5647.18994 0.597733
5647.89014 0.599352
5648.58984 0.600984
5649.29980 0.602617
5650.00000 0.604235
5650.70996 0.604719
5651.41016 0.605202
5652.12012 0.60568
5652.81982 0.606164
5653.52979 0.606647
5654.22998 0.607126
5654.93994 0.60761
5655.64990 0.608095
5656.35986 0.608579
5657.06006 0.609062
5657.77002 0.609545
5658.47998 0.61003
5659.18018 0.610513
5659.89014 0.610997
5660.58984 0.612185
5661.29980 0.613503
5662.00000 0.614824
5662.70996 0.616148
5663.41992 0.617468
5664.12012 0.61879
5664.83008 0.620118
5665.54004 0.62144
5666.25000 0.622763
5666.95020 0.624091
5667.66016 0.625415
5668.37012 0.626739
5669.08008 0.628069
5669.77979 0.629395
5670.49023 0.631037
5671.20020 0.632828
5671.91016 0.634613
5672.60986 0.636397
5673.31982 0.638191
5674.02979 0.639976
5674.74023 0.641763
5675.45020 0.643558
5676.16016 0.645345
5676.85986 0.647135
5677.56982 0.648931
5678.27979 0.650721
5678.99023 0.652514
5679.70020 0.654312
5680.41016 0.655045
5681.12012 0.654996
5681.83008 0.654947
5682.52979 0.654897
5683.24023 0.654847
5683.95020 0.654798
5684.66016 0.654749
5685.37012 0.6547
5686.08008 0.65465
5686.79004 0.654602
5687.50000 0.654551
5688.20996 0.654501
5688.91992 0.654452
5689.62988 0.654403
5690.33984 0.654107
5691.04980 0.65355
5691.75977 0.652991
5692.47021 0.652431
5693.18994 0.65187
5693.89990 0.651308
5694.60010 0.650751
5695.31982 0.65019
5696.02979 0.649629
5696.74023 0.649071
5697.45020 0.648507
5698.16016 0.647947
5698.87012 0.647387
5699.58008 0.646824
5700.29980 0.646048
5701.00977 0.644983
5701.72021 0.643909
5702.43018 0.642833
5703.14014 0.641768
5703.85010 0.640691
5704.56006 0.639618
5705.27002 0.638547
5705.99023 0.637471
5706.70020 0.636393
5707.41016 0.635324
5708.12988 0.634244
5708.83984 0.633164
5709.54980 0.632093
5710.25977 0.631788
5710.97998 0.632804
5711.68994 0.633819
5712.39990 0.634841
5713.12012 0.635862
5713.83008 0.636876
5714.54004 0.637898
5715.25977 0.638919
5715.97021 0.639934
5716.68018 0.640958
5717.39014 0.641977
5718.10986 0.642997
5718.81982 0.644021
5719.54004 0.645046
5720.25000 0.646408
5720.95996 0.648433
5721.68018 0.650459
5722.39014 0.652468
5723.10986 0.654495
5723.81982 0.656515
5724.52979 0.658533
5725.25000 0.660564
5725.97021 0.662595
5726.68018 0.66461
5727.39014 0.666642
5728.10986 0.668673
5728.81982 0.670691
5729.54004 0.672725
5730.25000 0.674823
5730.97021 0.677069
5731.68994 0.679298
5732.39990 0.681526
5733.12012 0.683765
5733.83008 0.685996
5734.54980 0.688227
5735.27002 0.690469
5735.97998 0.692702
5736.68994 0.694937
5737.41016 0.697183
5738.12988 0.699418
5738.83984 0.701657
5739.56006 0.703903
5740.27979 0.705801
5740.99023 0.707162
5741.70996 0.70853
5742.43018 0.709891
5743.14014 0.711253
5743.85986 0.71262
5744.58008 0.713983
5745.29004 0.715346
5746.00977 0.716717
5746.72998 0.718082
5747.43994 0.719446
5748.16016 0.720818
5748.87988 0.722184
5749.60010 0.72355
5750.31982 0.724195
5751.02979 0.723911
5751.75000 0.723624
5752.47021 0.723338
5753.18994 0.723054
5753.89990 0.722768
5754.62012 0.722482
5755.33984 0.722195
5756.06006 0.721907
5756.77979 0.721621
5757.50000 0.721335
5758.20996 0.721049
5758.93018 0.72076
5759.64990 0.720473
5760.37012 0.720213
5761.08984 0.71998
5761.81006 0.719746
5762.52979 0.719511
5763.25000 0.719276
5763.97021 0.719043
5764.68994 0.718809
5765.41016 0.718572
5766.12012 0.718337
5766.83984 0.718104
5767.56006 0.717868
5768.27979 0.717632
5769.00977 0.717395
5769.72998 0.717161
5770.45020 0.717276
5771.16992 0.717608
5771.89014 0.717937
5772.60986 0.71827
5773.33008 0.718603
5774.04980 0.718932
5774.77002 0.719263
5775.49023 0.719596
5776.20996 0.719926
5776.93018 0.720259
5777.66016 0.720592
5778.37012 0.720923
5779.10010 0.721257
5779.81982 0.721589
5780.54004 0.722296
5781.25977 0.723139
5781.97998 0.723981
5782.70020 0.724817
5783.43018 0.72566
5784.14990 0.726503
5784.87012 0.727341
5785.58984 0.728185
5786.31006 0.729028
5787.02979 0.729866
5787.75977 0.730712
5788.47998 0.731557
5789.20020 0.732395
5789.91992 0.733242
5790.64990 0.735329
5791.37012 0.737542
5792.08984 0.739778
5792.81982 0.742012
5793.54004 0.744229
5794.25977 0.746467
5794.99023 0.748705
5795.70996 0.750924
5796.43018 0.753164
5797.16016 0.755406
5797.87988 0.757628
5798.60010 0.75987
5799.33008 0.762115
5800.04980 0.764197
5800.77002 0.764247
5801.50000 0.764297
5802.22021 0.764347
5802.95020 0.764399
5803.66992 0.764448
5804.39014 0.764498
5805.12012 0.764548
5805.85010 0.764599
5806.56982 0.764648
5807.29980 0.764699
5808.02002 0.764749
5808.75000 0.764798
5809.47021 0.764849
5810.18994 0.764863
5810.91992 0.764778
5811.64990 0.764692
5812.37012 0.764606
5813.10010 0.764522
5813.81982 0.764436
5814.54980 0.76435
5815.27002 0.764264
5816.00000 0.764178
5816.72021 0.764093
5817.45020 0.764007
5818.18018 0.763921
5818.89990 0.763836
5819.62988 0.763749
5820.35986 0.76366
5821.08008 0.763569
5821.81006 0.763476
5822.54004 0.763385
5823.25977 0.763293
5823.99023 0.763201
5824.72021 0.763109
5825.43994 0.763017
5826.16992 0.762923
5826.89990 0.762831
5827.62012 0.76274
5828.35010 0.762647
5829.08008 0.762555
5829.81006 0.762463
5830.54004 0.763291
5831.25977 0.764447
5831.99023 0.765605
5832.72021 0.766769
5833.45020 0.767928
5834.16992 0.769086
5834.89990 0.770252
5835.62988 0.771411
5836.35986 0.772572
5837.08984 0.773738
5837.81006 0.7749
5838.54004 0.776063
5839.27002 0.777232
5840.00000 0.778394
5840.72998 0.77982
5841.45996 0.781252
5842.18994 0.782679
5842.91992 0.784105
5843.64990 0.785541
5844.37988 0.786969
5845.10010 0.788397
5845.83984 0.789834
5846.56982 0.79127
5847.29980 0.792705
5848.02002 0.794129
5848.75977 0.795568
5849.49023 0.797
5850.22021 0.798111
5850.95020 0.798457
5851.68018 0.798802
5852.41016 0.799145
5853.14014 0.79949
5853.87012 0.799836
5854.60010 0.800179
5855.33008 0.800525
5856.06006 0.80087
5856.79004 0.801215
5857.52002 0.801562
5858.25977 0.801908
5858.97998 0.802251
5859.72021 0.802598
5860.45020 0.802384
5861.18018 0.801824
5861.91016 0.801258
5862.64014 0.800693
5863.37012 0.800128
5864.10986 0.799561
5864.83984 0.798994
5865.56982 0.798432
5866.29980 0.797863
5867.04004 0.797295
5867.77002 0.796732
5868.50000 0.796162
5869.22998 0.795596
5869.95996 0.795029
5870.70020 0.79437
5871.43018 0.793705
5872.16016 0.793047
5872.89990 0.792383
5873.62988 0.791719
5874.35986 0.791059
5875.08984 0.790393
5875.83008 0.789729
5876.56006 0.789066
5877.29004 0.7884
5878.02979 0.787733
5878.75977 0.787073
5879.49023 0.786406
5880.22998 0.786228
5880.95996 0.787115
5881.70020 0.788009
5882.43018 0.788899
5883.16016 0.789792
5883.89990 0.790686
5884.64014 0.791582
5885.37012 0.79248
5886.10986 0.793373
5886.83984 0.794265
5887.58008 0.795162
5888.31006 0.796055
5889.04004 0.79695
5889.77979 0.797849
5890.52002 0.79875
5891.25000 0.799655
5891.99023 0.800565
5892.72021 0.801472
5893.45996 0.802379
5894.18994 0.803291
5894.93018 0.804199
5895.66016 0.805106
5896.39990 0.806018
5897.14014 0.806929
5897.87012 0.807837
5898.60986 0.80875
5899.33984 0.80966
5900.08008 0.810485
5900.81982 0.810614
5901.54980 0.81074
5902.29004 0.810865
5903.02979 0.810992
5903.75977 0.811117
5904.50000 0.811244
5905.24023 0.811372
5905.97021 0.811498
5906.70996 0.811625
5907.45020 0.811751
5908.18994 0.811877
5908.91992 0.812004
5909.66016 0.812132
5910.39990 0.811799
5911.12988 0.811074
5911.87012 0.810349
5912.60986 0.809623
5913.35010 0.808898
5914.08984 0.808169
5914.81982 0.807443
5915.56006 0.806718
5916.29980 0.805987
5917.04004 0.805259
5917.77979 0.804535
5918.52002 0.803803
5919.25977 0.803074
5919.99023 0.802347
5920.72998 0.801912
5921.47021 0.801482
5922.20996 0.801052
5922.95020 0.800619
5923.68994 0.800186
5924.43018 0.799754
5925.16992 0.799323
5925.91016 0.798888
5926.64990 0.798453
5927.39014 0.798022
5928.12988 0.797588
5928.87012 0.797156
5929.60986 0.796723
5930.35010 0.79614
5931.08984 0.795395
5931.83008 0.794651
5932.56982 0.793902
5933.31006 0.793152
5934.04980 0.792408
5934.79004 0.79166
5935.52979 0.790913
5936.27002 0.790166
5937.02002 0.789418
5937.75977 0.788671
5938.49023 0.787922
5939.24023 0.78717
5939.97998 0.786419
5940.72021 0.78722
5941.45996 0.788069
5942.20020 0.788915
5942.93994 0.789759
5943.68994 0.790611
5944.43018 0.791458
5945.16992 0.792304
5945.91016 0.793157
5946.66016 0.794006
5947.39990 0.794851
5948.14014 0.795704
5948.87988 0.796552
5949.62012 0.797402
5950.37012 0.798684
5951.10986 0.8004
5951.85010 0.802119
5952.60010 0.803845
5953.33984 0.805572
5954.08008 0.807284
5954.81982 0.809013
5955.56982 0.810733
5956.31006 0.812454
5957.04980 0.814184
5957.79980 0.815909
5958.54004 0.817634
5959.27979 0.819365
5960.02979 0.821078
5960.77002 0.822302
5961.52002 0.823536
5962.25977 0.824765
5963.00000 0.825995
5963.75000 0.827236
5964.50000 0.828467
5965.24023 0.829704
5965.99023 0.830938
5966.72998 0.83217
5967.47998 0.833408
5968.22021 0.834642
5968.95996 0.835878
5969.70996 0.837118
5970.45020 0.837363
5971.20020 0.836978
5971.95020 0.836591
5972.68994 0.836205
5973.43994 0.83582
5974.18018 0.835434
5974.93018 0.835046
5975.66992 0.834661
5976.41992 0.834273
5977.16016 0.833887
5977.91016 0.833501
5978.66016 0.833113
5979.39990 0.832726
5980.14990 0.832254
5980.89990 0.83144
5981.64014 0.83063
5982.39014 0.82982
5983.14014 0.829004
5983.87988 0.82819
5984.62988 0.827375
5985.37988 0.826557
5986.12012 0.82574
5986.87012 0.824923
5987.62012 0.824102
5988.35986 0.823282
5989.10986 0.822461
5989.85986 0.821639
5990.60986 0.820215
5991.35010 0.818653
5992.10010 0.817084
5992.85010 0.81552
5993.60010 0.813955
5994.35010 0.812383
5995.08984 0.810818
5995.83984 0.809251
5996.58984 0.807677
5997.33984 0.806111
5998.08984 0.804542
5998.83984 0.802965
5999.58984 0.801395
6000.33008 0.800838
6001.08008 0.801545
6001.83008 0.80225
6002.58008 0.802955
6003.33008 0.803664
6004.08008 0.804372
6004.83008 0.805078
6005.58008 0.805783
6006.33008 0.806492
6007.08008 0.807201
6007.83008 0.807905
6008.58008 0.808616
6009.33008 0.809323
6010.08008 0.810079
6010.83008 0.811239
6011.58008 0.812395
6012.33008 0.813551
6013.08008 0.814713
6013.83008 0.815875
6014.58008 0.817028
6015.33008 0.818192
6016.08008 0.819352
6016.83008 0.820513
6017.58984 0.821678
6018.33984 0.822839
6019.08984 0.824
6019.83984 0.825166
6020.58984 0.827202
6021.33984 0.829457
6022.08984 0.831732
6022.83984 0.833998
6023.60010 0.836266
6024.35010 0.838544
6025.10010 0.840811
6025.85010 0.843081
6026.60010 0.845363
6027.35986 0.847645
6028.10986 0.849906
6028.85986 0.852189
6029.60986 0.854463
6030.35986 0.855991
6031.12012 0.856728
6031.87012 0.857461
6032.62012 0.858193
6033.37988 0.85893
6034.12988 0.859669
6034.87988 0.860398
6035.64014 0.861136
6036.39014 0.861872
6037.14014 0.862608
6037.89990 0.863345
6038.64990 0.86408
6039.39990 0.864817
6040.16016 0.865479
6040.91016 0.865836
6041.66016 0.866195
6042.41992 0.866556
6043.16992 0.866914
6043.93018 0.867275
6044.68994 0.867635
6045.43994 0.867995
6046.20020 0.868356
6046.95020 0.868714
6047.70020 0.869073
6048.45996 0.869434
6049.20996 0.869795
6049.97021 0.870153
6050.72998 0.870219
6051.47998 0.870271
6052.22998 0.870324
6052.99023 0.870375
6053.74023 0.870427
6054.50000 0.87048
6055.25977 0.870533
6056.00977 0.870584
6056.77002 0.870636
6057.52002 0.870688
6058.27979 0.87074
6059.02979 0.870791
6059.79004 0.870844
6060.54980 0.870301
6061.29980 0.869532
6062.06006 0.868759
6062.81982 0.867988
6063.56982 0.867219
6064.33008 0.866445
6065.08984 0.865674
6065.85010 0.864903
6066.60010 0.864128
6067.35986 0.863357
6068.12012 0.862585
6068.87988 0.861809
6069.62988 0.861036
6070.39014 0.86065
6071.14990 0.860632
6071.89990 0.860616
6072.66016 0.860598
6073.41992 0.860579
6074.18018 0.860561
6074.93994 0.860544
6075.70020 0.860526
6076.45020 0.860507
6077.20996 0.860488
6077.97021 0.860471
6078.72998 0.860454
6079.49023 0.860436
6080.25000 0.860559
6081.00977 0.860977
6081.75977 0.861394
6082.52002 0.861813
6083.27979 0.862231
6084.04004 0.86265
6084.79980 0.863068
6085.56006 0.863488
6086.31982 0.863907
6087.08008 0.864327
6087.83984 0.864744
6088.60010 0.865164
6089.35986 0.865584
6090.12012 0.8658
6090.87988 0.864946
6091.64014 0.864093
6092.39990 0.863235
6093.16016 0.86238
6093.91992 0.861527
6094.68018 0.860669
6095.43994 0.859813
6096.20020 0.858958
6096.97021 0.858098
6097.72998 0.857243
6098.49023 0.856385
6099.25000 0.855523
6100.00977 0.85465
6100.77002 0.852495
6101.52979 0.850329
6102.29004 0.848171
6103.06006 0.846012
6103.81982 0.843844
6104.58008 0.841684
6105.33984 0.839523
6106.10010 0.837351
6106.85986 0.835187
6107.62988 0.833023
6108.39014 0.83085
6109.14990 0.828683
6109.91016 0.826517
6110.68018 0.826164
6111.43994 0.826045
6112.20020 0.825926
6112.97021 0.825806
6113.72998 0.82569
6114.49023 0.825571
6115.25977 0.82545
6116.02002 0.825331
6116.77979 0.825213
6117.54980 0.825094
6118.31006 0.824975
6119.06982 0.824855
6119.83984 0.824736
6120.60010 0.82596
6121.35986 0.827554
6122.12988 0.829155
6122.89014 0.830748
6123.64990 0.832342
6124.41992 0.83395
6125.18994 0.835545
6125.95020 0.83715
6126.72021 0.838747
6127.47998 0.840345
6128.25000 0.84195
6129.00977 0.843551
6129.77979 0.84515
6130.54004 0.84712
6131.31006 0.849231
6132.06982 0.851343
6132.83984 0.853466
6133.60010 0.855579
6134.37012 0.857693
6135.14014 0.859816
6135.89990 0.861935
6136.66016 0.86405
6137.43018 0.866178
6138.20020 0.868296
6138.95996 0.870415
6139.72998 0.872543
6140.50000 0.874833
6141.25977 0.877212
6142.02979 0.879602
6142.79980 0.881984
6143.56006 0.884367
6144.33008 0.886761
6145.10010 0.889144
6145.85986 0.891528
6146.62988 0.893926
6147.39990 0.896314
6148.16016 0.898703
6148.93018 0.901104
6149.70020 0.903494
6150.47021 0.904802
6151.24023 0.905413
6152.00000 0.906021
6152.77002 0.906629
6153.54004 0.90724
6154.31006 0.907849
6155.06982 0.908459
6155.83984 0.909071
6156.60986 0.909681
6157.37988 0.910291
6158.14990 0.910905
6158.91992 0.911514
6159.68018 0.912125
6160.45020 0.91208
6161.22021 0.91158
6161.99023 0.911077
6162.75977 0.910575
6163.52979 0.910073
6164.29980 0.909572
6165.06982 0.909068
6165.83984 0.908562
6166.60986 0.90806
6167.37988 0.907556
6168.14990 0.907051
6168.91992 0.906547
6169.68994 0.906044
6170.45996 0.904706
6171.22998 0.902811
6172.00000 0.900918
6172.77002 0.899015
6173.54004 0.897119
6174.31006 0.895223
6175.08008 0.893316
6175.85010 0.891418
6176.62012 0.889517
6177.39990 0.887609
6178.16016 0.885707
6178.93994 0.883805
6179.70996 0.881893
6180.47998 0.881401
6181.25000 0.88177
6182.02002 0.882139
6182.79004 0.882508
6183.56006 0.882876
6184.33984 0.883246
6185.10986 0.883613
6185.87988 0.883983
6186.64990 0.884353
6187.41992 0.884721
6188.18994 0.885091
6188.97021 0.885462
6189.74023 0.885831
6190.50977 0.885937
6191.29004 0.885909
6192.06006 0.885881
6192.83008 0.885852
6193.60010 0.885824
6194.37988 0.885796
6195.14990 0.885767
6195.93018 0.885737
6196.70020 0.885709
6197.47021 0.885681
6198.24023 0.885653
6199.02002 0.885626
6199.79004 0.885595
6200.56982 0.886732
6201.33984 0.888296
6202.10986 0.88986
6202.89014 0.891432
6203.66016 0.892997
6204.43994 0.894563
6205.20996 0.896136
6205.99023 0.897711
6206.77002 0.899286
6207.54004 0.900854
6208.31006 0.902424
6209.08984 0.904
6209.85986 0.905571
6210.64014 0.906533
6211.41016 0.907367
6212.18994 0.908198
6212.95996 0.909029
6213.74023 0.909864
6214.52002 0.910697
6215.29004 0.911529
6216.06982 0.912365
6216.83984 0.913198
6217.62012 0.914031
6218.39990 0.914867
6219.16992 0.915701
6219.93994 0.916536
6220.72021 0.917373
6221.50000 0.918207
6222.27002 0.91904
6223.04980 0.919879
6223.83008 0.920713
6224.60010 0.921548
6225.37988 0.922386
6226.16016 0.923222
6226.93994 0.924056
6227.70996 0.924895
6228.49023 0.925732
6229.27002 0.926568
6230.04980 0.927338
6230.81982 0.926988
6231.60010 0.926636
6232.37988 0.926284
6233.16016 0.925934
6233.93018 0.925583
6234.70996 0.925231
6235.49023 0.92488
6236.27002 0.924529
6237.04980 0.924174
6237.81982 0.923823
6238.60010 0.923472
6239.37988 0.923119
6240.16016 0.922766
6240.93994 0.922407
6241.72021 0.922045
6242.50000 0.921685
6243.27979 0.921327
6244.06006 0.920967
6244.83984 0.920608
6245.60986 0.920247
6246.39990 0.919886
6247.16992 0.919527
6247.95996 0.919163
6248.72998 0.918804
6249.52002 0.918441
6250.29980 0.918669
6251.06982 0.919859
6251.85986 0.921058
6252.64014 0.922249
6253.41992 0.923441
6254.20020 0.924639
6254.97998 0.925831
6255.75977 0.927025
6256.54004 0.928224
6257.31982 0.929418
6258.10010 0.930613
6258.87988 0.931814
6259.66016 0.93301
6260.43994 0.933769
6261.22998 0.934199
6262.00977 0.934629
6262.79004 0.935056
6263.56982 0.935485
6264.35010 0.935914
6265.12988 0.936344
6265.91992 0.936775
6266.70020 0.937203
6267.47998 0.937633
6268.25977 0.938064
6269.04980 0.938493
6269.83008 0.938922
6270.60986 0.938869
6271.39014 0.938678
6272.16992 0.938487
6272.95996 0.938296
6273.74023 0.938104
6274.52002 0.937913
6275.31006 0.937721
6276.08984 0.93753
6276.87012 0.937337
6277.66016 0.937145
6278.43994 0.936952
6279.22021 0.936759
6280.00977 0.936565
6280.79004 0.936216
6281.56982 0.93587
6282.35986 0.935522
6283.14014 0.935172
6283.93018 0.934825
6284.70996 0.934474
6285.50000 0.934125
6286.27979 0.933777
6287.06982 0.933427
6287.85010 0.933077
6288.62988 0.932728
6289.43018 0.932375
6290.20996 0.931392
6291.00000 0.928652
6291.77979 0.925926
6292.56006 0.923198
6293.35010 0.920457
6294.14014 0.917724
6294.91992 0.914993
6295.70996 0.912248
6296.49023 0.909513
6297.27979 0.906776
6298.06982 0.904027
6298.85010 0.901288
6299.64014 0.898552
6300.41992 0.89602
6301.20996 0.893686
6301.99023 0.891348
6302.77979 0.889003
6303.56982 0.886666
6304.35010 0.884327
6305.14014 0.881977
6305.93018 0.879637
6306.72021 0.877295
6307.50977 0.874943
6308.29004 0.8726
6309.08008 0.870255
6309.87012 0.867901
6310.64990 0.866646
6311.43994 0.865611
6312.22998 0.864571
6313.02002 0.863535
6313.79980 0.862498
6314.58984 0.861458
6315.37988 0.860422
6316.16992 0.859385
6316.95996 0.858341
6317.75000 0.857304
6318.52979 0.856265
6319.31982 0.855221
6320.10986 0.854521
6320.89990 0.855872
6321.68994 0.85723
6322.47998 0.858583
6323.27002 0.859935
6324.06006 0.861294
6324.85010 0.86265
6325.62988 0.864006
6326.43018 0.865366
6327.20996 0.866721
6328.00000 0.86808
6328.79980 0.869441
6329.58008 0.870798
6330.37012 0.873287
6331.16016 0.877058
6331.95996 0.880832
6332.75000 0.884588
6333.54004 0.888347
6334.33008 0.892125
6335.12012 0.895889
6335.91016 0.899652
6336.70020 0.903435
6337.49023 0.907201
6338.27979 0.910971
6339.06982 0.914758
6339.85986 0.918529
6340.64990 0.920251
6341.45020 0.921553
6342.24023 0.922851
6343.02979 0.924148
6343.81982 0.92545
6344.60986 0.926749
6345.39990 0.928048
6346.20020 0.929354
6346.99023 0.930655
6347.77979 0.931955
6348.56982 0.933261
6349.35986 0.934562
6350.16016 0.936027
6350.95020 0.938153
6351.74023 0.940272
6352.52979 0.942392
6353.33008 0.944521
6354.12012 0.946642
6354.91016 0.948764
6355.70996 0.950895
6356.50000 0.953019
6357.29004 0.955144
6358.08984 0.957278
6358.87988 0.959403
6359.66992 0.96153
6360.47021 0.96248
6361.25977 0.962605
6362.06006 0.962732
6362.85010 0.962858
6363.64990 0.962983
6364.43994 0.963108
6365.22998 0.963234
6366.02979 0.96336
6366.81982 0.963486
6367.62012 0.963612
6368.41016 0.963736
6369.20996 0.963861
6370.00000 0.963984
6370.79980 0.962704
6371.58984 0.961425
6372.39014 0.960138
6373.18994 0.958853
6373.97998 0.957568
6374.77979 0.956283
6375.56982 0.955
6376.37012 0.953711
6377.16016 0.952429
6377.95996 0.951144
6378.75977 0.949854
6379.54980 0.948574
6380.35010 0.948266
6381.14990 0.94923
6381.93994 0.950189
6382.74023 0.951148
6383.54004 0.952114
6384.33008 0.953075
6385.12988 0.954035
6385.93018 0.954998
6386.72021 0.955956
6387.52002 0.956922
6388.31982 0.957889
6389.10986 0.958851
6389.91016 0.959815
6390.70996 0.960566
6391.50977 0.961289
6392.29980 0.962012
6393.10010 0.962736
6393.89990 0.963458
6394.70020 0.964183
6395.50000 0.96491
6396.29980 0.965634
6397.08984 0.966358
6397.89014 0.967084
6398.68994 0.967809
6399.49023 0.968534
6400.29004 0.96893
6401.08008 0.968737
6401.87988 0.96854
6402.68994 0.968346
6403.47998 0.968151
6404.27979 0.967956
6405.08008 0.967761
6405.87988 0.967566
6406.68018 0.967371
6407.47998 0.967175
6408.27979 0.966981
6409.08008 0.966785
6409.87988 0.966587
6410.68018 0.966584
6411.47998 0.966614
6412.27979 0.966643
6413.08008 0.966672
6413.87988 0.966702
6414.68018 0.966732
6415.47998 0.966762
6416.27979 0.966792
6417.08008 0.966821
6417.89014 0.96685
6418.68994 0.966881
6419.49023 0.966911
6420.29004 0.966391
6421.08984 0.964908
6421.89014 0.963427
6422.68994 0.961936
6423.50000 0.960453
6424.29980 0.958969
6425.10010 0.957477
6425.89990 0.955993
6426.70020 0.954505
6427.50977 0.953012
6428.31006 0.951525
6429.10986 0.950036
6429.91016 0.948542
6430.72021 0.947652
6431.52002 0.946832
6432.31982 0.946008
6433.12012 0.945189
6433.93018 0.944368
6434.72998 0.943543
6435.52979 0.942723
6436.33008 0.941901
6437.14014 0.941076
6437.93994 0.940256
6438.74023 0.939432
6439.54980 0.938605
6440.35010 0.93823
6441.14990 0.938424
6441.95996 0.938619
6442.77002 0.938814
6443.56982 0.939008
6444.37012 0.939203
6445.18018 0.939398
6445.97998 0.939592
6446.79004 0.939789
6447.58984 0.939983
6448.39014 0.940177
6449.20020 0.940374
6450.00977 0.940569
6450.81006 0.940794
6451.62012 0.941023
6452.41992 0.94125
6453.22998 0.941477
6454.02979 0.941706
6454.83984 0.941932
6455.64014 0.942159
6456.45020 0.942388
6457.25000 0.942615
6458.06982 0.942845
6458.87012 0.943072
6459.68018 0.943301
6460.47998 0.944542
6461.29004 0.946453
6462.10010 0.948368
6462.89990 0.950287
6463.70996 0.952201
6464.52002 0.954115
6465.31982 0.956039
6466.12988 0.957945
6466.93994 0.959868
6467.74023 0.961795
6468.54980 0.963713
6469.35986 0.96563
6470.16992 0.967417
6470.97021 0.96867
6471.77979 0.969921
6472.58984 0.971177
6473.39014 0.972423
6474.20020 0.973681
6475.00977 0.974939
6475.81982 0.976191
6476.62988 0.977445
6477.43994 0.978706
6478.25000 0.979961
6479.04980 0.981213
6479.85986 0.982476
6480.66992 0.981789
6481.47998 0.980695
6482.29004 0.979601
6483.10010 0.978512
6483.91016 0.977422
6484.72021 0.976326
6485.52979 0.975235
6486.33008 0.974144
6487.14990 0.973047
6487.95020 0.971959
6488.75977 0.970861
6489.56982 0.969764
6490.37988 0.968171
6491.18994 0.966024
6492.00977 0.963869
6492.81006 0.961722
6493.62012 0.959571
6494.43994 0.957414
6495.24023 0.955273
6496.06006 0.953113
6496.87012 0.950953
6497.68018 0.948811
6498.49023 0.946647
6499.29980 0.944482
6500.10986 0.94221
6500.91992 0.939197
6501.72998 0.936165
6502.54980 0.933132
6503.35986 0.930114
6504.16992 0.927093
6504.97998 0.924057
6505.79980 0.921035
6506.60986 0.91801
6507.41992 0.914971
6508.22998 0.911946
6509.04004 0.908918
6509.85986 0.905877
6510.66992 0.904572
6511.47998 0.903635
6512.29980 0.902695
6513.10986 0.90176
6513.91992 0.900822
6514.72998 0.899879
6515.54980 0.898942
6516.35986 0.898005
6517.16992 0.89706
6517.97998 0.89612
6518.79980 0.895182
6519.60986 0.894239
6520.43018 0.894032
6521.24023 0.894489
6522.06006 0.89495
6522.87012 0.895406
6523.68018 0.895865
6524.50000 0.896325
6525.31006 0.896783
6526.12012 0.897241
6526.93994 0.8977
6527.75000 0.898161
6528.56982 0.89862
6529.39014 0.899081
6530.20020 0.899645
6531.00977 0.900539
6531.83008 0.901434
6532.64014 0.902326
6533.45996 0.90322
6534.27979 0.904117
6535.08984 0.90501
6535.89990 0.905904
6536.72021 0.906803
6537.54004 0.907697
6538.35010 0.908591
6539.16992 0.909491
6539.97998 0.910385
6540.79980 0.913814
6541.62012 0.917304
6542.43994 0.920778
6543.25000 0.924256
6544.06982 0.927749
6544.89014 0.931243
6545.70996 0.93474
6546.52002 0.938206
6547.33984 0.941704
6548.16016 0.945205
6548.97021 0.948676
6549.79004 0.95218
6550.60986 0.953957
6551.43018 0.955138
6552.24023 0.95632
6553.06006 0.957508
6553.87988 0.958683
6554.70020 0.95987
6555.52002 0.961059
6556.33008 0.962239
6557.14990 0.963428
6557.97021 0.964618
6558.79004 0.965802
6559.60986 0.966988
6560.43018 0.967663
6561.24023 0.967862
6562.06006 0.968064
6562.89014 0.968265
6563.70020 0.968465
6564.52002 0.968666
6565.33984 0.968867
6566.16016 0.969068
6566.97998 0.969269
6567.79980 0.969471
6568.62012 0.969671
6569.43994 0.969874
6570.25977 0.969822
6571.08008 0.969226
6571.89990 0.968627
6572.72021 0.968026
6573.54004 0.967427
6574.35986 0.96683
6575.18018 0.96623
6576.00000 0.965634
6576.81982 0.965032
6577.64990 0.96443
6578.45996 0.963834
6579.27979 0.963231
6580.10986 0.962875
6580.93018 0.96415
6581.75000 0.965425
6582.56982 0.966705
6583.39014 0.967974
6584.20996 0.969257
6585.04004 0.97054
6585.85010 0.971809
6586.68018 0.973092
6587.50000 0.974377
6588.33008 0.975662
6589.14990 0.976939
6589.97021 0.978218
6590.79004 0.977766
6591.62012 0.977253
6592.43994 0.976739
6593.25977 0.976221
6594.08008 0.975705
6594.91016 0.975191
6595.72998 0.974672
6596.54980 0.974158
6597.37988 0.973642
6598.20020 0.973123
6599.02002 0.972607
6599.85010 0.97209
6600.66992 0.973571
6601.49023 0.975505
6602.31982 0.97744
6603.14014 0.979382
6603.97021 0.981318
6604.79004 0.98325
6605.62012 0.985193
6606.43994 0.987129
6607.25977 0.989066
6608.08984 0.99101
6608.91016 0.992946
6609.74023 0.994883
6610.56006 0.995562
6611.39014 0.995653
6612.20996 0.995746
6613.04004 0.99584
6613.85986 0.99593
6614.68994 0.996023
6615.52002 0.996116
6616.33984 0.996208
6617.16992 0.996299
6617.99023 0.996393
6618.81982 0.996484
6619.64014 0.996576
6620.47021 0.996439
6621.29980 0.99613
6622.12012 0.995823
6622.95020 0.995512
6623.77979 0.995203
6624.60010 0.994896
6625.43018 0.994586
6626.25977 0.994277
6627.08008 0.993966
6627.91016 0.993656
6628.74023 0.993348
6629.56006 0.993039
6630.39990 0.993028
6631.22021 0.993347
6632.06006 0.993667
6632.87988 0.993985
6633.70996 0.994303
6634.54004 0.994622
6635.35986 0.99494
6636.18994 0.995259
6637.02002 0.995578
6637.85010 0.995894
6638.68018 0.996213
6639.50977 0.996532
6640.33008 0.995913
6641.16016 0.993891
6641.99023 0.991869
6642.81982 0.989854
6643.64990 0.987838
6644.47998 0.985813
6645.31006 0.983804
6646.14014 0.981779
6646.97021 0.979751
6647.79980 0.977744
6648.62988 0.975716
6649.45996 0.973686
6650.29004 0.972452
6651.12012 0.972695
6651.95020 0.972939
6652.77002 0.973181
6653.60986 0.973424
6654.43994 0.973668
6655.27002 0.973909
6656.10010 0.974153
6656.93018 0.974395
6657.75977 0.974638
6658.58984 0.974881
6659.43018 0.975125
6660.25000 0.975413
6661.08984 0.975806
6661.91992 0.976199
6662.75000 0.976589
6663.58008 0.976984
6664.41016 0.977377
6665.24023 0.977769
6666.06982 0.978162
6666.91016 0.978557
6667.74023 0.978947
6668.56982 0.979341
6669.41016 0.979735
6670.22998 0.980369
6671.06982 0.981635
6671.89990 0.982902
6672.72998 0.984161
6673.56982 0.985422
6674.39990 0.986689
6675.22998 0.987945
6676.06982 0.989217
6676.89990 0.99048
6677.74023 0.991746
6678.56982 0.99301
6679.39990 0.994274
6680.24023 0.995304
6681.06982 0.99573
6681.89990 0.996155
6682.74023 0.996585
6683.56982 0.997011
6684.39990 0.997438
6685.24023 0.997867
6686.06982 0.998292
6686.91016 0.998719
6687.74023 0.999148
6688.58008 0.999573
6689.41016 1.0
6690.25000 0.999876
6691.08008 0.998452
6691.91992 0.997029
6692.75977 0.995598
6693.58984 0.994175
6694.41992 0.992749
6695.25977 0.991316
6696.10010 0.98989
6696.93018 0.988467
6697.77002 0.987035
6698.60010 0.985607
6699.43994 0.984179
6700.27979 0.983085
6701.10986 0.982679
6701.95020 0.982273
6702.79004 0.981864
6703.62012 0.98146
6704.45996 0.981053
6705.29980 0.980645
6706.12988 0.980238
6706.97021 0.979832
6707.81006 0.979422
6708.64014 0.979016
6709.47998 0.978609
6710.31982 0.977672
6711.14990 0.975877
6711.99023 0.974079
6712.83008 0.972277
6713.66992 0.970478
6714.50000 0.968681
6715.35010 0.966876
6716.18018 0.965079
6717.02002 0.963282
6717.85986 0.961475
6718.70020 0.959677
6719.52979 0.957877
6720.37988 0.957145
6721.22021 0.957751
6722.06006 0.958356
6722.89014 0.958958
6723.72998 0.959564
6724.56982 0.960171
6725.41016 0.960774
6726.25000 0.961378
6727.08984 0.961984
6727.93018 0.962586
6728.77002 0.963193
6729.60986 0.963799
6730.45020 0.9643
6731.29004 0.964718
6732.12988 0.965135
6732.97021 0.965552
6733.81006 0.965965
6734.64990 0.966382
6735.49023 0.966796
6736.33008 0.967214
6737.18018 0.96763
6738.00977 0.968043
6738.85010 0.968462
6739.70020 0.968881
6740.54004 0.969658
6741.37988 0.970638
6742.22021 0.971622
6743.06006 0.972598
6743.89990 0.973583
6744.75000 0.97457
6745.58008 0.975546
6746.43018 0.976532
6747.27002 0.977518
6748.10986 0.9785
6748.95020 0.979482
6749.79980 0.980467
6750.64014 0.981649
6751.47998 0.982909
6752.33008 0.984169
6753.16016 0.985416
6754.00977 0.986674
6754.85010 0.987933
6755.70020 0.989186
6756.54004 0.990442
6757.39014 0.991702
6758.22021 0.99295
6759.06982 0.99421
6759.91992 0.99547
6760.75000 0.995217
6761.60010 0.994793
6762.45020 0.994369
6763.29004 0.993945
6764.12988 0.99352
6764.97998 0.993096
6765.83008 0.99267
6766.66992 0.992247
6767.50977 0.991824
6768.35986 0.991399
6769.20020 0.990974
6770.04980 0.990529
6770.89990 0.989737
6771.74023 0.988948
6772.58008 0.988159
6773.43018 0.987366
6774.27002 0.986577
6775.12012 0.985787
6775.97021 0.984994
6776.81006 0.984204
6777.64990 0.983413
6778.50000 0.982619
6779.35010 0.981829
6780.18994 0.981166
6781.04004 0.980934
6781.89014 0.980701
6782.72998 0.98047
6783.58008 0.980238
6784.43018 0.980004
6785.27002 0.979772
6786.12012 0.97954
6786.97021 0.979306
6787.81006 0.979074
6788.66016 0.97884
6789.50977 0.978608
6790.35010 0.978296
6791.20020 0.977868
6792.04980 0.977444
6792.89990 0.977018
6793.75000 0.976592
6794.60010 0.976167
6795.43994 0.975742
6796.29004 0.975314
6797.14014 0.97489
6797.99023 0.974465
6798.83984 0.974036
6799.68994 0.97361
6800.52979 0.974209
6801.37988 0.975421
6802.22998 0.976627
6803.08008 0.977833
6803.93018 0.979044
6804.77979 0.980249
6805.62988 0.981456
6806.47998 0.982668
6807.33008 0.983875
6808.18018 0.985081
6809.02979 0.986293
6809.87988 0.987499
6810.72998 0.986382
6811.58008 0.984889
6812.43018 0.983381
6813.27979 0.981874
6814.12988 0.980381
6814.97998 0.978873
6815.83008 0.977365
6816.68018 0.97587
6817.52979 0.974362
6818.39014 0.972854
6819.22998 0.971358
6820.08984 0.969961
6820.93994 0.969569
6821.79004 0.969182
6822.64014 0.968789
6823.49023 0.968396
6824.33984 0.968008
6825.18994 0.967617
6826.04980 0.967225
6826.89990 0.966836
6827.75000 0.966444
6828.60010 0.966054
6829.45020 0.965665
6830.31006 0.965074
6831.16016 0.96413
6832.00977 0.963192
6832.85986 0.962247
6833.72021 0.961302
6834.56982 0.960367
6835.41992 0.959421
6836.27979 0.958475
6837.12988 0.957538
6837.97998 0.956592
6838.83984 0.955646
6839.68994 0.954708
6840.54004 0.953763
6841.39990 0.952816
6842.25000 0.951877
6843.10010 0.950929
6843.95996 0.949984
6844.81006 0.949043
6845.66992 0.948097
6846.52002 0.94715
6847.37988 0.94621
6848.22998 0.945261
6849.08984 0.944312
6849.93994 0.943372
6850.79980 0.943822
6851.64990 0.944378
6852.50000 0.944929
6853.35986 0.945486
6854.22021 0.946043
6855.06982 0.946593
6855.93018 0.947151
6856.79004 0.947708
6857.64990 0.948263
6858.50000 0.948818
6859.35010 0.949372
6860.20996 0.949715
6861.06982 0.949417
6861.91992 0.949121
6862.77979 0.948821
6863.64014 0.948523
6864.49023 0.948224
6865.35010 0.947925
6866.20996 0.947627
6867.06006 0.947329
6867.91992 0.947031
6868.77979 0.946732
6869.62988 0.946432
6870.49023 0.946526
6871.35010 0.946908
6872.20996 0.947289
6873.06982 0.947673
6873.91992 0.948058
6874.77979 0.94844
6875.64014 0.948824
6876.50000 0.949206
6877.35010 0.949589
6878.22021 0.949974
6879.06982 0.950355
6879.93018 0.950737
6880.79004 0.950321
6881.64990 0.949837
6882.50977 0.949353
6883.37012 0.948866
6884.22998 0.94838
6885.08008 0.947894
6885.93994 0.947409
6886.79980 0.946923
6887.66016 0.946437
6888.52002 0.94595
6889.37988 0.945464
6890.24023 0.944815
6891.10010 0.943746
6891.95996 0.942681
6892.81982 0.941615
6893.68018 0.940546
6894.54004 0.939481
6895.39990 0.938415
6896.27002 0.937344
6897.12012 0.936278
6897.97998 0.935213
6898.85010 0.934143
6899.70996 0.933077
6900.56982 0.932273
6901.43018 0.931602
6902.29980 0.93093
6903.16016 0.930258
6904.02002 0.929593
6904.87988 0.928922
6905.74023 0.928249
6906.60010 0.927583
6907.47021 0.926911
6908.33008 0.926239
6909.18994 0.925572
6910.04980 0.92494
6910.91992 0.924938
6911.77002 0.924932
6912.64014 0.924928
6913.50977 0.924924
6914.35986 0.924919
6915.22998 0.924915
6916.08984 0.92491
6916.95020 0.924907
6917.81982 0.924901
6918.68994 0.924896
6919.54004 0.924892
6920.41016 0.925387
6921.27002 0.926438
6922.12988 0.927479
6923.00000 0.92853
6923.87012 0.92958
6924.72998 0.930622
6925.58984 0.931673
6926.45996 0.932724
6927.31982 0.933766
6928.18994 0.934818
6929.04980 0.935868
6929.91016 0.93691
6930.77979 0.937083
6931.64990 0.937157
6932.50977 0.93723
6933.37988 0.937303
6934.24023 0.937378
6935.10010 0.937452
6935.97021 0.937526
6936.83984 0.937601
6937.70020 0.937673
6938.56982 0.937746
6939.43994 0.93782
6940.29980 0.937567
6941.16992 0.936689
6942.04004 0.93581
6942.89990 0.93494
6943.77002 0.934063
6944.64014 0.933184
6945.50000 0.932312
6946.37012 0.931433
6947.24023 0.930554
6948.10986 0.929677
6948.97021 0.9288
6949.83984 0.927924
6950.70996 0.926423
6951.56982 0.924789
6952.43994 0.923155
6953.31006 0.921513
6954.18018 0.919878
6955.04980 0.918243
6955.91992 0.9166
6956.77979 0.914965
6957.64990 0.913329
6958.52002 0.911685
6959.39014 0.910049
6960.25977 0.90822
6961.12988 0.905914
6961.99023 0.903618
6962.85986 0.901322
6963.72998 0.899014
6964.60010 0.896717
6965.47021 0.894419
6966.33984 0.892112
6967.20996 0.889814
6968.08008 0.887516
6968.95020 0.885209
6969.81982 0.88291
6970.68994 0.880512
6971.56006 0.878076
6972.43018 0.875651
6973.29980 0.873224
6974.16992 0.870788
6975.04004 0.868361
6975.91016 0.865937
6976.77979 0.8635
6977.64990 0.861074
6978.52002 0.858647
6979.39014 0.856208
6980.25977 0.853435
6981.12988 0.84986
6982.00977 0.846269
6982.87988 0.842694
6983.75000 0.839117
6984.62012 0.835526
6985.49023 0.831949
6986.35986 0.828371
6987.24023 0.824779
6988.10986 0.821202
6988.97998 0.817626
6989.85010 0.814033
6990.72998 0.808888
6991.60010 0.803423
6992.47021 0.797938
6993.33984 0.792473
6994.22021 0.786961
6995.08984 0.781518
6995.97021 0.776028
6996.83984 0.770536
6997.70996 0.76509
6998.58984 0.759596
6999.45996 0.754099
7000.33008 0.746542
7001.20996 0.735436
7002.08008 0.724333
7002.95020 0.713331
7003.83008 0.702233
7004.70020 0.69113
7005.56982 0.680128
7006.45020 0.669031
7007.33008 0.657934
7008.20020 0.646939
7009.06982 0.635841
7009.95020 0.624746
7010.81982 0.610413
7011.70020 0.595757
7012.58008 0.581095
7013.45020 0.566565
7014.31982 0.551908
7015.20020 0.537252
7016.06982 0.522722
7016.95020 0.508072
7017.83008 0.493414
7018.70020 0.478889
7019.58008 0.464229
7020.45996 0.451046
7021.33008 0.439307
7022.20996 0.427465
7023.08984 0.415623
7023.95996 0.403883
7024.83984 0.392039
7025.72021 0.380197
7026.58984 0.368461
7027.47021 0.356622
7028.35010 0.344778
7029.22021 0.333041
7030.10010 0.321607
7030.97998 0.313345
7031.85010 0.305153
7032.72998 0.296893
7033.60986 0.288631
7034.47998 0.280443
7035.37012 0.272179
7036.25000 0.263921
7037.12012 0.255734
7038.00000 0.247474
7038.87988 0.239212
7039.75977 0.231029
7040.64014 0.22485
7041.52002 0.21953
7042.39990 0.214187
7043.27979 0.208868
7044.14990 0.203547
7045.04004 0.198203
7045.91016 0.192883
7046.79004 0.187564
7047.66992 0.182218
7048.54980 0.176898
7049.43018 0.171577
7050.31006 0.166405
7051.18994 0.161565
7052.06982 0.156724
7052.95020 0.151861
7053.83008 0.147021
7054.70996 0.142179
7055.60010 0.137319
7056.47021 0.132478
7057.35010 0.127638
7058.24023 0.122778
7059.12012 0.117937
7060.00000 0.1131
7060.87988 0.108754
7061.75977 0.104428
7062.64014 0.100105
7063.52002 0.0957626
7064.39990 0.0914378
7065.27979 0.0871136
7066.16992 0.0827682
7067.04980 0.078445
7067.93018 0.0741199
7068.81006 0.0697762
7069.70020 0.0654521
7070.58008 0.0621903
7071.45996 0.0594741
7072.33984 0.0567706
7073.22998 0.0540677
7074.10986 0.0513534
7074.99023 0.0486501
7075.87012 0.0459475
7076.75977 0.0432336
7077.64014 0.0405321
7078.52002 0.0378313
7079.41016 0.0351176
7080.29004 0.0328361
7081.16992 0.0314032
7082.06006 0.0299641
7082.93994 0.0285308
7083.83008 0.0270977
7084.70996 0.0256584
7085.60010 0.0242257
7086.47998 0.0227932
7087.37012 0.0213537
7088.25000 0.0199144
7089.14014 0.0184753
7090.02002 0.0170651
7090.91016 0.0163711
7091.79980 0.0156769
7092.68018 0.0149889
7093.56006 0.014295
7094.45020 0.0136007
7095.33008 0.0129127
7096.22021 0.0122187
7097.10986 0.0115247
7097.99023 0.0108371
7098.87988 0.010143
7099.77002 0.00944898
7100.64990 0.00903185
7101.52979 0.00871034
7102.41992 0.00838871
7103.31006 0.00807011
7104.18994 0.00774857
7105.08008 0.00742692
7105.97021 0.00710831
7106.85010 0.00678676
7107.74023 0.00646525
7108.62988 0.00614664
7109.52002 0.00582525
7110.41016 0.00557558
7111.29004 0.00541313
7112.18018 0.00524928
7113.06982 0.00508546
7113.95020 0.0049231
7114.83984 0.00475923
7115.72998 0.00459539
7116.60986 0.00443302
7117.50977 0.00426915
7118.39990 0.0041054
7119.27979 0.00394302
7831.20801 0.0
