# %ECSV 0.9
# ---
# datatype:
# - {name: wavelength, unit: Angstrom, datatype: float32}
# - {name: response, datatype: float32}
# meta: !!omap
# - {band_name: F095N}
# - {group_name: NICMOS1}
wavelength response
8493.99414 0.0
9437.77148 0.000401
9437.87109 0.000407
9437.97070 0.000414
9438.07031 0.000417
9438.16992 0.000418
9438.26953 0.00042
9438.36914 0.000421
9438.46875 0.000423
9438.56836 0.000424
9438.66797 0.000426
9438.76758 0.000427
9438.86719 0.000429
9438.96680 0.00043
9439.06641 0.000432
9439.16602 0.000433
9439.26660 0.000435
9439.36621 0.000436
9439.46582 0.000438
9439.56543 0.000439
9439.66504 0.000441
9439.76465 0.000442
9439.86426 0.000443
9439.96387 0.000445
9440.06348 0.000444
9440.16309 0.000442
9440.26270 0.000439
9440.36230 0.000437
9440.46191 0.000434
9440.56152 0.000432
9440.66211 0.00043
9440.76172 0.000427
9440.86133 0.000425
9440.96094 0.000422
9441.06055 0.00042
9441.16016 0.000418
9441.25977 0.000415
9441.35938 0.000413
9441.45898 0.00041
9441.55859 0.000408
9441.65820 0.000406
9441.75879 0.000403
9441.85840 0.000401
9441.95801 0.000398
9442.05762 0.000396
9442.15723 0.000393
9442.25684 0.00039
9442.35645 0.000387
9442.45605 0.000384
9442.55566 0.00038
9442.65527 0.000377
9442.75488 0.000374
9442.85547 0.000371
9442.95508 0.000368
9443.05469 0.000365
9443.15430 0.000362
9443.25391 0.000359
9443.35352 0.000356
9443.45312 0.000353
9443.55273 0.00035
9443.65234 0.000347
9443.75293 0.000344
9443.85254 0.000341
9443.95215 0.000338
9444.05176 0.000339
9444.15137 0.000344
9444.25098 0.000348
9444.35059 0.000353
9444.45020 0.000358
9444.55078 0.000363
9444.65039 0.000368
9444.75000 0.000373
9444.84961 0.000378
9444.94922 0.000382
9445.04883 0.000387
9445.14844 0.000392
9445.24805 0.000397
9445.34863 0.000402
9445.44824 0.000407
9445.54785 0.000412
9445.64746 0.000416
9445.74707 0.000421
9445.84668 0.000426
9445.94629 0.000431
9446.04590 0.000437
9446.14648 0.000445
9446.24609 0.000452
9446.34570 0.00046
9446.44531 0.000467
9446.54492 0.000475
9446.64453 0.000482
9446.74414 0.00049
9446.84473 0.000497
9446.94434 0.000505
9447.04395 0.000512
9447.14355 0.00052
9447.24316 0.000527
9447.34277 0.000535
9447.44238 0.000542
9447.54297 0.00055
9447.64258 0.000557
9447.74219 0.000565
9447.84180 0.000572
9447.94141 0.00058
9448.04102 0.000587
9448.14160 0.000594
9448.24121 0.000601
9448.34082 0.000608
9448.44043 0.000615
9448.54004 0.000622
9448.63965 0.000629
9448.74023 0.000636
9448.83984 0.000643
9448.93945 0.000649
9449.03906 0.000656
9449.13867 0.000663
9449.23828 0.00067
9449.33887 0.000677
9449.43848 0.000684
9449.53809 0.000691
9449.63770 0.000698
9449.73730 0.000705
9449.83691 0.000712
9449.93848 0.000719
9450.03711 0.000721
9450.13672 0.000717
9450.23633 0.000713
9450.33594 0.000709
9450.43652 0.000705
9450.53613 0.0007
9450.63574 0.000696
9450.73535 0.000692
9450.83496 0.000688
9450.93555 0.000684
9451.03516 0.000679
9451.13477 0.000675
9451.23438 0.000671
9451.33398 0.000667
9451.43359 0.000663
9451.53418 0.000658
9451.63379 0.000654
9451.73340 0.00065
9451.83301 0.000646
9451.93262 0.000642
9452.03320 0.000646
9452.13281 0.000669
9452.23242 0.000691
9452.33203 0.000714
9452.43164 0.000736
9452.53223 0.000759
9452.63184 0.000782
9452.73145 0.000804
9452.83105 0.000827
9452.93164 0.000849
9453.03125 0.000872
9453.13086 0.000894
9453.23047 0.000917
9453.33008 0.000939
9453.43066 0.000962
9453.53027 0.000985
9453.62988 0.001007
9453.72852 0.00103
9453.82910 0.001052
9453.92969 0.001075
9454.02930 0.001093
9454.12891 0.0011
9454.22852 0.001108
9454.32910 0.001115
9454.42871 0.001123
9454.52832 0.00113
9454.62793 0.001138
9454.72852 0.001145
9454.82812 0.001153
9454.92773 0.00116
9455.02734 0.001168
9455.12695 0.001175
9455.22754 0.001183
9455.32715 0.001191
9455.42676 0.001198
9455.52637 0.001206
9455.62695 0.001213
9455.72656 0.001221
9455.82617 0.001228
9455.92578 0.001236
9456.02637 0.001241
9456.12598 0.00124
9456.22559 0.001239
9456.32520 0.001238
9456.42578 0.001237
9456.52539 0.001236
9456.62500 0.001235
9456.72461 0.001234
9456.82520 0.001233
9456.92480 0.001232
9457.02441 0.001231
9457.12402 0.00123
9457.22461 0.001229
9457.32422 0.001228
9457.42383 0.001228
9457.52344 0.001227
9457.62402 0.001226
9457.72363 0.001225
9457.82324 0.001224
9457.92383 0.001223
9458.02344 0.001224
9458.12305 0.001235
9458.22266 0.001245
9458.32324 0.001256
9458.42285 0.001266
9458.52246 0.001277
9458.62207 0.001287
9458.72266 0.001297
9458.82227 0.001308
9458.92188 0.001318
9459.02246 0.001329
9459.12207 0.001339
9459.22168 0.00135
9459.32129 0.00136
9459.42188 0.001371
9459.52148 0.001381
9459.62109 0.001391
9459.72070 0.001402
9459.82129 0.001412
9459.92090 0.001423
9460.02148 0.001435
9460.12109 0.001453
9460.22070 0.001471
9460.32031 0.00149
9460.42090 0.001508
9460.52148 0.001526
9460.62012 0.001545
9460.71973 0.001563
9460.82031 0.001581
9460.91992 0.001599
9461.01953 0.001618
9461.12012 0.001636
9461.21973 0.001654
9461.31934 0.001673
9461.41895 0.001691
9461.51953 0.001709
9461.61914 0.001728
9461.71875 0.001746
9461.81934 0.001764
9461.91895 0.001783
9462.01855 0.001801
9462.11914 0.00182
9462.21875 0.001838
9462.31836 0.001857
9462.41895 0.001876
9462.51855 0.001895
9462.61816 0.001913
9462.71875 0.001932
9462.81836 0.001951
9462.91797 0.00197
9463.01855 0.001988
9463.11816 0.002007
9463.21777 0.002026
9463.31738 0.002044
9463.41797 0.002063
9463.51758 0.002082
9463.61719 0.002101
9463.71777 0.002119
9463.81738 0.002138
9463.91699 0.002157
9464.01758 0.002176
9464.11719 0.002196
9464.21680 0.002216
9464.31738 0.002236
9464.41699 0.002256
9464.51660 0.002276
9464.61719 0.002296
9464.71680 0.002315
9464.81641 0.002335
9464.91699 0.002355
9465.01660 0.002375
9465.11621 0.002395
9465.21680 0.002415
9465.31641 0.002435
9465.41699 0.002455
9465.51660 0.002475
9465.61621 0.002495
9465.71680 0.002515
9465.81641 0.002535
9465.91602 0.002555
9466.01660 0.002575
9466.11621 0.002595
9466.21582 0.002615
9466.31641 0.002635
9466.41602 0.002655
9466.51562 0.002675
9466.61621 0.002695
9466.71582 0.002715
9466.81543 0.002735
9466.91602 0.002755
9467.01562 0.002775
9467.11621 0.002795
9467.21582 0.002815
9467.31543 0.002835
9467.41602 0.002855
9467.51562 0.002875
9467.61523 0.002895
9467.71582 0.002915
9467.81543 0.002935
9467.91602 0.002955
9468.01562 0.002979
9468.11523 0.003021
9468.21582 0.003063
9468.31543 0.003106
9468.41504 0.003148
9468.51562 0.003191
9468.61523 0.003233
9468.71582 0.003275
9468.81543 0.003318
9468.91504 0.00336
9469.01562 0.003403
9469.11523 0.003445
9469.21582 0.003487
9469.31543 0.00353
9469.41504 0.003572
9469.51562 0.003615
9469.61523 0.003657
9469.71484 0.003699
9469.81543 0.003742
9469.91504 0.003784
9470.01562 0.003825
9470.11523 0.003859
9470.21484 0.003893
9470.31543 0.003927
9470.41504 0.003961
9470.51562 0.003995
9470.61523 0.004029
9470.71484 0.004062
9470.81543 0.004096
9470.91504 0.00413
9471.01562 0.004164
9471.11523 0.004198
9471.21484 0.004232
9471.31543 0.004266
9471.41504 0.0043
9471.51562 0.004334
9471.61523 0.004368
9471.71582 0.004402
9471.81543 0.004436
9471.91504 0.00447
9472.01562 0.004508
9472.11523 0.004566
9472.21582 0.004626
9472.31543 0.004684
9472.41504 0.004743
9472.51562 0.004802
9472.61523 0.004861
9472.71582 0.004921
9472.81543 0.004979
9472.91602 0.005039
9473.01562 0.005097
9473.11523 0.005156
9473.21582 0.005216
9473.31543 0.005274
9473.41602 0.005334
9473.51562 0.005392
9473.61621 0.005452
9473.71582 0.005511
9473.81641 0.00557
9473.91602 0.005629
9474.01562 0.005688
9474.11621 0.005747
9474.21582 0.005806
9474.31641 0.005866
9474.41602 0.005925
9474.51660 0.005984
9474.61621 0.006043
9474.71680 0.006103
9474.81641 0.006162
9474.91602 0.006221
9475.01660 0.00628
9475.11621 0.006339
9475.21680 0.006399
9475.31641 0.006458
9475.41699 0.006517
9475.51660 0.006576
9475.61719 0.006636
9475.71680 0.006695
9475.81738 0.006754
9475.91699 0.006813
9476.01660 0.006877
9476.11719 0.006966
9476.21680 0.007054
9476.31738 0.007142
9476.41699 0.00723
9476.51758 0.007319
9476.61719 0.007407
9476.71777 0.007496
9476.81738 0.007584
9476.91797 0.007673
9477.01758 0.00776
9477.11816 0.007849
9477.21777 0.007937
9477.31836 0.008026
9477.41797 0.008114
9477.51758 0.008202
9477.61816 0.008291
9477.71777 0.008379
9477.81836 0.008467
9477.91797 0.008555
9478.01855 0.008645
9478.11816 0.008737
9478.21875 0.008831
9478.31836 0.008923
9478.41895 0.009016
9478.51855 0.009109
9478.61914 0.009202
9478.71875 0.009294
9478.81934 0.009388
9478.91895 0.00948
9479.01953 0.009573
9479.11914 0.009666
9479.21973 0.009759
9479.31934 0.009851
9479.41992 0.009945
9479.51953 0.010037
9479.62012 0.01013
9479.71973 0.010223
9479.82031 0.010316
9479.91992 0.010409
9480.02148 0.01051
9480.12012 0.010639
9480.22070 0.01077
9480.32031 0.010899
9480.42090 0.01103
9480.52148 0.01116
9480.62109 0.011291
9480.72070 0.01142
9480.82129 0.011551
9480.92090 0.011681
9481.02148 0.011812
9481.12109 0.011941
9481.22168 0.012072
9481.32129 0.012202
9481.42188 0.012333
9481.52148 0.012462
9481.62207 0.012593
9481.72266 0.012724
9481.82227 0.012854
9481.92285 0.012985
9482.02246 0.013121
9482.12305 0.013278
9482.22266 0.013435
9482.32324 0.013593
9482.42285 0.013749
9482.52344 0.013907
9482.62305 0.014063
9482.72363 0.014221
9482.82324 0.014377
9482.92383 0.014535
9483.02344 0.014692
9483.12402 0.01485
9483.22461 0.015008
9483.32422 0.015164
9483.42480 0.015322
9483.52441 0.015478
9483.62500 0.015636
9483.72461 0.015793
9483.82520 0.015951
9483.92480 0.016107
9484.02539 0.016271
9484.12500 0.016448
9484.22559 0.016627
9484.32617 0.016806
9484.42578 0.016984
9484.52637 0.017163
9484.62598 0.017341
9484.72656 0.01752
9484.82617 0.017697
9484.92676 0.017877
9485.02637 0.018054
9485.12695 0.018234
9485.22754 0.018413
9485.32715 0.01859
9485.42773 0.01877
9485.52734 0.018947
9485.62793 0.019127
9485.72754 0.019304
9485.82812 0.019484
9485.92773 0.019661
9486.02832 0.019855
9486.12891 0.020087
9486.22852 0.020317
9486.32910 0.020549
9486.42871 0.020779
9486.52930 0.021011
9486.62891 0.021241
9486.72852 0.021473
9486.83008 0.021705
9486.92969 0.021935
9487.03027 0.022168
9487.12988 0.022397
9487.23047 0.02263
9487.33105 0.022862
9487.43066 0.023092
9487.53125 0.023324
9487.63086 0.023554
9487.73145 0.023786
9487.83105 0.024016
9487.93164 0.024249
9488.03223 0.024479
9488.13184 0.024704
9488.23242 0.024931
9488.33203 0.025156
9488.43262 0.025383
9488.53320 0.02561
9488.63281 0.025835
9488.73340 0.026062
9488.83301 0.026286
9488.93359 0.026514
9489.03418 0.026741
9489.13379 0.026965
9489.23438 0.027193
9489.33398 0.027417
9489.43457 0.027645
9489.53516 0.027872
9489.63477 0.028097
9489.73535 0.028324
9489.83496 0.028549
9489.93555 0.028776
9490.03613 0.029032
9490.13574 0.029337
9490.23633 0.029645
9490.33691 0.029953
9490.43652 0.030258
9490.53711 0.030567
9490.63672 0.030872
9490.73730 0.03118
9490.83789 0.031488
9490.93652 0.031793
9491.03809 0.032101
9491.13867 0.032409
9491.23828 0.032715
9491.33887 0.033023
9491.43848 0.033328
9491.53906 0.033636
9491.63965 0.033945
9491.73926 0.03425
9491.83984 0.034558
9491.94043 0.034867
9492.04004 0.035145
9492.14062 0.035385
9492.24023 0.035623
9492.34082 0.035864
9492.44141 0.036104
9492.54102 0.036342
9492.64160 0.036583
9492.74219 0.036823
9492.84180 0.037062
9492.94238 0.037302
9493.04297 0.037543
9493.14258 0.037781
9493.24316 0.038022
9493.34375 0.038262
9493.44336 0.0385
9493.54395 0.038741
9493.64453 0.038982
9493.74414 0.03922
9493.84473 0.039461
9493.94434 0.039699
9494.04492 0.039967
9494.14648 0.040269
9494.24512 0.040568
9494.34570 0.04087
9494.44629 0.041172
9494.54590 0.041471
9494.64648 0.041773
9494.74707 0.042075
9494.84668 0.042374
9494.94727 0.042676
9495.04785 0.042978
9495.14746 0.043278
9495.24805 0.04358
9495.34863 0.043882
9495.44824 0.044181
9495.54883 0.044483
9495.64941 0.044785
9495.74902 0.045085
9495.84961 0.045387
9495.95020 0.045689
9496.04980 0.045945
9496.15039 0.046158
9496.25098 0.046372
9496.35156 0.046586
9496.45117 0.046798
9496.55176 0.047012
9496.65234 0.047225
9496.75195 0.047437
9496.85254 0.047651
9496.95312 0.047865
9497.05273 0.048077
9497.15332 0.048291
9497.25391 0.048505
9497.35352 0.048716
9497.45410 0.04893
9497.55469 0.049144
9497.65430 0.049356
9497.75488 0.04957
9497.85547 0.049784
9497.95605 0.049998
9498.05566 0.050211
9498.15625 0.050427
9498.25684 0.050643
9498.35645 0.050857
9498.45703 0.051073
9498.55762 0.05129
9498.65820 0.051506
9498.75781 0.05172
9498.85840 0.051936
9498.95898 0.052152
9499.05859 0.052366
9499.15918 0.052582
9499.25977 0.052799
9499.35938 0.053013
9499.45996 0.053229
9499.56055 0.053445
9499.66113 0.053661
9499.76074 0.053876
9499.86133 0.054092
9499.96191 0.054308
9500.06348 0.054473
9500.16211 0.054605
9500.26270 0.054738
9500.36328 0.054872
9500.46289 0.055004
9500.56348 0.055137
9500.66406 0.05527
9500.76465 0.055404
9500.86426 0.055536
9500.96484 0.055669
9501.06543 0.055803
9501.16602 0.055936
9501.26562 0.056068
9501.36621 0.056202
9501.46680 0.056335
9501.56641 0.056467
9501.66699 0.056601
9501.76758 0.056734
9501.86816 0.056868
9501.96777 0.057
9502.06836 0.057109
9502.16895 0.057207
9502.26953 0.057305
9502.36914 0.057402
9502.46973 0.057501
9502.57031 0.057599
9502.67090 0.057697
9502.77148 0.057794
9502.87109 0.057892
9502.97168 0.05799
9503.07227 0.058088
9503.17188 0.058186
9503.27246 0.058284
9503.37305 0.058382
9503.47363 0.05848
9503.57324 0.058577
9503.67383 0.058675
9503.77441 0.058774
9503.87500 0.058872
9503.97461 0.058969
9504.07520 0.059024
9504.17578 0.059065
9504.27637 0.059106
9504.37695 0.059146
9504.47656 0.059187
9504.57715 0.059228
9504.67773 0.059268
9504.77832 0.059309
9504.87793 0.059349
9504.97852 0.05939
9505.07910 0.059431
9505.17969 0.059472
9505.28027 0.059513
9505.37988 0.059553
9505.48047 0.059594
9505.58105 0.059634
9505.68164 0.059675
9505.78125 0.059716
9505.88184 0.059756
9505.98242 0.059797
9506.08301 0.059807
9506.18359 0.05981
9506.28320 0.059812
9506.38379 0.059815
9506.48438 0.059818
9506.58496 0.059821
9506.68555 0.059824
9506.78516 0.059827
9506.88574 0.05983
9506.98633 0.059833
9507.08691 0.059836
9507.18848 0.059839
9507.28711 0.059841
9507.38770 0.059844
9507.48828 0.059847
9507.58887 0.05985
9507.68945 0.059853
9507.78906 0.059856
9507.88965 0.059859
9507.99023 0.059862
9508.09082 0.059833
9508.19141 0.0598
9508.29102 0.059768
9508.39160 0.059736
9508.49219 0.059703
9508.59277 0.059671
9508.69336 0.059638
9508.79297 0.059606
9508.89355 0.059574
9508.99414 0.059542
9509.09473 0.059509
9509.19531 0.059477
9509.29590 0.059444
9509.39648 0.059412
9509.49609 0.05938
9509.59668 0.059347
9509.69727 0.059315
9509.79785 0.059282
9509.89746 0.05925
9509.99805 0.059218
9510.09863 0.059171
9510.19922 0.059123
9510.29980 0.059075
9510.40039 0.059028
9510.50000 0.058981
9510.60059 0.058933
9510.70117 0.058886
9510.80176 0.058838
9510.90234 0.05879
9511.00293 0.058743
9511.10254 0.058696
9511.20312 0.058648
9511.30371 0.0586
9511.40430 0.058553
9511.50488 0.058505
9511.60547 0.058458
9511.70605 0.05841
9511.80566 0.058363
9511.90625 0.058315
9512.00684 0.058266
9512.10742 0.0582
9512.20801 0.058135
9512.30859 0.058069
9512.40918 0.058003
9512.50879 0.057938
9512.60938 0.057872
9512.70996 0.057806
9512.81055 0.05774
9512.91113 0.057674
9513.01172 0.057608
9513.11230 0.057542
9513.21191 0.057477
9513.31152 0.057411
9513.41309 0.057345
9513.51367 0.057279
9513.61426 0.057213
9513.71484 0.057147
9513.81543 0.057082
9513.91504 0.057016
9514.01562 0.056952
9514.11621 0.056899
9514.21680 0.056846
9514.31738 0.056793
9514.41797 0.05674
9514.51855 0.056687
9514.61914 0.056634
9514.71875 0.056582
9514.81934 0.056529
9514.91992 0.056476
9515.02148 0.056423
9515.12109 0.05637
9515.22168 0.056317
9515.32227 0.056264
9515.42285 0.056211
9515.52344 0.056158
9515.62305 0.056106
9515.72363 0.056052
9515.82422 0.055999
9515.92480 0.055946
9516.02539 0.055892
9516.12598 0.055832
9516.22656 0.055772
9516.32715 0.055713
9516.42773 0.055653
9516.52832 0.055593
9516.62793 0.055534
9516.72852 0.055474
9516.82910 0.055415
9516.92969 0.055355
9517.03027 0.055295
9517.13086 0.055236
9517.23145 0.055176
9517.33203 0.055116
9517.43262 0.055056
9517.53320 0.054997
9517.63281 0.054938
9517.73340 0.054878
9517.83398 0.054818
9517.93457 0.054758
9518.03516 0.054702
9518.13574 0.054653
9518.23633 0.054604
9518.33691 0.054555
9518.43848 0.054506
9518.53809 0.054457
9518.63867 0.054408
9518.73926 0.054358
9518.83984 0.054309
9518.93945 0.054261
9519.04004 0.054212
9519.14062 0.054162
9519.24121 0.054113
9519.34180 0.054064
9519.44238 0.054015
9519.54297 0.053966
9519.64355 0.053917
9519.74414 0.053868
9519.84473 0.053818
9519.94531 0.053769
9520.04590 0.05372
9520.14648 0.05367
9520.24707 0.05362
9520.34766 0.053571
9520.44727 0.053521
9520.54785 0.053471
9520.64844 0.053422
9520.74902 0.053372
9520.84961 0.053322
9520.95020 0.053272
9521.05078 0.053223
9521.15137 0.053173
9521.25195 0.053123
9521.35254 0.053073
9521.45312 0.053023
9521.55371 0.052974
9521.65430 0.052924
9521.75488 0.052874
9521.85547 0.052824
9521.95605 0.052775
9522.05664 0.052735
9522.15723 0.052704
9522.25781 0.052672
9522.35840 0.052641
9522.45898 0.05261
9522.55859 0.052579
9522.65918 0.052547
9522.75977 0.052516
9522.86035 0.052485
9522.96094 0.052453
9523.06152 0.052422
9523.16211 0.052391
9523.26270 0.052359
9523.36328 0.052328
9523.46387 0.052297
9523.56445 0.052265
9523.66504 0.052234
9523.76562 0.052202
9523.86621 0.052171
9523.96680 0.05214
9524.06738 0.052117
9524.16797 0.052099
9524.26855 0.052081
9524.36914 0.052064
9524.46973 0.052046
9524.57031 0.052028
9524.67090 0.05201
9524.77148 0.051992
9524.87207 0.051974
9524.97266 0.051956
9525.07324 0.051938
9525.17383 0.05192
9525.27441 0.051902
9525.37500 0.051884
9525.47559 0.051866
9525.57617 0.051848
9525.67676 0.05183
9525.77734 0.051813
9525.87793 0.051795
9525.97852 0.051777
9526.07910 0.051759
9526.17969 0.051742
9526.28027 0.051725
9526.38086 0.051708
9526.48145 0.051691
9526.58203 0.051674
9526.68262 0.051657
9526.78320 0.05164
9526.88379 0.051623
9526.98438 0.051605
9527.08496 0.051588
9527.18555 0.051571
9527.28613 0.051554
9527.38672 0.051537
9527.48730 0.05152
9527.58789 0.051503
9527.68848 0.051486
9527.78906 0.051469
9527.88965 0.051452
9527.99023 0.051434
9528.09082 0.051427
9528.19141 0.051422
9528.29199 0.051416
9528.39258 0.05141
9528.49316 0.051404
9528.59375 0.051398
9528.69434 0.051392
9528.79492 0.051386
9528.89648 0.05138
9528.99609 0.051374
9529.09766 0.051368
9529.19824 0.051362
9529.29883 0.051356
9529.39941 0.05135
9529.50000 0.051344
9529.60059 0.051338
9529.70117 0.051333
9529.80176 0.051327
9529.90234 0.051321
9530.00293 0.051315
9530.10352 0.051302
9530.20410 0.05129
9530.30469 0.051278
9530.40527 0.051266
9530.50586 0.051254
9530.60645 0.051242
9530.70703 0.05123
9530.80762 0.051217
9530.90820 0.051205
9531.00879 0.051193
9531.10938 0.051181
9531.21094 0.051169
9531.31152 0.051157
9531.41211 0.051145
9531.51270 0.051132
9531.61328 0.05112
9531.71387 0.051108
9531.81445 0.051096
9531.91504 0.051084
9532.01562 0.051075
9532.11621 0.051084
9532.21680 0.051092
9532.31738 0.051101
9532.41797 0.05111
9532.51855 0.051119
9532.61914 0.051127
9532.72070 0.051136
9532.82129 0.051145
9532.92188 0.051154
9533.02246 0.051162
9533.12305 0.051171
9533.22363 0.05118
9533.32422 0.051189
9533.42480 0.051197
9533.52539 0.051206
9533.62598 0.051215
9533.72656 0.051224
9533.82715 0.051232
9533.92773 0.051241
9534.02930 0.05125
9534.12988 0.05126
9534.23047 0.05127
9534.33105 0.051281
9534.43164 0.051291
9534.53223 0.051301
9534.63281 0.051311
9534.73340 0.051321
9534.83398 0.051331
9534.93457 0.051341
9535.03613 0.051351
9535.13672 0.051361
9535.23730 0.051371
9535.33789 0.051381
9535.43848 0.051391
9535.53906 0.051402
9535.63965 0.051412
9535.74023 0.051422
9535.84082 0.051432
9535.94141 0.051442
9536.04297 0.051456
9536.14355 0.051476
9536.24414 0.051496
9536.34473 0.051516
9536.44531 0.051535
9536.54590 0.051555
9536.64648 0.051575
9536.74707 0.051595
9536.84863 0.051615
9536.94922 0.051635
9537.04980 0.051654
9537.15039 0.051674
9537.25098 0.051694
9537.35156 0.051714
9537.45215 0.051734
9537.55273 0.051754
9537.65430 0.051774
9537.75488 0.051793
9537.85547 0.051813
9537.95605 0.051833
9538.05664 0.051853
9538.15723 0.051873
9538.25781 0.051892
9538.35840 0.051912
9538.45996 0.051932
9538.56055 0.051952
9538.66113 0.051972
9538.76172 0.051992
9538.86230 0.052012
9538.96289 0.052031
9539.06348 0.052051
9539.16504 0.052071
9539.26562 0.052091
9539.36621 0.052111
9539.46680 0.052131
9539.56738 0.052151
9539.66797 0.05217
9539.76855 0.05219
9539.87012 0.05221
9539.97070 0.05223
9540.07129 0.052248
9540.17188 0.052264
9540.27246 0.052281
9540.37305 0.052297
9540.47461 0.052314
9540.57520 0.05233
9540.67578 0.052347
9540.77637 0.052363
9540.87695 0.05238
9540.97754 0.052396
9541.07910 0.052413
9541.17969 0.052429
9541.28027 0.052446
9541.38086 0.052462
9541.48145 0.052479
9541.58203 0.052495
9541.68359 0.052512
9541.78418 0.052528
9541.88477 0.052545
9541.98535 0.052561
9542.08594 0.052585
9542.18652 0.05261
9542.28809 0.052635
9542.38867 0.052661
9542.48926 0.052686
9542.58984 0.052711
9542.69043 0.052736
9542.79102 0.052761
9542.89258 0.052786
9542.99316 0.052811
9543.09375 0.052836
9543.19434 0.052861
9543.29492 0.052886
9543.39648 0.052912
9543.49707 0.052937
9543.59766 0.052962
9543.69824 0.052987
9543.79883 0.053012
9543.90039 0.053037
9544.00098 0.053062
9544.10156 0.05309
9544.20215 0.053117
9544.30273 0.053144
9544.40430 0.053172
9544.50488 0.053199
9544.60547 0.053226
9544.70605 0.053254
9544.80664 0.053281
9544.90820 0.053308
9545.00879 0.053336
9545.10938 0.053363
9545.20996 0.05339
9545.31055 0.053418
9545.41211 0.053445
9545.51270 0.053472
9545.61328 0.0535
9545.71387 0.053527
9545.81445 0.053554
9545.91602 0.053582
9546.01660 0.053611
9546.11719 0.05365
9546.21777 0.053689
9546.31934 0.053729
9546.41992 0.053768
9546.52148 0.053807
9546.62109 0.053846
9546.72168 0.053885
9546.82324 0.053924
9546.92383 0.053963
9547.02441 0.054003
9547.12500 0.054042
9547.22656 0.054081
9547.32715 0.05412
9547.42773 0.054159
9547.52832 0.054198
9547.62988 0.054238
9547.73047 0.054277
9547.83105 0.054316
9547.93164 0.054355
9548.03320 0.054393
9548.13379 0.054426
9548.23438 0.054459
9548.33496 0.054492
9548.43555 0.054525
9548.53711 0.054558
9548.63770 0.054591
9548.73828 0.054625
9548.83887 0.054658
9548.94043 0.054691
9549.04102 0.054724
9549.14160 0.054757
9549.24219 0.05479
9549.34375 0.054824
9549.44434 0.054857
9549.54492 0.05489
9549.64648 0.054923
9549.74707 0.054956
9549.84766 0.05499
9549.94824 0.055023
9550.04980 0.055065
9550.15039 0.055115
9550.25098 0.055166
9550.35156 0.055216
9550.45312 0.055267
9550.55371 0.055318
9550.65430 0.055368
9550.75488 0.055419
9550.85645 0.05547
9550.95703 0.05552
9551.05762 0.055571
9551.15918 0.055622
9551.25977 0.055672
9551.36035 0.055723
9551.46094 0.055773
9551.56152 0.055824
9551.66309 0.055875
9551.76367 0.055926
9551.86426 0.055976
9551.96582 0.056027
9552.06641 0.05607
9552.16699 0.056109
9552.26855 0.056149
9552.36914 0.056188
9552.46973 0.056227
9552.57031 0.056266
9552.67188 0.056305
9552.77246 0.056344
9552.87305 0.056383
9552.97461 0.056423
9553.07520 0.056462
9553.17578 0.056501
9553.27734 0.05654
9553.37793 0.056579
9553.47852 0.056618
9553.57910 0.056657
9553.68066 0.056697
9553.78125 0.056736
9553.88184 0.056775
9553.98340 0.056815
9554.08398 0.056859
9554.18457 0.056904
9554.28613 0.05695
9554.38672 0.056996
9554.48730 0.057041
9554.58789 0.057087
9554.68945 0.057133
9554.79004 0.057178
9554.89062 0.057224
9554.99219 0.05727
9555.09277 0.057315
9555.19336 0.057361
9555.29492 0.057407
9555.39648 0.057452
9555.49609 0.057498
9555.59766 0.057544
9555.69824 0.057589
9555.79883 0.057635
9555.90039 0.057681
9556.00098 0.057726
9556.10156 0.057772
9556.20312 0.057819
9556.30371 0.057865
9556.40430 0.057911
9556.50586 0.057958
9556.60645 0.058004
9556.70703 0.05805
9556.80859 0.058097
9556.90918 0.058143
9557.00977 0.058189
9557.11133 0.058236
9557.21191 0.058282
9557.31348 0.058328
9557.41406 0.058375
9557.51465 0.058421
9557.61523 0.058467
9557.71680 0.058514
9557.81738 0.05856
9557.91797 0.058606
9558.01953 0.05865
9558.12012 0.05868
9558.22070 0.058711
9558.32227 0.058742
9558.42285 0.058772
9558.52344 0.058803
9558.62500 0.058834
9558.72559 0.058864
9558.82715 0.058895
9558.92773 0.058925
9559.02832 0.058956
9559.12988 0.058987
9559.23047 0.059017
9559.33105 0.059048
9559.43262 0.059079
9559.53320 0.059109
9559.63379 0.05914
9559.73535 0.05917
9559.83594 0.059201
9559.93848 0.059232
9560.03809 0.05926
9560.13867 0.059285
9560.24023 0.059309
9560.34082 0.059334
9560.44141 0.059358
9560.54297 0.059383
9560.64355 0.059408
9560.74512 0.059432
9560.84570 0.059457
9560.94629 0.059481
9561.04785 0.059506
9561.14844 0.059531
9561.24902 0.059555
9561.35059 0.05958
9561.45117 0.059605
9561.55273 0.059629
9561.65332 0.059654
9561.75391 0.059678
9561.85547 0.059703
9561.95605 0.059728
9562.05762 0.059746
9562.15820 0.059759
9562.25879 0.059772
9562.36035 0.059786
9562.46094 0.059799
9562.56152 0.059812
9562.66309 0.059825
9562.76367 0.059838
9562.86523 0.059851
9562.96582 0.059865
9563.06641 0.059878
9563.16797 0.059891
9563.26855 0.059904
9563.37012 0.059917
9563.47070 0.059931
9563.57227 0.059944
9563.67285 0.059957
9563.77344 0.05997
9563.87500 0.059983
9563.97559 0.059996
9564.07715 0.059988
9564.17773 0.059973
9564.27832 0.059958
9564.37988 0.059942
9564.48047 0.059927
9564.58203 0.059912
9564.68262 0.059897
9564.78418 0.059881
9564.88477 0.059866
9564.98535 0.059851
9565.08691 0.059836
9565.18652 0.05982
9565.28906 0.059805
9565.38965 0.05979
9565.49023 0.059775
9565.59180 0.059759
9565.69238 0.059744
9565.79395 0.059729
9565.89453 0.059714
9565.99609 0.059698
9566.09668 0.059661
9566.19824 0.059623
9566.29883 0.059586
9566.39941 0.059548
9566.50098 0.05951
9566.60156 0.059472
9566.70312 0.059434
9566.80371 0.059396
9566.90527 0.059358
9567.00586 0.05932
9567.10742 0.059282
9567.20801 0.059244
9567.30859 0.059206
9567.41016 0.059168
9567.51074 0.05913
9567.61230 0.059092
9567.71289 0.059054
9567.81445 0.059016
9567.91504 0.058978
9568.01660 0.058932
9568.11719 0.058848
9568.21777 0.058765
9568.31934 0.05868
9568.41992 0.058596
9568.52148 0.058512
9568.62207 0.058428
9568.72363 0.058343
9568.82422 0.05826
9568.92578 0.058175
9569.02637 0.058091
9569.12793 0.058007
9569.22852 0.057923
9569.33008 0.057838
9569.43066 0.057754
9569.53223 0.05767
9569.63281 0.057586
9569.73340 0.057502
9569.83496 0.057417
9569.93555 0.057334
9570.03711 0.05724
9570.13770 0.05713
9570.23926 0.05702
9570.33984 0.056911
9570.44141 0.0568
9570.54199 0.056691
9570.64355 0.05658
9570.74414 0.056471
9570.84570 0.056361
9570.94629 0.056251
9571.04785 0.056141
9571.14844 0.056032
9571.25000 0.055921
9571.35059 0.055812
9571.45215 0.055701
9571.55273 0.055592
9571.65430 0.055482
9571.75488 0.055372
9571.85645 0.055262
9571.95703 0.055152
9572.05859 0.055006
9572.15918 0.054834
9572.26074 0.054661
9572.36133 0.054489
9572.46289 0.054315
9572.56348 0.054144
9572.66504 0.05397
9572.76562 0.053798
9572.86719 0.053625
9572.96777 0.053453
9573.06934 0.05328
9573.16992 0.053108
9573.27148 0.052934
9573.37207 0.052762
9573.47363 0.052589
9573.57422 0.052417
9573.67578 0.052244
9573.77637 0.052072
9573.87793 0.051898
9573.97852 0.051726
9574.08008 0.051534
9574.18066 0.051339
9574.28223 0.051143
9574.38379 0.050946
9574.48438 0.050751
9574.58594 0.050554
9574.68652 0.050359
9574.78809 0.050162
9574.88867 0.049967
9574.99023 0.04977
9575.09082 0.049575
9575.19238 0.049378
9575.29297 0.049183
9575.39453 0.048986
9575.49512 0.048791
9575.59668 0.048594
9575.69727 0.048399
9575.79883 0.048202
9575.90039 0.048005
9576.00098 0.047809
9576.10254 0.047571
9576.20312 0.047336
9576.30469 0.047099
9576.40527 0.046863
9576.50684 0.046626
9576.60742 0.04639
9576.70898 0.046153
9576.80957 0.045918
9576.91113 0.04568
9577.01270 0.045442
9577.11328 0.045207
9577.21484 0.044969
9577.31543 0.044734
9577.41699 0.044496
9577.51758 0.044261
9577.61914 0.044023
9577.71973 0.043788
9577.82129 0.04355
9577.92285 0.043312
9578.02344 0.043075
9578.12500 0.042832
9578.22559 0.042591
9578.32715 0.042348
9578.42773 0.042107
9578.52930 0.041864
9578.63086 0.04162
9578.73145 0.041379
9578.83301 0.041136
9578.93359 0.040895
9579.03516 0.040652
9579.13574 0.04041
9579.23730 0.040167
9579.33887 0.039924
9579.43945 0.039683
9579.54102 0.039439
9579.64160 0.039198
9579.74316 0.038955
9579.84375 0.038713
9579.94531 0.03847
9580.04688 0.038225
9580.14746 0.037981
9580.24902 0.037734
9580.34961 0.03749
9580.45117 0.037243
9580.55273 0.036997
9580.65332 0.036752
9580.75488 0.036506
9580.85547 0.036261
9580.95703 0.036015
9581.05859 0.035768
9581.15918 0.035524
9581.26074 0.035277
9581.36133 0.035033
9581.46289 0.034786
9581.56445 0.034539
9581.66504 0.034295
9581.76660 0.034048
9581.86719 0.033804
9581.96875 0.033557
9582.07031 0.033315
9582.17090 0.033077
9582.27246 0.032837
9582.37305 0.032599
9582.47461 0.032359
9582.57617 0.032119
9582.67676 0.031882
9582.77832 0.031641
9582.87988 0.031401
9582.98047 0.031164
9583.08203 0.030923
9583.18262 0.030686
9583.28418 0.030446
9583.38574 0.030205
9583.48633 0.029968
9583.58789 0.029727
9583.68945 0.029487
9583.79004 0.029249
9583.89160 0.029009
9583.99219 0.028771
9584.09375 0.028551
9584.19531 0.028333
9584.29590 0.028117
9584.39746 0.027899
9584.49902 0.027681
9584.59961 0.027465
9584.70117 0.027247
9584.80176 0.02703
9584.90332 0.026812
9585.00488 0.026594
9585.10547 0.026378
9585.20703 0.02616
9585.30859 0.025941
9585.40918 0.025725
9585.51074 0.025507
9585.61230 0.025289
9585.71289 0.025072
9585.81445 0.024854
9585.91602 0.024636
9586.01660 0.02442
9586.11816 0.024207
9586.21973 0.023994
9586.32031 0.023784
9586.42188 0.023571
9586.52246 0.02336
9586.62402 0.023146
9586.72559 0.022933
9586.82617 0.022722
9586.92773 0.022509
9587.02930 0.022296
9587.12988 0.022085
9587.23145 0.021872
9587.33301 0.021659
9587.43359 0.021448
9587.53516 0.021235
9587.63672 0.021022
9587.73730 0.020811
9587.83887 0.020597
9587.94043 0.020384
9588.04102 0.020195
9588.14258 0.020037
9588.24414 0.019879
9588.34473 0.019722
9588.44629 0.019563
9588.54785 0.019405
9588.64941 0.019247
9588.75000 0.01909
9588.85156 0.018932
9588.95312 0.018773
9589.05371 0.018616
9589.15527 0.018458
9589.25684 0.0183
9589.35742 0.018143
9589.45898 0.017984
9589.56055 0.017826
9589.66113 0.017669
9589.76270 0.017511
9589.86426 0.017352
9589.96484 0.017195
9590.06641 0.017038
9590.16797 0.016881
9590.26953 0.016723
9590.37012 0.016568
9590.47168 0.016411
9590.57324 0.016253
9590.67383 0.016098
9590.77539 0.015941
9590.87695 0.015783
9590.97754 0.015628
9591.07910 0.01547
9591.18066 0.015313
9591.28223 0.015156
9591.38281 0.015
9591.48438 0.014843
9591.58594 0.014686
9591.68652 0.01453
9591.78809 0.014373
9591.88965 0.014216
9591.99121 0.014058
9592.09180 0.013937
9592.19336 0.013818
9592.29492 0.013698
9592.39648 0.01358
9592.49707 0.013461
9592.59863 0.013341
9592.70020 0.013222
9592.80078 0.013104
9592.90234 0.012985
9593.00391 0.012865
9593.10352 0.012747
9593.20605 0.012628
9593.30762 0.012508
9593.40918 0.012389
9593.50977 0.012271
9593.61133 0.012152
9593.71289 0.012032
9593.81445 0.011913
9593.91504 0.011795
9594.01660 0.011678
9594.11816 0.011573
9594.21973 0.011469
9594.32031 0.011365
9594.42188 0.011261
9594.52344 0.011156
9594.62500 0.011052
9594.72559 0.010948
9594.82715 0.010844
9594.92871 0.010739
9595.03027 0.010635
9595.13086 0.010531
9595.23242 0.010427
9595.33398 0.010323
9595.43555 0.010218
9595.53613 0.010114
9595.63770 0.01001
9595.73926 0.009905
9595.84082 0.009801
9595.94141 0.009697
9596.04297 0.009605
9596.14453 0.009531
9596.24609 0.009456
9596.34668 0.009382
9596.44824 0.009307
9596.54980 0.009232
9596.65137 0.009158
9596.75195 0.009083
9596.85352 0.009009
9596.95508 0.008934
9597.05664 0.008859
9597.15723 0.008785
9597.25879 0.00871
9597.36035 0.008635
9597.46191 0.008561
9597.56348 0.008486
9597.66406 0.008412
9597.76562 0.008337
9597.86719 0.008262
9597.96875 0.008187
9598.06934 0.008111
9598.17090 0.008033
9598.27246 0.007955
9598.37402 0.007876
9598.47559 0.007798
9598.57617 0.007721
9598.67773 0.007643
9598.77930 0.007565
9598.88086 0.007486
9598.98242 0.007408
9599.08301 0.007331
9599.18457 0.007253
9599.28613 0.007174
9599.38770 0.007096
9599.48926 0.007018
9599.58984 0.006941
9599.69141 0.006862
9599.79297 0.006784
9599.89453 0.006706
9599.99609 0.006628
9600.09668 0.006563
9600.19824 0.006498
9600.29980 0.006432
9600.40137 0.006367
9600.50293 0.006302
9600.60352 0.006238
9600.70508 0.006172
9600.80664 0.006107
9600.90820 0.006042
9601.00977 0.005977
9601.11035 0.005912
9601.21191 0.005847
9601.31348 0.005782
9601.41504 0.005717
9601.51660 0.005652
9601.61816 0.005587
9601.71875 0.005522
9601.82031 0.005457
9601.92188 0.005392
9602.02344 0.005331
9602.12500 0.005286
9602.22559 0.005242
9602.32715 0.005197
9602.42871 0.005152
9602.53027 0.005107
9602.63184 0.005063
9602.73340 0.005018
9602.83398 0.004973
9602.93555 0.004928
9603.03711 0.004884
9603.13867 0.004839
9603.24023 0.004794
9603.34180 0.004749
9603.44238 0.004705
9603.54395 0.00466
9603.64648 0.004615
9603.74707 0.00457
9603.84863 0.004525
9603.95020 0.00448
9604.05176 0.004444
9604.15234 0.004417
9604.25391 0.004389
9604.35547 0.004361
9604.45703 0.004334
9604.55859 0.004306
9604.66016 0.004278
9604.76074 0.00425
9604.86230 0.004223
9604.96387 0.004195
9605.06543 0.004167
9605.16699 0.004139
9605.26855 0.004112
9605.37012 0.004084
9605.47070 0.004056
9605.57227 0.004028
9605.67383 0.004001
9605.77539 0.003973
9605.87695 0.003945
9605.97852 0.003917
9606.08008 0.003881
9606.18164 0.003842
9606.28223 0.003804
9606.38379 0.003766
9606.48535 0.003727
9606.58691 0.003689
9606.68848 0.00365
9606.79004 0.003612
9606.89160 0.003573
9606.99316 0.003535
9607.09375 0.003496
9607.19531 0.003458
9607.29688 0.003419
9607.39844 0.003381
9607.50000 0.003342
9607.60156 0.003304
9607.70312 0.003265
9607.80469 0.003227
9607.90527 0.003188
9608.00684 0.003151
9608.10840 0.003125
9608.20996 0.003099
9608.31152 0.003074
9608.41309 0.003048
9608.51465 0.003022
9608.61621 0.002997
9608.71777 0.002971
9608.81836 0.002945
9608.91992 0.00292
9609.02148 0.002894
9609.12305 0.002868
9609.22461 0.002843
9609.32617 0.002817
9609.42773 0.002791
9609.52930 0.002766
9609.63086 0.00274
9609.73242 0.002714
9609.83398 0.002688
9609.93457 0.002663
9610.03613 0.002638
9610.13770 0.002616
9610.23926 0.002593
9610.34082 0.00257
9610.44238 0.002547
9610.54395 0.002524
9610.64648 0.002502
9610.74707 0.002479
9610.84863 0.002456
9610.95020 0.002433
9611.05176 0.002411
9611.15234 0.002388
9611.25391 0.002365
9611.35547 0.002343
9611.45703 0.00232
9611.55859 0.002297
9611.66016 0.002274
9611.76172 0.002252
9611.86328 0.002229
9611.96484 0.002206
9612.06641 0.00219
9612.16797 0.002176
9612.26953 0.002163
9612.37109 0.00215
9612.47266 0.002137
9612.57324 0.002124
9612.67480 0.002111
9612.77637 0.002098
9612.87793 0.002085
9612.97852 0.002072
9613.08105 0.002059
9613.18262 0.002046
9613.28418 0.002033
9613.38574 0.00202
9613.48730 0.002007
9613.58887 0.001994
9613.69043 0.001981
9613.79199 0.001968
9613.89355 0.001954
9613.99512 0.001941
9614.09668 0.001925
9614.19824 0.001908
9614.29980 0.001892
9614.40137 0.001875
9614.50293 0.001859
9614.60352 0.001842
9614.70508 0.001826
9614.80664 0.001809
9614.90820 0.001793
9615.00977 0.001776
9615.11133 0.00176
9615.21289 0.001743
9615.31445 0.001727
9615.41602 0.00171
9615.51758 0.001693
9615.61914 0.001677
9615.72070 0.00166
9615.82227 0.001644
9615.92383 0.001627
9616.02539 0.001613
9616.12695 0.001603
9616.22852 0.001594
9616.33008 0.001585
9616.43164 0.001576
9616.53320 0.001567
9616.63477 0.001558
9616.73633 0.001548
9616.83789 0.001539
9616.93945 0.00153
9617.04102 0.001521
9617.14258 0.001512
9617.24414 0.001503
9617.34570 0.001493
9617.44727 0.001484
9617.54883 0.001475
9617.65039 0.001466
9617.75195 0.001457
9617.85352 0.001448
9617.95508 0.001439
9618.05664 0.001429
9618.15820 0.001419
9618.25977 0.001409
9618.36133 0.001399
9618.46289 0.001389
9618.56445 0.001379
9618.66602 0.001369
9618.76758 0.00136
9618.86914 0.00135
9618.97070 0.00134
9619.07227 0.00133
9619.17383 0.00132
9619.27539 0.00131
9619.37695 0.0013
9619.47852 0.00129
9619.58008 0.00128
9619.68164 0.00127
9619.78320 0.00126
9619.88477 0.001251
9619.98633 0.001241
9620.08789 0.001232
9620.18945 0.001224
9620.29102 0.001216
9620.39258 0.001208
9620.49414 0.0012
9620.59570 0.001192
9620.69727 0.001184
9620.79883 0.001175
9620.90039 0.001167
9621.00195 0.001159
9621.10352 0.001151
9621.20508 0.001143
9621.30664 0.001135
9621.40820 0.001127
9621.50977 0.001118
9621.61133 0.00111
9621.71289 0.001102
9621.81445 0.001094
9621.91602 0.001086
9622.01855 0.001078
9622.12012 0.00107
9622.22168 0.001062
9622.32324 0.001055
9622.42480 0.001047
9622.52637 0.001039
9622.62793 0.001032
9622.72852 0.001024
9622.83105 0.001016
9622.93262 0.001008
9623.03418 0.001001
9623.13574 0.000993
9623.23730 0.000985
9623.33887 0.000977
9623.44043 0.00097
9623.54199 0.000962
9623.64355 0.000954
9623.74512 0.000947
9623.84668 0.000939
9623.94824 0.000931
9624.05078 0.000927
9624.15234 0.000925
9624.25391 0.000924
9624.35547 0.000922
9624.45703 0.000921
9624.55859 0.000919
9624.66016 0.000918
9624.76172 0.000917
9624.86328 0.000915
9624.96484 0.000914
9625.06641 0.000912
9625.16797 0.000911
9625.26953 0.000909
9625.37109 0.000908
9625.47363 0.000907
9625.57520 0.000905
9625.67676 0.000904
9625.77832 0.000902
9625.87988 0.000901
9625.98145 0.0009
9626.08301 0.000893
9626.18457 0.000886
9626.28613 0.000878
9626.38770 0.000871
9626.48926 0.000863
9626.59082 0.000856
9626.69336 0.000849
9626.79492 0.000841
9626.89648 0.000834
9626.99805 0.000826
9627.09961 0.000819
9627.20117 0.000811
9627.30273 0.000804
9627.40430 0.000797
9627.50586 0.000789
9627.60742 0.000782
9627.70996 0.000774
9627.81152 0.000767
9627.91309 0.000759
9628.01465 0.000752
9628.11621 0.000745
9628.21777 0.000738
9628.31934 0.000731
9628.42090 0.000724
9628.52246 0.000717
9628.62402 0.00071
9628.72656 0.000703
9628.82812 0.000696
9628.92969 0.000689
9629.03125 0.000682
9629.13281 0.000675
9629.23438 0.000668
9629.33594 0.000661
9629.43848 0.000655
9629.54004 0.000648
9629.64160 0.000641
9629.74316 0.000634
9629.84473 0.000627
9629.94629 0.00062
9630.04785 0.000615
9630.14941 0.000614
9630.25098 0.000613
9630.35352 0.000612
9630.45508 0.000611
9630.55664 0.00061
9630.65820 0.000608
9630.75977 0.000607
9630.86133 0.000606
9630.96289 0.000605
9631.06445 0.000604
9631.16699 0.000603
9631.26855 0.000601
9631.37012 0.0006
9631.47168 0.000599
9631.57324 0.000598
9631.67480 0.000597
9631.77637 0.000596
9631.87891 0.000594
9631.98047 0.000593
9632.08203 0.00059
9632.18359 0.000587
9632.28516 0.000584
9632.38672 0.00058
9632.48926 0.000577
9632.59082 0.000574
9632.69238 0.000571
9632.79395 0.000567
9632.89648 0.000564
9632.99707 0.000561
9633.09863 0.000557
9633.20117 0.000554
9633.30273 0.000551
9633.40430 0.000548
9633.50586 0.000544
9633.60742 0.000541
9633.70898 0.000538
9633.81152 0.000534
9633.91309 0.000531
9634.01465 0.000527
9634.11621 0.000517
9634.21777 0.000508
9634.31934 0.000499
9634.42188 0.000489
9634.52344 0.00048
9634.62500 0.00047
9634.72656 0.000461
9634.82812 0.000451
9634.93066 0.000442
9635.03223 0.000433
9635.13379 0.000423
9635.23535 0.000414
9635.33691 0.000404
10598.87109 0.0
