# %ECSV 0.9
# ---
# datatype:
# - {name: wavelength, unit: Angstrom, datatype: float32}
# - {name: response, datatype: float32}
# meta: !!omap
# - {band_name: F215N}
# - {group_name: NICMOS2}
wavelength response
21280.93945 0.0
21281.15039 6.8e-05
21281.36914 0.000138
21281.58008 0.000207
21281.78906 0.000278
21282.00000 0.000347
21282.22070 0.00037
21282.42969 0.000393
21282.64062 0.000415
21282.84961 0.000438
21283.07031 0.000461
21283.27930 0.000484
21283.49023 0.000507
21283.71094 0.00053
21283.91992 0.000553
21284.13086 0.000713
21284.33984 0.000956
21284.55078 0.001202
21284.76953 0.001448
21284.98047 0.001694
21285.18945 0.00194
21285.41016 0.002185
21285.61914 0.002429
21285.83008 0.002675
21286.03906 0.002839
21286.25977 0.002678
21286.47070 0.002517
21286.67969 0.002357
21286.89062 0.002196
21287.10938 0.002037
21287.32031 0.001876
21287.52930 0.001716
21287.74023 0.001555
21287.96094 0.001394
21288.16992 0.001289
21288.38086 0.001199
21288.58984 0.001109
21288.81055 0.001018
21289.01953 0.000927
21289.23047 0.000836
21289.44922 0.000745
21289.66016 0.000655
21289.86914 0.000564
21290.08008 0.000555
21290.28906 0.000671
21290.50977 0.000788
21290.72070 0.000905
21290.92969 0.001022
21291.15039 0.00114
21291.35938 0.001257
21291.57031 0.001374
21291.78906 0.001491
21292.00000 0.001607
21292.21094 0.001459
21292.41992 0.001305
21292.63086 0.001152
21292.84961 0.000999
21293.06055 0.000845
21293.26953 0.000692
21293.49023 0.000539
21293.69922 0.000385
21293.91016 0.000233
21294.11914 0.000243
21294.33984 0.000371
21294.55078 0.000498
21294.75977 0.000626
21294.97070 0.000754
21295.18945 0.000882
21295.40039 0.00101
21295.60938 0.001138
21295.83008 0.001266
21296.03906 0.001404
21296.25000 0.001601
21296.46094 0.001798
21296.67969 0.001995
21296.89062 0.002192
21297.09961 0.002388
21297.31055 0.002585
21297.52930 0.002782
21297.74023 0.002979
21297.94922 0.003176
21298.16992 0.003194
21298.38086 0.003162
21298.58984 0.003129
21298.80078 0.003097
21299.01953 0.003065
21299.23047 0.003032
21299.43945 0.003
21299.65039 0.002968
21299.86914 0.002935
21300.08008 0.00285
21300.28906 0.002678
21300.50977 0.002506
21300.72070 0.002334
21300.92969 0.002161
21301.14062 0.001989
21301.35938 0.001819
21301.57031 0.001646
21301.77930 0.001474
21301.99023 0.001302
21302.21094 0.001449
21302.41992 0.001605
21302.63086 0.001761
21302.84961 0.001917
21303.06055 0.002073
21303.26953 0.002229
21303.48047 0.002386
21303.69922 0.002542
21303.91016 0.002698
21304.11914 0.002788
21304.33984 0.00283
21304.55078 0.002872
21304.75977 0.002913
21304.97070 0.002955
21305.18945 0.002997
21305.40039 0.003039
21305.60938 0.003081
21305.82031 0.003123
21306.03906 0.003166
21306.25000 0.003215
21306.46094 0.003265
21306.67969 0.003314
21306.89062 0.003364
21307.09961 0.003413
21307.31055 0.003462
21307.52930 0.003512
21307.74023 0.003561
21307.94922 0.003611
21308.16992 0.003536
21308.38086 0.003426
21308.58984 0.003316
21308.80078 0.003207
21309.01953 0.003097
21309.23047 0.002987
21309.43945 0.002877
21309.66016 0.002767
21309.86914 0.002658
21310.08008 0.002623
21310.28906 0.00271
21310.50977 0.002796
21310.72070 0.002883
21310.92969 0.002968
21311.14062 0.003055
21311.35938 0.003141
21311.57031 0.003228
21311.77930 0.003314
21312.00000 0.003401
21312.21094 0.003528
21312.41992 0.003655
21312.63086 0.003783
21312.84961 0.00391
21313.06055 0.004038
21313.26953 0.004165
21313.49023 0.004293
21313.69922 0.00442
21313.91016 0.004548
21314.11914 0.00445
21314.33984 0.004195
21314.55078 0.00394
21314.75977 0.003685
21314.98047 0.003429
21315.18945 0.003174
21315.40039 0.002919
21315.61914 0.002664
21315.83008 0.002408
21316.03906 0.002234
21316.25000 0.002396
21316.47070 0.002558
21316.67969 0.002721
21316.89062 0.002883
21317.10938 0.003046
21317.32031 0.003208
21317.52930 0.003371
21317.74023 0.003533
21317.96094 0.003696
21318.16992 0.003773
21318.38086 0.003829
21318.59961 0.003886
21318.81055 0.003942
21319.01953 0.003998
21319.24023 0.004054
21319.44922 0.00411
21319.66016 0.004166
21319.88086 0.004222
21320.08984 0.004301
21320.30078 0.004412
21320.50977 0.004523
21320.73047 0.004634
21320.93945 0.004745
21321.15039 0.004856
21321.36914 0.004967
21321.58008 0.005079
21321.78906 0.00519
21322.00000 0.005301
21322.22070 0.005428
21322.42969 0.005554
21322.64062 0.005681
21322.85938 0.005807
21323.07031 0.005934
21323.27930 0.00606
21323.49023 0.006187
21323.71094 0.006313
21323.91992 0.00644
21324.13086 0.006356
21324.34961 0.006146
21324.56055 0.005933
21324.76953 0.005723
21324.99023 0.005513
21325.19922 0.005302
21325.41016 0.005092
21325.61914 0.004881
21325.83984 0.004671
21326.05078 0.004543
21326.25977 0.00468
21326.48047 0.004817
21326.68945 0.004953
21326.90039 0.00509
21327.11914 0.005226
21327.33008 0.005363
21327.53906 0.0055
21327.75000 0.005636
21327.97070 0.005773
21328.17969 0.005998
21328.39062 0.006238
21328.60938 0.006477
21328.82031 0.006716
21329.02930 0.006956
21329.25000 0.007195
21329.46094 0.007434
21329.66992 0.007674
21329.88086 0.007913
21330.09961 0.008034
21330.31055 0.008015
21330.51953 0.007996
21330.74023 0.007977
21330.94922 0.007958
21331.16016 0.007939
21331.38086 0.00792
21331.58984 0.007902
21331.80078 0.007883
21332.01953 0.007879
21332.23047 0.008073
21332.43945 0.008267
21332.65039 0.00846
21332.86914 0.008654
21333.08008 0.008848
21333.28906 0.009043
21333.50977 0.009237
21333.72070 0.00943
21333.92969 0.009624
21334.15039 0.009641
21334.35938 0.009577
21334.57031 0.009514
21334.78906 0.00945
21335.00000 0.009387
21335.21094 0.009323
21335.42969 0.009259
21335.64062 0.009196
21335.84961 0.009132
21336.06055 0.009101
21336.27930 0.009145
21336.49023 0.009189
21336.69922 0.009233
21336.91992 0.009276
21337.13086 0.00932
21337.33984 0.009364
21337.56055 0.009408
21337.76953 0.009452
21337.98047 0.009496
21338.19922 0.009707
21338.41016 0.009933
21338.61914 0.010159
21338.83008 0.010385
21339.05078 0.010611
21339.25977 0.010839
21339.47070 0.011065
21339.68945 0.011291
21339.90039 0.011517
21340.10938 0.011628
21340.33008 0.011639
21340.53906 0.011649
21340.75000 0.011659
21340.97070 0.011669
21341.17969 0.01168
21341.39062 0.01169
21341.60938 0.0117
21341.82031 0.01171
21342.02930 0.011751
21342.24023 0.011966
21342.46094 0.012183
21342.66992 0.012399
21342.88086 0.012614
21343.09961 0.01283
21343.31055 0.013045
21343.51953 0.01326
21343.74023 0.013476
21343.94922 0.013693
21344.16016 0.013897
21344.38086 0.014099
21344.58984 0.0143
21344.80078 0.014501
21345.01953 0.014702
21345.23047 0.014905
21345.43945 0.015107
21345.66016 0.015308
21345.86914 0.015509
21346.08008 0.015685
21346.28906 0.015822
21346.50977 0.015959
21346.72070 0.016095
21346.93945 0.016232
21347.15039 0.016368
21347.35938 0.016504
21347.57031 0.016641
21347.78906 0.016778
21348.00000 0.016916
21348.21094 0.01714
21348.42969 0.017364
21348.64062 0.017588
21348.84961 0.017812
21349.07031 0.018039
21349.27930 0.018263
21349.49023 0.018487
21349.71094 0.018711
21349.91992 0.018936
21350.13086 0.019146
21350.34961 0.019349
21350.56055 0.019551
21350.76953 0.019752
21350.99023 0.019954
21351.19922 0.020156
21351.41016 0.020359
21351.63086 0.020561
21351.83984 0.020762
21352.05078 0.02102
21352.26953 0.021449
21352.48047 0.021882
21352.68945 0.022311
21352.91016 0.02274
21353.11914 0.023169
21353.33008 0.023598
21353.53906 0.024027
21353.75977 0.02446
21353.97070 0.024889
21354.18945 0.025153
21354.40039 0.025393
21354.60938 0.025635
21354.83008 0.025875
21355.03906 0.026115
21355.25000 0.026355
21355.46094 0.026595
21355.67969 0.026837
21355.89062 0.027077
21356.10938 0.027347
21356.32031 0.027647
21356.52930 0.027948
21356.75000 0.028251
21356.96094 0.028551
21357.16992 0.028852
21357.38086 0.029152
21357.59961 0.029453
21357.81055 0.029756
21358.02930 0.030047
21358.24023 0.030265
21358.44922 0.030484
21358.66992 0.030704
21358.88086 0.030923
21359.08984 0.031141
21359.30078 0.03136
21359.51953 0.031578
21359.73047 0.031799
21359.94922 0.032017
21360.16016 0.032462
21360.36914 0.032985
21360.58984 0.033512
21360.80078 0.034035
21361.00977 0.034558
21361.22070 0.035081
21361.43945 0.035608
21361.65039 0.036131
21361.86914 0.036654
21362.08008 0.037166
21362.28906 0.037664
21362.50977 0.038158
21362.72070 0.038651
21362.92969 0.039145
21363.15039 0.039643
21363.35938 0.040137
21363.57031 0.04063
21363.78906 0.041124
21364.00000 0.041622
21364.21094 0.042062
21364.42969 0.042503
21364.64062 0.042944
21364.84961 0.043388
21365.07031 0.043829
21365.27930 0.04427
21365.49023 0.04471
21365.71094 0.045155
21365.91992 0.045596
21366.13086 0.046111
21366.34961 0.046672
21366.56055 0.047237
21366.76953 0.047798
21366.99023 0.048359
21367.19922 0.048919
21367.41016 0.049485
21367.63086 0.050045
21367.83984 0.050606
21368.05078 0.051232
21368.26953 0.052026
21368.48047 0.05282
21368.68945 0.053614
21368.91016 0.054415
21369.11914 0.05521
21369.33008 0.056004
21369.55078 0.056798
21369.75977 0.0576
21369.97070 0.058394
21370.18945 0.059039
21370.40039 0.059669
21370.61914 0.060294
21370.83008 0.060919
21371.03906 0.061543
21371.25977 0.062174
21371.47070 0.062798
21371.67969 0.063423
21371.90039 0.064054
21372.10938 0.064696
21372.32031 0.065355
21372.53906 0.066021
21372.75000 0.06668
21372.96094 0.067339
21373.17969 0.067998
21373.39062 0.068663
21373.59961 0.069322
21373.82031 0.069982
21374.02930 0.070721
21374.24023 0.071881
21374.46094 0.073042
21374.66992 0.074213
21374.88086 0.075374
21375.09961 0.076534
21375.31055 0.077695
21375.52930 0.078867
21375.74023 0.080027
21375.94922 0.081188
21376.16992 0.081986
21376.38086 0.082668
21376.58984 0.08335
21376.81055 0.084038
21377.01953 0.08472
21377.23047 0.085402
21377.44922 0.086091
21377.66016 0.086773
21377.86914 0.087455
21378.08984 0.088368
21378.30078 0.089596
21378.50977 0.090823
21378.73047 0.092062
21378.93945 0.09329
21379.15039 0.094518
21379.36914 0.095757
21379.58008 0.096984
21379.78906 0.098212
21380.00977 0.099439
21380.22070 0.1004
21380.43945 0.101361
21380.65039 0.10233
21380.85938 0.103291
21381.08008 0.104252
21381.28906 0.105222
21381.50000 0.106183
21381.72070 0.107144
21381.92969 0.108114
21382.14062 0.109381
21382.35938 0.110793
21382.57031 0.112218
21382.78906 0.11363
21383.00000 0.115042
21383.21094 0.116467
21383.42969 0.117879
21383.64062 0.119291
21383.84961 0.120717
21384.07031 0.122039
21384.27930 0.123166
21384.49023 0.124302
21384.71094 0.125428
21384.91992 0.126565
21385.13086 0.127691
21385.34961 0.128818
21385.56055 0.129954
21385.77930 0.131081
21385.99023 0.132207
21386.19922 0.133577
21386.41992 0.134949
21386.63086 0.13632
21386.83984 0.137704
21387.06055 0.139075
21387.26953 0.140459
21387.48047 0.141831
21387.69922 0.143202
21387.91016 0.144586
21388.11914 0.145909
21388.33984 0.147196
21388.55078 0.148496
21388.76953 0.149784
21388.98047 0.151083
21389.18945 0.152371
21389.41016 0.153659
21389.61914 0.154959
21389.83008 0.156247
21390.05078 0.157568
21390.25977 0.159019
21390.47070 0.160457
21390.68945 0.161908
21390.90039 0.163346
21391.11914 0.164784
21391.33008 0.166235
21391.53906 0.167673
21391.75977 0.169124
21391.97070 0.170562
21392.17969 0.171843
21392.40039 0.173111
21392.60938 0.174367
21392.83008 0.175634
21393.03906 0.17689
21393.25000 0.178146
21393.47070 0.179414
21393.67969 0.18067
21393.89062 0.181937
21394.10938 0.183254
21394.32031 0.18463
21394.53906 0.186019
21394.75000 0.187395
21394.96094 0.188784
21395.17969 0.19016
21395.39062 0.191537
21395.59961 0.192926
21395.82031 0.194302
21396.02930 0.195659
21396.24023 0.19682
21396.46094 0.197991
21396.66992 0.199152
21396.88086 0.200312
21397.09961 0.201483
21397.31055 0.202644
21397.52930 0.203815
21397.74023 0.204976
21397.96094 0.206147
21398.16992 0.20726
21398.38086 0.208361
21398.59961 0.209471
21398.81055 0.210572
21399.01953 0.211682
21399.24023 0.212783
21399.44922 0.213893
21399.66016 0.214994
21399.88086 0.216094
21400.08984 0.217166
21400.30078 0.218176
21400.51953 0.219195
21400.73047 0.220205
21400.94922 0.221224
21401.16016 0.222235
21401.36914 0.223245
21401.58984 0.224264
21401.80078 0.225274
21402.01953 0.226288
21402.23047 0.227224
21402.43945 0.228168
21402.66016 0.229104
21402.86914 0.230049
21403.08008 0.230985
21403.30078 0.231921
21403.50977 0.232866
21403.72070 0.233801
21403.93945 0.234746
21404.15039 0.235667
21404.36914 0.23659
21404.58008 0.237505
21404.78906 0.238427
21405.00977 0.239342
21405.22070 0.240265
21405.43945 0.24118
21405.65039 0.242103
21405.85938 0.243018
21406.08008 0.243791
21406.28906 0.244314
21406.50000 0.244832
21406.72070 0.245356
21406.92969 0.245874
21407.15039 0.246397
21407.35938 0.246916
21407.57031 0.247439
21407.78906 0.247958
21408.00000 0.248482
21408.21094 0.249101
21408.42969 0.249726
21408.64062 0.250345
21408.85938 0.25097
21409.07031 0.251589
21409.28906 0.252214
21409.50000 0.252834
21409.71094 0.253459
21409.92969 0.254078
21410.14062 0.25447
21410.34961 0.254736
21410.57031 0.255005
21410.77930 0.255271
21411.00000 0.25554
21411.21094 0.255806
21411.41992 0.256075
21411.64062 0.256341
21411.84961 0.25661
21412.06055 0.25688
21412.27930 0.257161
21412.49023 0.25744
21412.71094 0.257722
21412.91992 0.258
21413.13086 0.258282
21413.34961 0.258561
21413.56055 0.258842
21413.77930 0.259121
21413.99023 0.259402
21414.19922 0.259622
21414.41992 0.25984
21414.63086 0.260057
21414.84961 0.260276
21415.06055 0.260493
21415.26953 0.260711
21415.49023 0.260928
21415.69922 0.261147
21415.91016 0.261363
21416.13086 0.261473
21416.33984 0.261508
21416.56055 0.261544
21416.76953 0.26158
21416.98047 0.261616
21417.19922 0.261652
21417.41016 0.261688
21417.61914 0.261724
21417.83984 0.26176
21418.05078 0.26178
21418.26953 0.261751
21418.48047 0.261722
21418.69922 0.261693
21418.91016 0.261664
21419.11914 0.261636
21419.33984 0.261607
21419.55078 0.261578
21419.76953 0.261549
21419.98047 0.26152
21420.18945 0.261516
21420.41016 0.261515
21420.61914 0.261514
21420.83008 0.261512
21421.05078 0.261511
21421.25977 0.26151
21421.48047 0.261508
21421.68945 0.261507
21421.90039 0.261506
21422.11914 0.261485
21422.33008 0.261448
21422.55078 0.261411
21422.75977 0.261374
21422.97070 0.261337
21423.18945 0.2613
21423.40039 0.261263
21423.61914 0.261226
21423.83008 0.261189
21424.03906 0.261122
21424.25977 0.260941
21424.47070 0.260759
21424.68945 0.260579
21424.90039 0.260397
21425.10938 0.260216
21425.33008 0.260034
21425.53906 0.259852
21425.75977 0.259671
21425.97070 0.259489
21426.17969 0.259379
21426.40039 0.259279
21426.60938 0.25918
21426.83008 0.25908
21427.03906 0.258979
21427.25000 0.25888
21427.47070 0.25878
21427.67969 0.258681
21427.90039 0.258581
21428.10938 0.258443
21428.32031 0.258267
21428.53906 0.258091
21428.75000 0.257916
21428.97070 0.25774
21429.17969 0.257565
21429.39062 0.257389
21429.60938 0.257213
21429.82031 0.257038
21430.03906 0.256871
21430.25000 0.25675
21430.46094 0.256628
21430.67969 0.256507
21430.89062 0.256385
21431.10938 0.256263
21431.32031 0.256142
21431.53906 0.25602
21431.75000 0.255899
21431.96094 0.255777
21432.17969 0.255811
21432.39062 0.255877
21432.60938 0.255944
21432.82031 0.25601
21433.02930 0.256077
21433.25000 0.256143
21433.46094 0.256209
21433.67969 0.256276
21433.89062 0.256342
21434.09961 0.256234
21434.32031 0.25594
21434.52930 0.255648
21434.75000 0.255353
21434.96094 0.255058
21435.16992 0.254766
21435.39062 0.254471
21435.59961 0.254179
21435.82031 0.253884
21436.02930 0.253622
21436.24023 0.253554
21436.46094 0.253486
21436.66992 0.253418
21436.89062 0.25335
21437.09961 0.253281
21437.31055 0.253214
21437.52930 0.253145
21437.74023 0.253077
21437.96094 0.253009
21438.16992 0.252949
21438.39062 0.252892
21438.59961 0.252835
21438.81055 0.252777
21439.02930 0.25272
21439.24023 0.252662
21439.46094 0.252604
21439.66992 0.252547
21439.88086 0.252489
21440.09961 0.25243
21440.31055 0.252369
21440.52930 0.252308
21440.74023 0.252247
21440.96094 0.252186
21441.16992 0.252125
21441.38086 0.252064
21441.59961 0.252003
21441.81055 0.251942
21442.02930 0.251883
21442.24023 0.251837
21442.46094 0.251791
21442.66992 0.251745
21442.88086 0.251699
21443.09961 0.251653
21443.31055 0.251608
21443.52930 0.251562
21443.74023 0.251516
21443.94922 0.25147
21444.16992 0.251404
21444.38086 0.251332
21444.59961 0.251261
21444.81055 0.251189
21445.02930 0.251117
21445.24023 0.251045
21445.44922 0.250973
21445.66992 0.250901
21445.88086 0.25083
21446.09961 0.250847
21446.31055 0.250977
21446.51953 0.251106
21446.74023 0.251235
21446.94922 0.251365
21447.16992 0.251493
21447.38086 0.251623
21447.59961 0.251753
21447.81055 0.251881
21448.01953 0.251982
21448.24023 0.251841
21448.44922 0.2517
21448.66992 0.25156
21448.88086 0.25142
21449.09961 0.251279
21449.31055 0.251139
21449.51953 0.250998
21449.74023 0.250858
21449.94922 0.250718
21450.16992 0.250897
21450.38086 0.251169
21450.58984 0.25144
21450.81055 0.251713
21451.01953 0.251985
21451.24023 0.252258
21451.44922 0.252528
21451.66992 0.252801
21451.88086 0.253074
21452.08984 0.253172
21452.31055 0.25305
21452.51953 0.252928
21452.74023 0.252806
21452.94922 0.252684
21453.16992 0.252562
21453.38086 0.25244
21453.58984 0.252319
21453.81055 0.252197
21454.01953 0.252098
21454.24023 0.252196
21454.44922 0.252294
21454.66992 0.252392
21454.88086 0.25249
21455.08984 0.252588
21455.31055 0.252686
21455.51953 0.252784
21455.74023 0.252881
21455.94922 0.25298
21456.16992 0.253229
21456.38086 0.253523
21456.58984 0.253815
21456.81055 0.254109
21457.01953 0.254403
21457.24023 0.254697
21457.44922 0.254988
21457.66992 0.255283
21457.88086 0.255577
21458.08984 0.255711
21458.31055 0.255646
21458.51953 0.25558
21458.74023 0.255514
21458.94922 0.255449
21459.16992 0.255384
21459.38086 0.255319
21459.59961 0.255253
21459.81055 0.255188
21460.01953 0.255124
21460.24023 0.255075
21460.44922 0.255026
21460.66992 0.254978
21460.88086 0.254928
21461.09961 0.254879
21461.31055 0.25483
21461.51953 0.254782
21461.74023 0.254733
21461.94922 0.254684
21462.16992 0.254686
21462.38086 0.254702
21462.59961 0.254719
21462.81055 0.254736
21463.02930 0.254752
21463.24023 0.254769
21463.44922 0.254785
21463.66992 0.254802
21463.88086 0.254819
21464.09961 0.254896
21464.31055 0.25505
21464.52930 0.255204
21464.74023 0.255358
21464.94922 0.255511
21465.16992 0.255665
21465.38086 0.255819
21465.59961 0.255973
21465.81055 0.256127
21466.02930 0.25626
21466.24023 0.25625
21466.46094 0.256241
21466.66992 0.256231
21466.88086 0.256222
21467.09961 0.256212
21467.31055 0.256203
21467.52930 0.256194
21467.74023 0.256184
21467.96094 0.256175
21468.16992 0.256161
21468.38086 0.256146
21468.59961 0.256131
21468.81055 0.256116
21469.02930 0.256101
21469.24023 0.256087
21469.46094 0.256072
21469.66992 0.256057
21469.88086 0.256042
21470.09961 0.256099
21470.31055 0.256237
21470.52930 0.256376
21470.74023 0.256514
21470.96094 0.256652
21471.16992 0.25679
21471.39062 0.256929
21471.59961 0.257068
21471.82031 0.257207
21472.02930 0.257306
21472.24023 0.257164
21472.46094 0.257022
21472.66992 0.25688
21472.89062 0.256738
21473.09961 0.256597
21473.32031 0.256455
21473.52930 0.256313
21473.75000 0.256171
21473.96094 0.256029
21474.17969 0.256221
21474.39062 0.256486
21474.59961 0.256752
21474.82031 0.257019
21475.02930 0.257286
21475.25000 0.257553
21475.46094 0.257818
21475.67969 0.258085
21475.89062 0.258352
21476.10938 0.258422
21476.32031 0.258289
21476.53906 0.258156
21476.75000 0.258024
21476.96094 0.257891
21477.17969 0.257758
21477.39062 0.257625
21477.60938 0.257491
21477.82031 0.257358
21478.03906 0.257238
21478.25000 0.257179
21478.46094 0.25712
21478.67969 0.25706
21478.89062 0.257001
21479.10938 0.256942
21479.32031 0.256883
21479.53906 0.256823
21479.75000 0.256764
21479.97070 0.256705
21480.17969 0.256656
21480.40039 0.25661
21480.60938 0.256564
21480.82031 0.256518
21481.03906 0.256472
21481.25000 0.256426
21481.47070 0.256379
21481.67969 0.256333
21481.90039 0.256287
21482.10938 0.256232
21482.33008 0.256167
21482.53906 0.256102
21482.75977 0.256037
21482.97070 0.255972
21483.18945 0.255907
21483.40039 0.255842
21483.61914 0.255777
21483.83008 0.255713
21484.03906 0.255634
21484.25977 0.2555
21484.47070 0.255366
21484.68945 0.255231
21484.90039 0.255097
21485.11914 0.254962
21485.33008 0.254829
21485.53906 0.254695
21485.75977 0.25456
21485.97070 0.254426
21486.18945 0.254353
21486.40039 0.254288
21486.61914 0.254223
21486.83008 0.254158
21487.05078 0.254094
21487.25977 0.254029
21487.48047 0.253964
21487.68945 0.253899
21487.91016 0.253834
21488.11914 0.253685
21488.33984 0.25347
21488.55078 0.253255
21488.76953 0.25304
21488.98047 0.252827
21489.18945 0.252611
21489.41016 0.252396
21489.61914 0.252181
21489.83984 0.251966
21490.05078 0.251758
21490.26953 0.251571
21490.48047 0.251384
21490.69922 0.251197
21490.91016 0.25101
21491.13086 0.250825
21491.33984 0.250638
21491.55078 0.250451
21491.76953 0.250265
21491.98047 0.250078
21492.19922 0.249948
21492.41016 0.249822
21492.63086 0.249696
21492.83984 0.249571
21493.06055 0.249445
21493.26953 0.24932
21493.49023 0.249195
21493.69922 0.24907
21493.91992 0.248944
21494.13086 0.248729
21494.34961 0.248456
21494.56055 0.248183
21494.77930 0.247911
21494.99023 0.247638
21495.21094 0.247365
21495.41992 0.247092
21495.63086 0.246819
21495.84961 0.246547
21496.06055 0.246321
21496.27930 0.246201
21496.49023 0.246082
21496.71094 0.245962
21496.91992 0.245842
21497.14062 0.245723
21497.34961 0.245603
21497.57031 0.245483
21497.77930 0.245363
21498.00000 0.245244
21498.21094 0.244964
21498.42969 0.244681
21498.64062 0.244398
21498.85938 0.244115
21499.07031 0.243832
21499.28906 0.243549
21499.50000 0.243268
21499.71094 0.242985
21499.92969 0.242702
21500.14062 0.242546
21500.35938 0.242453
21500.57031 0.242361
21500.78906 0.242268
21501.00000 0.242175
21501.22070 0.242083
21501.42969 0.24199
21501.65039 0.241898
21501.85938 0.241805
21502.08008 0.241634
21502.28906 0.241319
21502.50977 0.241005
21502.72070 0.24069
21502.93945 0.240375
21503.15039 0.24006
21503.36914 0.239745
21503.58008 0.23943
21503.78906 0.239116
21504.00977 0.238808
21504.22070 0.23866
21504.43945 0.238513
21504.65039 0.238365
21504.86914 0.238216
21505.08008 0.238068
21505.30078 0.23792
21505.50977 0.237771
21505.73047 0.237623
21505.93945 0.237475
21506.16016 0.237263
21506.36914 0.237027
21506.58984 0.236791
21506.80078 0.236555
21507.01953 0.236319
21507.23047 0.236083
21507.44922 0.235847
21507.66016 0.235611
21507.86914 0.235375
21508.08984 0.235183
21508.30078 0.235055
21508.51953 0.234926
21508.73047 0.234797
21508.94922 0.234669
21509.16016 0.23454
21509.38086 0.234411
21509.58984 0.234282
21509.81055 0.234154
21510.01953 0.234015
21510.24023 0.233798
21510.44922 0.233581
21510.66992 0.233363
21510.88086 0.233146
21511.09961 0.232929
21511.31055 0.232711
21511.52930 0.232494
21511.74023 0.232277
21511.96094 0.232059
21512.16992 0.231846
21512.39062 0.231633
21512.59961 0.23142
21512.82031 0.231207
21513.02930 0.230994
21513.25000 0.230781
21513.46094 0.230568
21513.67969 0.230355
21513.89062 0.230142
21514.10938 0.229989
21514.32031 0.229897
21514.53906 0.229805
21514.75000 0.229714
21514.96094 0.229622
21515.17969 0.22953
21515.39062 0.229438
21515.60938 0.229347
21515.82031 0.229255
21516.03906 0.229154
21516.25977 0.229016
21516.47070 0.228879
21516.68945 0.228741
21516.90039 0.228604
21517.11914 0.228467
21517.33008 0.228329
21517.53906 0.228192
21517.75977 0.228054
21517.97070 0.227917
21518.18945 0.227697
21518.40039 0.227466
21518.61914 0.227236
21518.83008 0.227005
21519.05078 0.226774
21519.25977 0.226543
21519.48047 0.226312
21519.68945 0.226081
21519.91016 0.22585
21520.11914 0.225703
21520.33984 0.225618
21520.55078 0.225533
21520.76953 0.225449
21520.98047 0.225364
21521.19922 0.225278
21521.41016 0.225193
21521.63086 0.225108
21521.83984 0.225023
21522.06055 0.224999
21522.26953 0.225135
21522.49023 0.22527
21522.69922 0.225406
21522.91992 0.225542
21523.13086 0.225678
21523.34961 0.225814
21523.56055 0.22595
21523.77930 0.226086
21523.99023 0.226222
21524.21094 0.226166
21524.41992 0.226103
21524.64062 0.22604
21524.84961 0.225977
21525.07031 0.225915
21525.27930 0.225852
21525.50000 0.225789
21525.71094 0.225727
21525.92969 0.225664
21526.14062 0.225654
21526.35938 0.225671
21526.57031 0.225688
21526.78906 0.225705
21527.00000 0.225722
21527.22070 0.225739
21527.42969 0.225757
21527.65039 0.225773
21527.85938 0.225791
21528.08008 0.225846
21528.28906 0.225968
21528.50977 0.226091
21528.72070 0.226214
21528.93945 0.226336
21529.15039 0.226459
21529.36914 0.226581
21529.58008 0.226705
21529.80078 0.226827
21530.00977 0.226958
21530.23047 0.227215
21530.43945 0.227473
21530.66016 0.22773
21530.86914 0.227987
21531.08984 0.228244
21531.30078 0.228501
21531.51953 0.228761
21531.73047 0.229018
21531.94922 0.229275
21532.16016 0.229353
21532.38086 0.229376
21532.58984 0.229398
21532.81055 0.229421
21533.01953 0.229443
21533.24023 0.229466
21533.46094 0.229489
21533.66992 0.229512
21533.88086 0.229534
21534.09961 0.229644
21534.31055 0.229854
21534.52930 0.230064
21534.74023 0.230274
21534.96094 0.230484
21535.17969 0.230696
21535.39062 0.230906
21535.60938 0.231116
21535.82031 0.231326
21536.03906 0.231521
21536.25000 0.231643
21536.46094 0.231764
21536.67969 0.231885
21536.90039 0.232008
21537.10938 0.232129
21537.33008 0.23225
21537.53906 0.232372
21537.75977 0.232493
21537.97070 0.232614
21538.18945 0.232897
21538.40039 0.233208
21538.61914 0.233517
21538.83008 0.233825
21539.05078 0.234134
21539.25977 0.234442
21539.48047 0.234751
21539.68945 0.235059
21539.91016 0.235371
21540.11914 0.235683
21540.33984 0.235999
21540.55078 0.236314
21540.76953 0.23663
21540.98047 0.236945
21541.19922 0.237264
21541.41016 0.23758
21541.63086 0.237895
21541.83984 0.238211
21542.06055 0.238537
21542.26953 0.238891
21542.49023 0.239249
21542.71094 0.239603
21542.91992 0.239957
21543.13086 0.240312
21543.34961 0.240666
21543.56055 0.24102
21543.77930 0.241378
21544.00000 0.241732
21544.21094 0.24198
21544.42969 0.242225
21544.64062 0.242471
21544.85938 0.242717
21545.07031 0.242965
21545.28906 0.24321
21545.50000 0.243456
21545.72070 0.243702
21545.92969 0.243947
21546.15039 0.244223
21546.35938 0.244514
21546.58008 0.244803
21546.78906 0.245092
21547.00977 0.245381
21547.22070 0.24567
21547.43945 0.245961
21547.65039 0.24625
21547.86914 0.246539
21548.08008 0.246913
21548.30078 0.247418
21548.51953 0.247927
21548.73047 0.248432
21548.94922 0.248938
21549.16016 0.249443
21549.36914 0.249948
21549.58984 0.250457
21549.81055 0.250963
21550.01953 0.25145
21550.24023 0.251778
21550.44922 0.252106
21550.66992 0.252437
21550.88086 0.252765
21551.09961 0.253092
21551.31055 0.25342
21551.52930 0.253748
21551.74023 0.254079
21551.96094 0.254407
21552.16992 0.254646
21552.39062 0.254864
21552.59961 0.255082
21552.82031 0.255302
21553.03906 0.25552
21553.25000 0.255738
21553.46094 0.255956
21553.67969 0.256176
21553.90039 0.256394
21554.10938 0.256694
21554.33008 0.257071
21554.53906 0.257447
21554.75977 0.257827
21554.97070 0.258203
21555.18945 0.25858
21555.40039 0.258956
21555.61914 0.259336
21555.83008 0.259712
21556.05078 0.260051
21556.25977 0.260265
21556.48047 0.260481
21556.69922 0.260695
21556.91016 0.260909
21557.13086 0.261122
21557.33984 0.261338
21557.56055 0.261552
21557.76953 0.261766
21557.99023 0.26198
21558.19922 0.261996
21558.41992 0.261999
21558.63086 0.262002
21558.84961 0.262005
21559.06055 0.262008
21559.27930 0.262011
21559.49023 0.262014
21559.71094 0.262018
21559.92969 0.26202
21560.14062 0.262104
21560.35938 0.262229
21560.57031 0.262355
21560.78906 0.262481
21561.00000 0.262607
21561.22070 0.262732
21561.42969 0.262858
21561.65039 0.262984
21561.85938 0.26311
21562.08008 0.263105
21562.28906 0.262873
21562.50977 0.262638
21562.72070 0.262406
21562.93945 0.262173
21563.15039 0.261941
21563.36914 0.261706
21563.58984 0.261474
21563.80078 0.261241
21564.01953 0.260997
21564.23047 0.260639
21564.44922 0.260281
21564.66016 0.259922
21564.88086 0.259561
21565.08984 0.259203
21565.31055 0.258845
21565.52930 0.258483
21565.74023 0.258125
21565.96094 0.257767
21566.16992 0.257444
21566.39062 0.257128
21566.59961 0.256814
21566.82031 0.2565
21567.02930 0.256184
21567.25000 0.25587
21567.46094 0.255556
21567.67969 0.255243
21567.89062 0.254926
21568.10938 0.254365
21568.32031 0.253565
21568.53906 0.252757
21568.75977 0.251957
21568.97070 0.251157
21569.18945 0.250357
21569.40039 0.24955
21569.61914 0.24875
21569.83008 0.247949
21570.05078 0.24716
21570.25977 0.24644
21570.48047 0.24572
21570.69922 0.244994
21570.91016 0.244274
21571.13086 0.243554
21571.33984 0.242827
21571.56055 0.242107
21571.76953 0.241387
21571.99023 0.240667
21572.19922 0.239639
21572.41992 0.238599
21572.63086 0.23756
21572.84961 0.236512
21573.06055 0.235472
21573.27930 0.234433
21573.50000 0.233384
21573.71094 0.232345
21573.92969 0.231306
21574.14062 0.230189
21574.35938 0.229048
21574.57031 0.227906
21574.78906 0.226753
21575.00000 0.225612
21575.22070 0.22447
21575.43945 0.223318
21575.65039 0.222176
21575.86914 0.221034
21576.08008 0.21973
21576.30078 0.218192
21576.50977 0.216654
21576.73047 0.215102
21576.93945 0.213563
21577.16016 0.212025
21577.38086 0.210473
21577.58984 0.208934
21577.80078 0.207396
21578.01953 0.205876
21578.24023 0.204668
21578.44922 0.20346
21578.66992 0.202241
21578.88086 0.201033
21579.09961 0.199814
21579.31055 0.198606
21579.52930 0.197397
21579.75000 0.196178
21579.96094 0.19497
21580.17969 0.193374
21580.39062 0.191675
21580.60938 0.189993
21580.82031 0.18831
21581.03906 0.186612
21581.25000 0.184929
21581.47070 0.183247
21581.68945 0.181548
21581.90039 0.179865
21582.11914 0.17835
21582.33008 0.177002
21582.55078 0.175653
21582.75977 0.174293
21582.98047 0.172945
21583.18945 0.171596
21583.41016 0.170236
21583.63086 0.168887
21583.83984 0.167527
21584.06055 0.166086
21584.26953 0.164389
21584.49023 0.162676
21584.69922 0.160978
21584.91992 0.15928
21585.13086 0.157567
21585.34961 0.155869
21585.57031 0.154156
21585.77930 0.152458
21586.00000 0.15076
21586.21094 0.149397
21586.42969 0.148051
21586.64062 0.146694
21586.85938 0.145348
21587.07031 0.144003
21587.28906 0.142645
21587.50977 0.141299
21587.72070 0.139941
21587.93945 0.138596
21588.15039 0.137127
21588.36914 0.135593
21588.58008 0.134074
21588.80078 0.132554
21589.01953 0.13102
21589.23047 0.1295
21589.44922 0.127967
21589.66016 0.126447
21589.88086 0.124913
21590.08984 0.123509
21590.31055 0.122254
21590.52930 0.120988
21590.74023 0.119734
21590.96094 0.118468
21591.16992 0.117213
21591.39062 0.115958
21591.59961 0.114692
21591.82031 0.113437
21592.03906 0.112185
21592.25000 0.111015
21592.46094 0.109844
21592.67969 0.108664
21592.90039 0.107494
21593.10938 0.106313
21593.33008 0.105142
21593.53906 0.103961
21593.75977 0.102791
21593.97070 0.101621
21594.18945 0.100355
21594.41016 0.09909
21594.61914 0.097812
21594.83984 0.096547
21595.05078 0.09527
21595.26953 0.094004
21595.48047 0.092738
21595.69922 0.091461
21595.91992 0.090195
21596.13086 0.089144
21596.34961 0.088243
21596.56055 0.087335
21596.77930 0.086434
21597.00000 0.085525
21597.21094 0.084625
21597.42969 0.083724
21597.64062 0.082815
21597.85938 0.081914
21598.07031 0.080913
21598.28906 0.079746
21598.50977 0.078568
21598.72070 0.0774
21598.93945 0.076222
21599.15039 0.075054
21599.36914 0.073876
21599.58008 0.072708
21599.80078 0.07154
21600.01953 0.070399
21600.23047 0.069738
21600.44922 0.069072
21600.66016 0.068411
21600.88086 0.067744
21601.08984 0.067084
21601.31055 0.066417
21601.52930 0.065756
21601.74023 0.065089
21601.96094 0.064429
21602.16992 0.063597
21602.39062 0.062733
21602.59961 0.061869
21602.82031 0.060997
21603.03906 0.060132
21603.25000 0.05926
21603.47070 0.058396
21603.67969 0.057524
21603.90039 0.05666
21604.11914 0.055943
21604.33008 0.055369
21604.55078 0.05479
21604.75977 0.054217
21604.98047 0.053637
21605.18945 0.053064
21605.41016 0.052485
21605.63086 0.051911
21605.83984 0.051332
21606.06055 0.050718
21606.26953 0.049989
21606.49023 0.049266
21606.71094 0.048537
21606.91992 0.047814
21607.14062 0.047085
21607.34961 0.046362
21607.57031 0.045633
21607.77930 0.04491
21608.00000 0.044181
21608.21094 0.043663
21608.42969 0.04314
21608.65039 0.042622
21608.85938 0.0421
21609.08008 0.041582
21609.28906 0.041059
21609.50977 0.040541
21609.73047 0.040019
21609.93945 0.039501
21610.16016 0.039038
21610.36914 0.038602
21610.58984 0.038162
21610.80078 0.037726
21611.01953 0.037286
21611.24023 0.03685
21611.44922 0.03641
21611.66992 0.035974
21611.88086 0.035534
21612.09961 0.035105
21612.32031 0.03468
21612.52930 0.034259
21612.75000 0.033834
21612.96094 0.033413
21613.17969 0.032989
21613.40039 0.032564
21613.60938 0.032143
21613.83008 0.031718
21614.03906 0.031292
21614.25977 0.03084
21614.47070 0.030392
21614.68945 0.02994
21614.91016 0.029492
21615.11914 0.029041
21615.33984 0.028593
21615.55078 0.028141
21615.76953 0.027693
21615.99023 0.027241
21616.19922 0.027045
21616.41992 0.026864
21616.63086 0.026684
21616.84961 0.026505
21617.07031 0.026324
21617.27930 0.026145
21617.50000 0.025964
21617.71094 0.025785
21617.92969 0.025605
21618.14062 0.025349
21618.35938 0.025055
21618.58008 0.024762
21618.78906 0.024468
21619.00977 0.024173
21619.22070 0.023881
21619.43945 0.023586
21619.66016 0.023294
21619.86914 0.022999
21620.08984 0.022726
21620.30078 0.022477
21620.51953 0.022228
21620.74023 0.021982
21620.94922 0.021734
21621.16992 0.021487
21621.38086 0.021239
21621.59961 0.020992
21621.82031 0.020744
21622.02930 0.020508
21622.25000 0.020343
21622.46094 0.020177
21622.67969 0.020013
21622.90039 0.019847
21623.10938 0.019682
21623.33008 0.019516
21623.53906 0.01935
21623.75977 0.019185
21623.98047 0.019019
21624.18945 0.018785
21624.41016 0.018541
21624.61914 0.018299
21624.83984 0.018054
21625.06055 0.01781
21625.26953 0.017568
21625.49023 0.017323
21625.69922 0.017081
21625.91992 0.016837
21626.14062 0.016639
21626.34961 0.016472
21626.57031 0.016302
21626.77930 0.016135
21627.00000 0.015965
21627.22070 0.015796
21627.42969 0.015628
21627.65039 0.015459
21627.85938 0.015291
21628.08008 0.0151
21628.30078 0.014871
21628.50977 0.014643
21628.73047 0.014414
21628.93945 0.014187
21629.16016 0.013957
21629.38086 0.013728
21629.58984 0.013501
21629.81055 0.013271
21630.01953 0.013053
21630.24023 0.012907
21630.46094 0.012762
21630.66992 0.012617
21630.89062 0.012472
21631.09961 0.012327
21631.32031 0.012181
21631.53906 0.012036
21631.75000 0.011891
21631.97070 0.011746
21632.18945 0.011543
21632.40039 0.011332
21632.61914 0.01112
21632.83008 0.010909
21633.05078 0.010697
21633.26953 0.010484
21633.48047 0.010274
21633.69922 0.010061
21633.91016 0.009849
21634.13086 0.009785
21634.34961 0.009818
21634.56055 0.009851
21634.77930 0.009884
21634.99023 0.009918
21635.21094 0.009951
21635.42969 0.009984
21635.64062 0.010018
21635.85938 0.010051
21636.07031 0.009969
21636.28906 0.009665
21636.50977 0.009364
21636.72070 0.00906
21636.93945 0.008757
21637.15039 0.008456
21637.36914 0.008152
21637.58984 0.007848
21637.80078 0.007547
21638.01953 0.00727
21638.24023 0.007259
21638.44922 0.007249
21638.66992 0.007238
21638.88086 0.007227
21639.09961 0.007217
21639.32031 0.007206
21639.52930 0.007195
21639.75000 0.007185
21639.96094 0.007174
21640.17969 0.007221
21640.40039 0.00728
21640.60938 0.007339
21640.83008 0.007398
21641.03906 0.007457
21641.25977 0.007516
21641.48047 0.007574
21641.68945 0.007634
21641.91016 0.007693
21642.13086 0.007767
21642.33984 0.007853
21642.56055 0.007939
21642.77930 0.008025
21642.99023 0.00811
21643.21094 0.008197
21643.41992 0.008283
21643.64062 0.008368
21643.85938 0.008454
21644.07031 0.008407
21644.28906 0.008097
21644.50000 0.007784
21644.72070 0.007471
21644.93945 0.00716
21645.15039 0.006847
21645.36914 0.006534
21645.58008 0.006224
21645.80078 0.005911
21646.01953 0.005625
21646.23047 0.005642
21646.44922 0.005659
21646.66992 0.005676
21646.88086 0.005693
21647.09961 0.00571
21647.31055 0.005727
21647.52930 0.005744
21647.75000 0.005761
21647.96094 0.005778
21648.17969 0.005727
21648.40039 0.005661
21648.60938 0.005596
21648.83008 0.005531
21649.03906 0.005465
21649.25977 0.0054
21649.48047 0.005335
21649.68945 0.005269
21649.91016 0.005204
21650.11914 0.00516
21650.33984 0.005132
21650.56055 0.005104
21650.76953 0.005076
21650.99023 0.005047
21651.21094 0.005019
21651.41992 0.004991
21651.64062 0.004963
21651.85938 0.004935
21652.07031 0.004887
21652.28906 0.004803
21652.50000 0.004718
21652.72070 0.004632
21652.93945 0.004547
21653.15039 0.004463
21653.36914 0.004377
21653.58984 0.004292
21653.80078 0.004207
21654.01953 0.004119
21654.23047 0.003998
21654.44922 0.003877
21654.66992 0.003757
21654.88086 0.003636
21655.09961 0.003515
21655.32031 0.003394
21655.52930 0.003274
21655.75000 0.003153
21655.96094 0.003032
21656.17969 0.002874
21656.40039 0.00271
21656.60938 0.002544
21656.83008 0.002379
21657.05078 0.002213
21657.25977 0.002049
21657.48047 0.001884
21657.69922 0.001718
21657.91016 0.001553
21658.13086 0.001668
21658.33984 0.00198
21658.56055 0.002291
21658.77930 0.002602
21658.99023 0.002911
21659.21094 0.003222
21659.42969 0.003534
21659.64062 0.003845
21659.85938 0.004157
21660.07031 0.004299
21660.28906 0.004125
21660.50977 0.00395
21660.72070 0.003776
21660.93945 0.003603
21661.16016 0.003428
21661.36914 0.003254
21661.58984 0.00308
21661.80078 0.002907
21662.01953 0.002759
21662.24023 0.002851
21662.46094 0.002943
21662.66992 0.003035
21662.89062 0.003127
21663.09961 0.003219
21663.32031 0.003311
21663.53906 0.003403
21663.75000 0.003494
21663.97070 0.003586
21664.18945 0.003508
21664.40039 0.0034
21664.61914 0.003292
21664.83008 0.003186
21665.05078 0.003078
21665.26953 0.00297
21665.48047 0.002863
21665.69922 0.002755
21665.91992 0.002649
21666.13086 0.002683
21666.34961 0.002808
21666.57031 0.002932
21666.77930 0.003057
21667.00000 0.003181
21667.21094 0.003305
21667.42969 0.00343
21667.65039 0.003555
21667.86914 0.003679
21668.08008 0.003689
21668.30078 0.003504
21668.50977 0.00332
21668.73047 0.003136
21668.94922 0.002952
21669.16016 0.002769
21669.38086 0.002585
21669.59961 0.0024
21669.81055 0.002216
21670.02930 0.002067
21670.25000 0.002142
21670.46094 0.002216
21670.67969 0.002291
21670.89062 0.002366
21671.10938 0.002441
21671.33008 0.002516
21671.53906 0.002591
21671.75977 0.002666
21671.98047 0.002741
21672.18945 0.002764
21672.41016 0.00278
21672.63086 0.002797
21672.83984 0.002813
21673.06055 0.00283
21673.27930 0.002846
21673.49023 0.002863
21673.71094 0.00288
21673.92969 0.002896
21674.14062 0.002819
21674.35938 0.002691
21674.57031 0.002563
21674.78906 0.002435
21675.00977 0.002307
21675.22070 0.002179
21675.43945 0.002051
21675.66016 0.001924
21675.86914 0.001796
21676.08984 0.001749
21676.31055 0.001816
21676.51953 0.001882
21676.74023 0.001949
21676.96094 0.002015
21677.16992 0.002081
21677.39062 0.002148
21677.60938 0.002215
21677.82031 0.002281
21678.03906 0.002351
21678.25977 0.002434
21678.47070 0.002517
21678.68945 0.0026
21678.90039 0.002684
21679.11914 0.002767
21679.33984 0.00285
21679.55078 0.002934
21679.76953 0.003017
21679.99023 0.0031
21680.19922 0.002981
21680.41992 0.002848
21680.64062 0.002716
21680.84961 0.002584
21681.07031 0.002452
21681.28906 0.002319
21681.50000 0.002187
21681.72070 0.002056
21681.93945 0.001924
21682.15039 0.001826
21682.36914 0.001742
21682.58984 0.001659
21682.80078 0.001575
21683.01953 0.001492
21683.24023 0.001408
21683.44922 0.001325
21683.66992 0.001242
21683.88086 0.001159
21684.09961 0.001149
21684.32031 0.001223
21684.53906 0.001297
21684.75000 0.001372
21684.97070 0.001446
21685.18945 0.00152
21685.40039 0.001594
21685.61914 0.001668
21685.83008 0.001742
21686.05078 0.001806
21686.26953 0.001836
21686.48047 0.001866
21686.69922 0.001896
21686.91992 0.001926
21687.13086 0.001957
21687.34961 0.001987
21687.57031 0.002017
21687.77930 0.002047
21688.00000 0.002077
21688.22070 0.00191
21688.42969 0.001744
21688.65039 0.001577
21688.86914 0.00141
21689.08008 0.001244
21689.30078 0.001077
21689.51953 0.000911
21689.73047 0.000744
21689.94922 0.000578
21690.16992 0.000554
21690.38086 0.000572
21690.59961 0.00059
21690.82031 0.000608
21691.02930 0.000626
21691.25000 0.000644
21691.47070 0.000662
21691.67969 0.00068
21691.90039 0.000698
21692.11914 0.00068
21692.33008 0.000631
21692.55078 0.000582
21692.76953 0.000533
21692.98047 0.000484
21693.19922 0.000436
23862.51953 0.0
