# %ECSV 0.9
# ---
# datatype:
# - {name: wavelength, unit: Angstrom, datatype: float32}
# - {name: response, datatype: float32}
# meta: !!omap
# - {band_name: POL240L}
# - {group_name: NICMOS2}
wavelength response
16500.09570 0.0
18333.43945 0.000401
18333.80078 0.000404
18334.16992 0.000406
18334.53906 0.000409
18334.91016 0.000411
18335.26953 0.000413
18335.64062 0.000415
18336.00977 0.000417
18336.36914 0.000419
18336.74023 0.000421
18337.10938 0.000423
18337.48047 0.000425
18337.84961 0.000427
18338.21094 0.000429
18338.58008 0.000431
18338.94922 0.000433
18339.32031 0.000435
18339.67969 0.000437
18340.05078 0.000438
18340.41992 0.000437
18340.78906 0.000435
18341.15039 0.000433
18341.51953 0.000432
18341.89062 0.00043
18342.25977 0.000428
18342.63086 0.000427
18342.99023 0.000425
18343.35938 0.000423
18343.73047 0.000421
18344.08984 0.00042
18344.46094 0.000418
18344.83008 0.000416
18345.19922 0.000416
18345.56055 0.000417
18345.92969 0.000417
18346.30078 0.000418
18346.66992 0.000418
18347.03906 0.000419
18347.40039 0.000419
18347.76953 0.00042
18348.14062 0.000421
18348.50977 0.000421
18348.88086 0.000422
18349.24023 0.000422
18349.60938 0.000423
18349.98047 0.000424
18350.34961 0.000422
18350.71094 0.00042
18351.08008 0.000418
18351.44922 0.000416
18351.82031 0.000414
18352.17969 0.000412
18352.55078 0.00041
18352.91992 0.000408
18353.28906 0.000406
18353.66016 0.000404
18354.01953 0.000402
18354.39062 0.000401
18354.75977 0.000399
18355.13086 0.000399
18355.49023 0.000404
18355.85938 0.00041
18356.23047 0.000415
18356.59961 0.00042
18356.97070 0.000425
18357.33008 0.00043
18357.69922 0.000435
18358.07031 0.000441
18358.43945 0.000446
18358.81055 0.000451
18359.16992 0.000456
18359.53906 0.000461
18359.91016 0.000467
18360.27930 0.000466
18360.65039 0.000465
18361.00977 0.000463
18361.38086 0.000461
18361.75000 0.000459
18362.11914 0.000457
18362.49023 0.000456
18362.84961 0.000454
18363.22070 0.000452
18363.58984 0.00045
18363.96094 0.000448
18364.33008 0.000446
18364.68945 0.000445
18365.06055 0.000443
18365.42969 0.000444
18365.80078 0.000444
18366.16992 0.000445
18366.53906 0.000445
18366.90039 0.000446
18367.26953 0.000446
18367.64062 0.000447
18368.00977 0.000448
18368.38086 0.000448
18368.74023 0.000449
18369.10938 0.000449
18369.48047 0.00045
18369.84961 0.00045
18370.21094 0.000452
18370.58008 0.000456
18370.94922 0.00046
18371.32031 0.000463
18371.68945 0.000467
18372.06055 0.00047
18372.41992 0.000474
18372.78906 0.000477
18373.16016 0.000481
18373.52930 0.000484
18373.90039 0.000488
18374.26953 0.000491
18374.63086 0.000495
18375.00000 0.000498
18375.36914 0.000497
18375.74023 0.000497
18376.10938 0.000496
18376.47070 0.000495
18376.83984 0.000494
18377.21094 0.000493
18377.58008 0.000492
18377.94922 0.000491
18378.32031 0.000491
18378.68945 0.00049
18379.05078 0.000489
18379.41992 0.000488
18379.78906 0.000487
18380.16016 0.000488
18380.52930 0.000491
18380.89062 0.000495
18381.25977 0.000498
18381.63086 0.000501
18382.00000 0.000505
18382.36914 0.000508
18382.74023 0.000511
18383.10938 0.000515
18383.47070 0.000518
18383.83984 0.000521
18384.21094 0.000525
18384.58008 0.000528
18384.94922 0.000531
18385.32031 0.000534
18385.68945 0.000537
18386.05078 0.000539
18386.41992 0.000542
18386.78906 0.000544
18387.16016 0.000547
18387.52930 0.00055
18387.90039 0.000552
18388.25977 0.000555
18388.63086 0.000557
18389.00000 0.00056
18389.36914 0.000563
18389.74023 0.000565
18390.10938 0.000567
18390.48047 0.000569
18390.83984 0.00057
18391.21094 0.000571
18391.58008 0.000572
18391.94922 0.000574
18392.32031 0.000575
18392.68945 0.000576
18393.06055 0.000578
18393.41992 0.000579
18393.78906 0.00058
18394.16016 0.000581
18394.52930 0.000583
18394.90039 0.000584
18395.26953 0.000585
18395.64062 0.000586
18396.00977 0.000587
18396.36914 0.000588
18396.74023 0.000589
18397.10938 0.00059
18397.48047 0.000591
18397.84961 0.000592
18398.22070 0.000593
18398.58984 0.000594
18398.96094 0.000595
18399.32031 0.000596
18399.68945 0.000597
18400.06055 0.000598
18400.42969 0.000596
18400.80078 0.000594
18401.16992 0.000592
18401.53906 0.00059
18401.90039 0.000588
18402.26953 0.000586
18402.64062 0.000584
18403.00977 0.000582
18403.38086 0.00058
18403.75000 0.000578
18404.11914 0.000576
18404.49023 0.000574
18404.85938 0.000572
18405.22070 0.000572
18405.58984 0.000572
18405.96094 0.000573
18406.33008 0.000574
18406.69922 0.000574
18407.07031 0.000575
18407.43945 0.000576
18407.81055 0.000577
18408.17969 0.000577
18408.53906 0.000578
18408.91016 0.000579
18409.27930 0.000579
18409.65039 0.00058
18410.01953 0.000581
18410.39062 0.000587
18410.75977 0.000593
18411.13086 0.000599
18411.50000 0.000605
18411.86914 0.000611
18412.23047 0.000617
18412.59961 0.000623
18412.97070 0.000628
18413.33984 0.000634
18413.71094 0.00064
18414.08008 0.000646
18414.44922 0.000652
18414.82031 0.000658
18415.18945 0.000661
18415.55078 0.000662
18415.91992 0.000662
18416.28906 0.000663
18416.66016 0.000663
18417.02930 0.000664
18417.40039 0.000664
18417.76953 0.000665
18418.14062 0.000665
18418.50977 0.000666
18418.88086 0.000666
18419.25000 0.000667
18419.61914 0.000667
18419.98047 0.000668
18420.34961 0.000672
18420.72070 0.000676
18421.08984 0.00068
18421.46094 0.000684
18421.83008 0.000688
18422.19922 0.000692
18422.57031 0.000696
18422.93945 0.0007
18423.31055 0.000704
18423.67969 0.000708
18424.05078 0.000712
18424.41992 0.000716
18424.78906 0.00072
18425.15039 0.000723
18425.51953 0.000723
18425.89062 0.000724
18426.25977 0.000725
18426.63086 0.000726
18427.00000 0.000726
18427.36914 0.000727
18427.74023 0.000728
18428.10938 0.000729
18428.48047 0.000729
18428.84961 0.00073
18429.22070 0.000731
18429.58984 0.000732
18429.96094 0.000732
18430.32031 0.000732
18430.68945 0.000732
18431.06055 0.000732
18431.42969 0.000732
18431.80078 0.000732
18432.16992 0.000732
18432.53906 0.000732
18432.91016 0.000732
18433.27930 0.000732
18433.65039 0.000732
18434.01953 0.000732
18434.39062 0.000732
18434.75977 0.000732
18435.13086 0.000733
18435.50000 0.000735
18435.86914 0.000738
18436.23047 0.00074
18436.59961 0.000743
18436.97070 0.000745
18437.33984 0.000748
18437.71094 0.00075
18438.08008 0.000753
18438.44922 0.000755
18438.82031 0.000758
18439.18945 0.00076
18439.56055 0.000763
18439.92969 0.000765
18440.30078 0.00077
18440.66992 0.000776
18441.03906 0.000782
18441.41016 0.000788
18441.77930 0.000793
18442.15039 0.000799
18442.51953 0.000805
18442.89062 0.000811
18443.25977 0.000816
18443.63086 0.000822
18444.00000 0.000828
18444.36914 0.000834
18444.73047 0.00084
18445.10938 0.000844
18445.47070 0.000843
18445.83984 0.000842
18446.21094 0.000841
18446.58008 0.00084
18446.94922 0.000839
18447.32031 0.000839
18447.68945 0.000838
18448.06055 0.000837
18448.42969 0.000836
18448.80078 0.000835
18449.16992 0.000834
18449.53906 0.000834
18449.91016 0.000833
18450.27930 0.000834
18450.65039 0.000836
18451.01953 0.000838
18451.39062 0.00084
18451.75977 0.000843
18452.13086 0.000845
18452.50000 0.000847
18452.86914 0.000849
18453.24023 0.000851
18453.60938 0.000853
18453.98047 0.000855
18454.34961 0.000857
18454.72070 0.000859
18455.08984 0.000861
18455.46094 0.000863
18455.83008 0.000865
18456.19922 0.000867
18456.57031 0.000869
18456.93945 0.000871
18457.31055 0.000873
18457.67969 0.000875
18458.05078 0.000877
18458.41992 0.000879
18458.78906 0.000881
18459.16016 0.000883
18459.52930 0.000885
18459.90039 0.000887
18460.26953 0.000889
18460.64062 0.000891
18461.00977 0.000894
18461.38086 0.000896
18461.75000 0.000898
18462.11914 0.0009
18462.49023 0.000903
18462.85938 0.000905
18463.23047 0.000907
18463.59961 0.00091
18463.97070 0.000912
18464.33984 0.000914
18464.71094 0.000916
18465.08008 0.000919
18465.44922 0.00092
18465.82031 0.000921
18466.18945 0.000922
18466.56055 0.000924
18466.92969 0.000925
18467.30078 0.000926
18467.66992 0.000928
18468.03906 0.000929
18468.41016 0.00093
18468.77930 0.000932
18469.15039 0.000933
18469.51953 0.000934
18469.89062 0.000935
18470.25977 0.000939
18470.63086 0.000945
18471.00000 0.00095
18471.36914 0.000955
18471.74023 0.00096
18472.10938 0.000965
18472.48047 0.000971
18472.84961 0.000976
18473.22070 0.000981
18473.58984 0.000986
18473.96094 0.000991
18474.33008 0.000997
18474.69922 0.001002
18475.07031 0.001006
18475.43945 0.001007
18475.81055 0.001008
18476.17969 0.001009
18476.55078 0.00101
18476.91992 0.001011
18477.28906 0.001011
18477.66016 0.001012
18478.03906 0.001013
18478.40039 0.001014
18478.77930 0.001015
18479.14062 0.001016
18479.51953 0.001017
18479.89062 0.001018
18480.25977 0.00102
18480.63086 0.001022
18481.00000 0.001024
18481.36914 0.001027
18481.74023 0.001029
18482.10938 0.001031
18482.48047 0.001034
18482.84961 0.001036
18483.22070 0.001038
18483.58984 0.00104
18483.96094 0.001043
18484.33008 0.001045
18484.69922 0.001047
18485.07031 0.001051
18485.43945 0.001057
18485.81055 0.001063
18486.17969 0.00107
18486.55078 0.001076
18486.91992 0.001083
18487.28906 0.001089
18487.66992 0.001096
18488.03906 0.001102
18488.41016 0.001109
18488.77930 0.001115
18489.15039 0.001121
18489.51953 0.001128
18489.89062 0.001134
18490.25977 0.001137
18490.63086 0.001139
18491.00000 0.001141
18491.36914 0.001143
18491.74023 0.001145
18492.10938 0.001147
18492.48047 0.001148
18492.84961 0.00115
18493.22070 0.001152
18493.58984 0.001154
18493.96094 0.001156
18494.33984 0.001158
18494.71094 0.001159
18495.08008 0.001161
18495.44922 0.001161
18495.82031 0.001161
18496.18945 0.001161
18496.56055 0.001161
18496.92969 0.001161
18497.30078 0.001161
18497.66992 0.001161
18498.03906 0.001162
18498.41016 0.001162
18498.77930 0.001162
18499.15039 0.001162
18499.52930 0.001162
18499.90039 0.001162
18500.26953 0.001163
18500.64062 0.001164
18501.00977 0.001166
18501.38086 0.001167
18501.75000 0.001169
18502.11914 0.00117
18502.49023 0.001171
18502.85938 0.001173
18503.23047 0.001174
18503.59961 0.001175
18503.97070 0.001177
18504.34961 0.001178
18504.72070 0.001179
18505.08984 0.001182
18505.46094 0.001189
18505.83008 0.001195
18506.19922 0.001202
18506.57031 0.001208
18506.93945 0.001215
18507.31055 0.001221
18507.67969 0.001228
18508.05078 0.001234
18508.42969 0.001241
18508.80078 0.001247
18509.16992 0.001254
18509.53906 0.001261
18509.91016 0.001267
18510.27930 0.001272
18510.65039 0.001275
18511.01953 0.001279
18511.39062 0.001283
18511.75977 0.001287
18512.13086 0.001291
18512.50977 0.001294
18512.88086 0.001298
18513.25000 0.001302
18513.61914 0.001306
18513.99023 0.00131
18514.35938 0.001313
18514.73047 0.001317
18515.09961 0.001321
18515.47070 0.001323
18515.84961 0.001325
18516.22070 0.001327
18516.58984 0.00133
18516.96094 0.001332
18517.33008 0.001334
18517.69922 0.001336
18518.07031 0.001338
18518.43945 0.001341
18518.81055 0.001343
18519.18945 0.001345
18519.56055 0.001347
18519.92969 0.00135
18520.30078 0.001356
18520.66992 0.001364
18521.03906 0.001371
18521.41016 0.001379
18521.77930 0.001387
18522.15039 0.001394
18522.52930 0.001402
18522.90039 0.00141
18523.26953 0.001417
18523.64062 0.001425
18524.00977 0.001433
18524.38086 0.00144
18524.75000 0.001448
18525.13086 0.001454
18525.50000 0.001455
18525.86914 0.001456
18526.24023 0.001458
18526.60938 0.001459
18526.98047 0.00146
18527.34961 0.001462
18527.72070 0.001463
18528.09961 0.001464
18528.47070 0.001466
18528.83984 0.001467
18529.21094 0.001469
18529.58008 0.00147
18529.94922 0.001471
18530.32031 0.001473
18530.69922 0.001476
18531.07031 0.001478
18531.43945 0.00148
18531.81055 0.001483
18532.17969 0.001485
18532.55078 0.001487
18532.91992 0.00149
18533.28906 0.001492
18533.66992 0.001494
18534.03906 0.001497
18534.41016 0.001499
18534.77930 0.001501
18535.15039 0.001506
18535.51953 0.001514
18535.89062 0.001521
18536.26953 0.001529
18536.64062 0.001537
18537.00977 0.001545
18537.38086 0.001553
18537.75000 0.00156
18538.11914 0.001568
18538.50000 0.001576
18538.86914 0.001584
18539.24023 0.001591
18539.60938 0.001599
18539.98047 0.001607
18540.34961 0.001613
18540.72070 0.001619
18541.09961 0.001625
18541.47070 0.001631
18541.83984 0.001637
18542.21094 0.001643
18542.58008 0.001649
18542.96094 0.001654
18543.33008 0.00166
18543.69922 0.001666
18544.07031 0.001672
18544.43945 0.001678
18544.81055 0.001684
18545.17969 0.001689
18545.56055 0.001693
18545.92969 0.001697
18546.30078 0.001701
18546.66992 0.001705
18547.03906 0.001709
18547.41016 0.001713
18547.78906 0.001717
18548.16016 0.001721
18548.52930 0.001725
18548.90039 0.001729
18549.26953 0.001733
18549.64062 0.001737
18550.01953 0.001741
18550.39062 0.001748
18550.75977 0.001756
18551.13086 0.001764
18551.50000 0.001771
18551.88086 0.001779
18552.25000 0.001786
18552.61914 0.001794
18552.99023 0.001802
18553.35938 0.001809
18553.73047 0.001817
18554.10938 0.001825
18554.48047 0.001832
18554.84961 0.00184
18555.22070 0.001843
18555.58984 0.001843
18555.97070 0.001844
18556.33984 0.001844
18556.71094 0.001844
18557.08008 0.001844
18557.44922 0.001845
18557.83008 0.001845
18558.19922 0.001845
18558.57031 0.001846
18558.93945 0.001846
18559.31055 0.001846
18559.68945 0.001846
18560.06055 0.001847
18560.42969 0.001851
18560.80078 0.001856
18561.16992 0.00186
18561.53906 0.001864
18561.91992 0.001868
18562.28906 0.001872
18562.66016 0.001877
18563.02930 0.001881
18563.40039 0.001885
18563.77930 0.001889
18564.15039 0.001893
18564.51953 0.001898
18564.89062 0.001902
18565.26953 0.001909
18565.64062 0.001918
18566.00977 0.001926
18566.38086 0.001935
18566.75000 0.001943
18567.13086 0.001952
18567.50000 0.001961
18567.86914 0.001969
18568.24023 0.001978
18568.61914 0.001987
18568.99023 0.001995
18569.35938 0.002004
18569.73047 0.002012
18570.09961 0.002021
18570.47070 0.002028
18570.84961 0.002035
18571.22070 0.002043
18571.58984 0.00205
18571.96094 0.002057
18572.33984 0.002065
18572.71094 0.002072
18573.08008 0.002079
18573.44922 0.002087
18573.82031 0.002094
18574.19922 0.002101
18574.57031 0.002109
18574.93945 0.002116
18575.31055 0.002121
18575.68945 0.002125
18576.06055 0.002129
18576.42969 0.002134
18576.80078 0.002138
18577.17969 0.002142
18577.55078 0.002147
18577.91992 0.002151
18578.28906 0.002155
18578.66016 0.00216
18579.03906 0.002164
18579.41016 0.002169
18579.77930 0.002173
18580.15039 0.002178
18580.52930 0.002185
18580.90039 0.002191
18581.26953 0.002197
18581.64062 0.002204
18582.01953 0.00221
18582.39062 0.002217
18582.75977 0.002223
18583.13086 0.00223
18583.50977 0.002236
18583.88086 0.002243
18584.25000 0.002249
18584.61914 0.002256
18585.00000 0.002262
18585.36914 0.00227
18585.74023 0.002279
18586.10938 0.002287
18586.49023 0.002296
18586.85938 0.002304
18587.23047 0.002313
18587.59961 0.002321
18587.98047 0.00233
18588.34961 0.002338
18588.72070 0.002347
18589.08984 0.002355
18589.47070 0.002364
18589.83984 0.002372
18590.21094 0.002381
18590.58008 0.00239
18590.96094 0.002399
18591.33008 0.002408
18591.69922 0.002417
18592.07031 0.002426
18592.44922 0.002436
18592.82031 0.002445
18593.18945 0.002454
18593.56055 0.002463
18593.93945 0.002472
18594.31055 0.002481
18594.67969 0.00249
18595.05078 0.002499
18595.42969 0.002507
18595.80078 0.002514
18596.16992 0.002522
18596.53906 0.00253
18596.91992 0.002537
18597.28906 0.002545
18597.66016 0.002553
18598.03906 0.00256
18598.41016 0.002568
18598.77930 0.002575
18599.15039 0.002583
18599.52930 0.002591
18599.90039 0.002598
18600.26953 0.002605
18600.65039 0.002611
18601.01953 0.002617
18601.39062 0.002623
18601.75977 0.002629
18602.14062 0.002635
18602.50977 0.002641
18602.88086 0.002647
18603.25977 0.002654
18603.63086 0.00266
18604.00000 0.002666
18604.36914 0.002672
18604.75000 0.002678
18605.11914 0.002686
18605.49023 0.0027
18605.86914 0.002714
18606.24023 0.002729
18606.60938 0.002743
18606.98047 0.002757
18607.35938 0.002771
18607.73047 0.002785
18608.09961 0.002799
18608.48047 0.002813
18608.84961 0.002827
18609.22070 0.002841
18609.59961 0.002855
18609.97070 0.002869
18610.33984 0.002877
18610.71094 0.002884
18611.08984 0.002891
18611.46094 0.002898
18611.83008 0.002905
18612.21094 0.002913
18612.58008 0.00292
18612.94922 0.002927
18613.32031 0.002934
18613.69922 0.002942
18614.07031 0.002949
18614.43945 0.002956
18614.82031 0.002963
18615.18945 0.002974
18615.56055 0.002988
18615.93945 0.003001
18616.31055 0.003015
18616.67969 0.003029
18617.05078 0.003043
18617.42969 0.003056
18617.80078 0.00307
18618.17969 0.003084
18618.55078 0.003098
18618.91992 0.003112
18619.28906 0.003125
18619.66992 0.003139
18620.03906 0.003152
18620.41016 0.003158
18620.78906 0.003163
18621.16016 0.003168
18621.52930 0.003174
18621.91016 0.003179
18622.27930 0.003185
18622.65039 0.00319
18623.02930 0.003196
18623.40039 0.003201
18623.76953 0.003207
18624.15039 0.003212
18624.51953 0.003217
18624.89062 0.003223
18625.26953 0.003231
18625.64062 0.00324
18626.00977 0.003249
18626.38086 0.003257
18626.75977 0.003266
18627.13086 0.003275
18627.50977 0.003284
18627.88086 0.003293
18628.25000 0.003302
18628.61914 0.003311
18629.00000 0.00332
18629.36914 0.003329
18629.75000 0.003338
18630.11914 0.003346
18630.49023 0.003354
18630.86914 0.003362
18631.24023 0.00337
18631.60938 0.003379
18631.99023 0.003387
18632.35938 0.003395
18632.73047 0.003403
18633.10938 0.003411
18633.48047 0.003419
18633.84961 0.003427
18634.23047 0.003435
18634.59961 0.003443
18634.97070 0.003451
18635.34961 0.003468
18635.72070 0.003486
18636.08984 0.003503
18636.47070 0.003521
18636.83984 0.003539
18637.21094 0.003557
18637.58984 0.003574
18637.96094 0.003592
18638.33008 0.00361
18638.71094 0.003627
18639.08008 0.003645
18639.46094 0.003663
18639.83008 0.00368
18640.19922 0.003695
18640.58008 0.003707
18640.94922 0.00372
18641.32031 0.003732
18641.69922 0.003744
18642.07031 0.003756
18642.43945 0.003768
18642.82031 0.003781
18643.18945 0.003793
18643.56055 0.003805
18643.93945 0.003818
18644.31055 0.00383
18644.68945 0.003842
18645.06055 0.003854
18645.42969 0.003864
18645.81055 0.003874
18646.17969 0.003884
18646.55078 0.003894
18646.92969 0.003904
18647.30078 0.003914
18647.67969 0.003924
18648.05078 0.003934
18648.41992 0.003944
18648.80078 0.003954
18649.16992 0.003964
18649.53906 0.003974
18649.91992 0.003983
18650.28906 0.003998
18650.66992 0.004014
18651.03906 0.00403
18651.41016 0.004046
18651.78906 0.004062
18652.16016 0.004078
18652.53906 0.004094
18652.91016 0.00411
18653.27930 0.004126
18653.66016 0.004142
18654.02930 0.004158
18654.40039 0.004174
18654.77930 0.00419
18655.15039 0.004204
18655.52930 0.004215
18655.90039 0.004226
18656.26953 0.004237
18656.65039 0.004248
18657.01953 0.004259
18657.39062 0.00427
18657.76953 0.004281
18658.14062 0.004292
18658.51953 0.004303
18658.89062 0.004314
18659.26953 0.004325
18659.64062 0.004336
18660.00977 0.004347
18660.39062 0.004365
18660.75977 0.004382
18661.13086 0.004399
18661.50977 0.004416
18661.88086 0.004434
18662.25977 0.004451
18662.63086 0.004468
18663.00000 0.004485
18663.38086 0.004503
18663.75000 0.00452
18664.13086 0.004537
18664.50000 0.004554
18664.88086 0.004571
18665.25000 0.004586
18665.61914 0.004599
18666.00000 0.004613
18666.36914 0.004626
18666.75000 0.00464
18667.11914 0.004653
18667.49023 0.004666
18667.86914 0.00468
18668.24023 0.004693
18668.61914 0.004706
18668.99023 0.00472
18669.35938 0.004733
18669.74023 0.004746
18670.10938 0.00476
18670.49023 0.004776
18670.85938 0.004791
18671.23047 0.004806
18671.60938 0.004822
18671.98047 0.004837
18672.35938 0.004852
18672.73047 0.004868
18673.10938 0.004883
18673.48047 0.004898
18673.85938 0.004914
18674.23047 0.004929
18674.59961 0.004944
18674.98047 0.004959
18675.34961 0.004984
18675.73047 0.005009
18676.09961 0.005035
18676.47070 0.00506
18676.84961 0.005085
18677.22070 0.00511
18677.59961 0.005136
18677.97070 0.005161
18678.34961 0.005186
18678.72070 0.005211
18679.09961 0.005237
18679.47070 0.005262
18679.83984 0.005287
18680.22070 0.005307
18680.58984 0.005324
18680.97070 0.005341
18681.33984 0.005358
18681.71094 0.005374
18682.08984 0.005391
18682.46094 0.005408
18682.83984 0.005424
18683.21094 0.005441
18683.58984 0.005458
18683.96094 0.005475
18684.33984 0.005491
18684.71094 0.005508
18685.08984 0.005525
18685.46094 0.005544
18685.83008 0.005564
18686.21094 0.005583
18686.58008 0.005602
18686.96094 0.005622
18687.33008 0.005641
18687.71094 0.00566
18688.08008 0.005679
18688.46094 0.005699
18688.83008 0.005718
18689.21094 0.005737
18689.58008 0.005757
18689.96094 0.005776
18690.33008 0.005796
18690.69922 0.005816
18691.08008 0.005836
18691.44922 0.005857
18691.83008 0.005877
18692.19922 0.005897
18692.58008 0.005917
18692.94922 0.005937
18693.33008 0.005958
18693.69922 0.005978
18694.07031 0.005998
18694.44922 0.006018
18694.82031 0.006038
18695.19922 0.006059
18695.57031 0.006079
18695.94922 0.0061
18696.32031 0.00612
18696.69922 0.006141
18697.07031 0.006161
18697.44922 0.006182
18697.82031 0.006202
18698.19922 0.006223
18698.57031 0.006243
18698.94922 0.006263
18699.32031 0.006284
18699.69922 0.006304
18700.07031 0.006326
18700.44922 0.006352
18700.82031 0.006378
18701.19922 0.006404
18701.57031 0.00643
18701.93945 0.006456
18702.32031 0.006482
18702.68945 0.006508
18703.07031 0.006534
18703.43945 0.00656
18703.82031 0.006585
18704.18945 0.006611
18704.57031 0.006637
18704.93945 0.006663
18705.32031 0.00669
18705.68945 0.006717
18706.07031 0.006744
18706.43945 0.006771
18706.82031 0.006797
18707.18945 0.006824
18707.57031 0.006851
18707.93945 0.006878
18708.32031 0.006904
18708.68945 0.006931
18709.07031 0.006958
18709.43945 0.006985
18709.82031 0.007012
18710.18945 0.007037
18710.57031 0.007063
18710.93945 0.007088
18711.32031 0.007113
18711.68945 0.007138
18712.07031 0.007163
18712.43945 0.007188
18712.82031 0.007213
18713.18945 0.007238
18713.57031 0.007263
18713.93945 0.007288
18714.32031 0.007313
18714.68945 0.007338
18715.07031 0.007363
18715.43945 0.007389
18715.82031 0.007414
18716.18945 0.00744
18716.57031 0.007465
18716.93945 0.007491
18717.32031 0.007516
18717.68945 0.007541
18718.07031 0.007567
18718.43945 0.007592
18718.82031 0.007618
18719.18945 0.007643
18719.57031 0.007669
18719.93945 0.007694
18720.32031 0.007723
18720.68945 0.007752
18721.07031 0.007782
18721.44922 0.007811
18721.82031 0.007841
18722.19922 0.00787
18722.57031 0.007899
18722.94922 0.007929
18723.32031 0.007958
18723.69922 0.007987
18724.07031 0.008017
18724.44922 0.008046
18724.82031 0.008076
18725.19922 0.008107
18725.57031 0.008139
18725.94922 0.008172
18726.32031 0.008204
18726.69922 0.008237
18727.07031 0.00827
18727.44922 0.008302
18727.82031 0.008335
18728.19922 0.008367
18728.57031 0.0084
18728.94922 0.008433
18729.33008 0.008465
18729.69922 0.008498
18730.08008 0.008532
18730.44922 0.008571
18730.83008 0.00861
18731.19922 0.00865
18731.58008 0.008689
18731.94922 0.008728
18732.33008 0.008767
18732.69922 0.008806
18733.08008 0.008846
18733.46094 0.008885
18733.83008 0.008924
18734.21094 0.008963
18734.58008 0.009003
18734.96094 0.009042
18735.33008 0.009079
18735.71094 0.009115
18736.08008 0.009151
18736.46094 0.009187
18736.83008 0.009223
18737.21094 0.00926
18737.58984 0.009296
18737.96094 0.009332
18738.33984 0.009368
18738.71094 0.009405
18739.08984 0.009441
18739.46094 0.009477
18739.83984 0.009513
18740.21094 0.009547
18740.58984 0.009579
18740.96094 0.009611
18741.33984 0.009643
18741.72070 0.009674
18742.08984 0.009706
18742.47070 0.009738
18742.83984 0.00977
18743.22070 0.009801
18743.58984 0.009833
18743.97070 0.009865
18744.34961 0.009897
18744.72070 0.009929
18745.09961 0.009961
18745.47070 0.009993
18745.84961 0.010025
18746.22070 0.010057
18746.59961 0.010089
18746.98047 0.010121
18747.34961 0.010153
18747.73047 0.010185
18748.09961 0.010217
18748.48047 0.010249
18748.84961 0.010281
18749.23047 0.010313
18749.60938 0.010345
18749.98047 0.010377
18750.35938 0.010416
18750.73047 0.010455
18751.10938 0.010495
18751.48047 0.010534
18751.85938 0.010573
18752.24023 0.010613
18752.60938 0.010652
18752.99023 0.010691
18753.35938 0.010731
18753.74023 0.01077
18754.11914 0.010809
18754.49023 0.010849
18754.86914 0.010888
18755.24023 0.010931
18755.61914 0.010974
18755.99023 0.011018
18756.36914 0.011062
18756.75000 0.011106
18757.11914 0.01115
18757.50000 0.011194
18757.86914 0.011238
18758.25000 0.011282
18758.63086 0.011326
18759.00000 0.01137
18759.38086 0.011414
18759.75000 0.011458
18760.13086 0.011505
18760.50977 0.011555
18760.88086 0.011606
18761.25977 0.011656
18761.63086 0.011707
18762.00977 0.011757
18762.39062 0.011808
18762.75977 0.011859
18763.14062 0.011909
18763.50977 0.01196
18763.89062 0.012011
18764.26953 0.012061
18764.64062 0.012112
18765.01953 0.012163
18765.39062 0.012216
18765.76953 0.012269
18766.15039 0.012323
18766.51953 0.012376
18766.90039 0.012429
18767.27930 0.012483
18767.65039 0.012537
18768.02930 0.01259
18768.40039 0.012643
18768.77930 0.012697
18769.16016 0.01275
18769.52930 0.012803
18769.91016 0.012857
18770.28906 0.012908
18770.66016 0.012957
18771.03906 0.013007
18771.41016 0.013057
18771.78906 0.013107
18772.16992 0.013156
18772.53906 0.013206
18772.91992 0.013256
18773.28906 0.013306
18773.66992 0.013355
18774.05078 0.013405
18774.41992 0.013455
18774.80078 0.013505
18775.17969 0.013555
18775.55078 0.013606
18775.92969 0.013657
18776.30078 0.013708
18776.67969 0.013759
18777.06055 0.013811
18777.42969 0.013862
18777.81055 0.013913
18778.18945 0.013964
18778.56055 0.014015
18778.93945 0.014067
18779.31055 0.014118
18779.68945 0.014169
18780.07031 0.014221
18780.43945 0.014277
18780.82031 0.014333
18781.19922 0.01439
18781.57031 0.014446
18781.94922 0.014502
18782.33008 0.014558
18782.69922 0.014615
18783.08008 0.014671
18783.46094 0.014727
18783.83008 0.014783
18784.21094 0.01484
18784.58008 0.014896
18784.96094 0.014952
18785.33984 0.015004
18785.71094 0.015056
18786.08984 0.015108
18786.47070 0.01516
18786.83984 0.015212
18787.22070 0.015264
18787.59961 0.015316
18787.97070 0.015368
18788.34961 0.01542
18788.73047 0.015472
18789.09961 0.015524
18789.48047 0.015575
18789.85938 0.015627
18790.23047 0.015686
18790.60938 0.015749
18790.99023 0.015811
18791.35938 0.015874
18791.74023 0.015936
18792.11914 0.015999
18792.49023 0.016062
18792.86914 0.016124
18793.25000 0.016187
18793.61914 0.01625
18794.00000 0.016312
18794.36914 0.016375
18794.75000 0.016438
18795.13086 0.016503
18795.50977 0.016574
18795.88086 0.016645
18796.25977 0.016716
18796.63086 0.016787
18797.00977 0.016858
18797.39062 0.016929
18797.76953 0.017
18798.14062 0.017071
18798.51953 0.017142
18798.90039 0.017213
18799.26953 0.017284
18799.65039 0.017355
18800.02930 0.017426
18800.40039 0.017498
18800.77930 0.01757
18801.16016 0.017642
18801.52930 0.017715
18801.91016 0.017787
18802.28906 0.017859
18802.66016 0.017931
18803.03906 0.018004
18803.41992 0.018076
18803.78906 0.018148
18804.16992 0.01822
18804.55078 0.018293
18804.92969 0.018365
18805.30078 0.01844
18805.67969 0.018517
18806.05078 0.018592
18806.42969 0.018668
18806.81055 0.018745
18807.18945 0.018821
18807.56055 0.018897
18807.93945 0.018973
18808.32031 0.019049
18808.68945 0.019125
18809.07031 0.019201
18809.44922 0.019277
18809.82031 0.019354
18810.19922 0.019428
18810.58008 0.0195
18810.96094 0.019573
18811.33008 0.019645
18811.71094 0.019718
18812.08984 0.019791
18812.46094 0.019864
18812.83984 0.019936
18813.22070 0.020009
18813.59961 0.020081
18813.97070 0.020154
18814.34961 0.020226
18814.73047 0.020299
18815.09961 0.020373
18815.48047 0.020451
18815.85938 0.020529
18816.23047 0.020607
18816.60938 0.020685
18816.99023 0.020763
18817.36914 0.020841
18817.74023 0.020918
18818.11914 0.020997
18818.50000 0.021075
18818.86914 0.021153
18819.25000 0.021231
18819.63086 0.021309
18820.00977 0.021387
18820.38086 0.021474
18820.75977 0.021561
18821.14062 0.021648
18821.51953 0.021735
18821.89062 0.021823
18822.26953 0.02191
18822.65039 0.021997
18823.01953 0.022084
18823.40039 0.022171
18823.77930 0.022258
18824.16016 0.022346
18824.52930 0.022433
18824.91016 0.02252
18825.28906 0.022613
18825.66016 0.022708
18826.03906 0.022803
18826.41992 0.022898
18826.80078 0.022993
18827.16992 0.023088
18827.55078 0.023183
18827.92969 0.023278
18828.31055 0.023373
18828.67969 0.023468
18829.06055 0.023563
18829.43945 0.023658
18829.81055 0.023753
18830.18945 0.023856
18830.57031 0.023966
18830.94922 0.024076
18831.32031 0.024186
18831.69922 0.024296
18832.08008 0.024406
18832.46094 0.024516
18832.83008 0.024626
18833.21094 0.024736
18833.58984 0.024846
18833.97070 0.024956
18834.33984 0.025066
18834.72070 0.025176
18835.09961 0.025287
18835.48047 0.0254
18835.84961 0.025512
18836.23047 0.025625
18836.60938 0.025737
18836.99023 0.02585
18837.35938 0.025962
18837.74023 0.026075
18838.11914 0.026188
18838.50000 0.0263
18838.88086 0.026413
18839.25000 0.026525
18839.63086 0.026638
18840.00977 0.026751
18840.38086 0.026856
18840.75977 0.026962
18841.14062 0.027068
18841.51953 0.027173
18841.89062 0.027278
18842.26953 0.027384
18842.65039 0.02749
18843.02930 0.027595
18843.41016 0.027701
18843.77930 0.027807
18844.16016 0.027912
18844.53906 0.028018
18844.91992 0.028124
18845.28906 0.028235
18845.66992 0.028348
18846.05078 0.028461
18846.42969 0.028575
18846.80078 0.028688
18847.17969 0.0288
18847.56055 0.028914
18847.93945 0.029027
18848.32031 0.02914
18848.68945 0.029253
18849.07031 0.029366
18849.44922 0.029479
18849.83008 0.029592
18850.21094 0.029707
18850.58008 0.029822
18850.96094 0.029937
18851.33984 0.030053
18851.71094 0.030168
18852.08984 0.030283
18852.47070 0.030399
18852.84961 0.030514
18853.23047 0.030629
18853.60938 0.030745
18853.98047 0.03086
18854.35938 0.030976
18854.74023 0.031091
18855.11914 0.031211
18855.49023 0.031344
18855.86914 0.031475
18856.25000 0.031608
18856.63086 0.03174
18857.00977 0.031872
18857.38086 0.032004
18857.75977 0.032137
18858.14062 0.032269
18858.51953 0.032401
18858.89062 0.032533
18859.26953 0.032666
18859.65039 0.032798
18860.02930 0.032931
18860.41016 0.033069
18860.78906 0.033206
18861.16016 0.033344
18861.53906 0.033481
18861.91992 0.033619
18862.30078 0.033756
18862.67969 0.033894
18863.05078 0.034031
18863.42969 0.034169
18863.81055 0.034307
18864.18945 0.034445
18864.57031 0.034583
18864.93945 0.03472
18865.32031 0.034864
18865.69922 0.035009
18866.08008 0.035155
18866.46094 0.0353
18866.83008 0.035446
18867.21094 0.035591
18867.58984 0.035736
18867.97070 0.035882
18868.34961 0.036027
18868.72070 0.036172
18869.09961 0.036318
18869.48047 0.036463
18869.85938 0.036609
18870.24023 0.036747
18870.61914 0.03688
18870.99023 0.037013
18871.36914 0.037147
18871.75000 0.03728
18872.13086 0.037414
18872.50977 0.037547
18872.88086 0.037681
18873.25977 0.037815
18873.64062 0.037948
18874.01953 0.038082
18874.40039 0.038215
18874.77930 0.038348
18875.15039 0.038484
18875.52930 0.038622
18875.91016 0.03876
18876.28906 0.038898
18876.66992 0.039036
18877.05078 0.039174
18877.41992 0.039312
18877.80078 0.03945
18878.17969 0.039588
18878.56055 0.039725
18878.93945 0.039864
18879.32031 0.040002
18879.69922 0.04014
18880.07031 0.040279
18880.44922 0.040428
18880.83008 0.040576
18881.21094 0.040724
18881.58984 0.040872
18881.96094 0.04102
18882.33984 0.041168
18882.72070 0.041316
18883.09961 0.041464
18883.48047 0.041613
18883.85938 0.041761
18884.24023 0.041909
18884.60938 0.042057
18884.99023 0.042205
18885.36914 0.042366
18885.75000 0.042526
18886.13086 0.042686
18886.50977 0.042847
18886.88086 0.043008
18887.25977 0.043168
18887.64062 0.043329
18888.01953 0.043489
18888.40039 0.04365
18888.77930 0.043811
18889.16016 0.043971
18889.53906 0.044132
18889.91016 0.044293
18890.28906 0.044471
18890.66992 0.044655
18891.05078 0.044839
18891.42969 0.045023
18891.81055 0.045207
18892.18945 0.045391
18892.56055 0.045575
18892.93945 0.045758
18893.32031 0.045942
18893.69922 0.046126
18894.08008 0.04631
18894.46094 0.046495
18894.83984 0.046679
18895.21094 0.04687
18895.58984 0.047067
18895.97070 0.047263
18896.34961 0.04746
18896.73047 0.047656
18897.10938 0.047853
18897.49023 0.04805
18897.86914 0.048247
18898.24023 0.048444
18898.61914 0.048641
18899.00000 0.048838
18899.38086 0.049035
18899.75977 0.049232
18900.14062 0.049423
18900.51953 0.049607
18900.89062 0.049791
18901.26953 0.049975
18901.65039 0.050159
18902.02930 0.050342
18902.41016 0.050526
18902.78906 0.05071
18903.16992 0.050894
18903.55078 0.051078
18903.92969 0.051262
18904.30078 0.051446
18904.67969 0.05163
18905.06055 0.051815
18905.43945 0.052004
18905.82031 0.052193
18906.19922 0.052381
18906.58008 0.05257
18906.96094 0.052759
18907.33984 0.052948
18907.71094 0.053137
18908.08984 0.053326
18908.47070 0.053515
18908.84961 0.053704
18909.23047 0.053893
18909.60938 0.054082
18909.99023 0.054271
18910.36914 0.054461
18910.75000 0.054652
18911.11914 0.054843
18911.50000 0.055033
18911.88086 0.055224
18912.25977 0.055415
18912.64062 0.055606
18913.01953 0.055797
18913.40039 0.055988
18913.77930 0.056178
18914.16016 0.056369
18914.53906 0.05656
18914.91992 0.05675
18915.28906 0.056942
18915.66992 0.057133
18916.05078 0.057324
18916.42969 0.057515
18916.81055 0.057706
18917.18945 0.057899
18917.57031 0.05809
18917.94922 0.058281
18918.33008 0.058472
18918.71094 0.058664
18919.08984 0.058855
18919.46094 0.059046
18919.83984 0.059237
18920.22070 0.059443
18920.59961 0.059657
18920.98047 0.059872
18921.35938 0.060086
18921.74023 0.0603
18922.11914 0.060514
18922.50000 0.060729
18922.88086 0.060944
18923.25977 0.061158
18923.64062 0.061372
18924.01953 0.061586
18924.39062 0.0618
18924.77930 0.062015
18925.15039 0.062232
18925.52930 0.062452
18925.91016 0.062673
18926.28906 0.062893
18926.66992 0.063114
18927.05078 0.063335
18927.42969 0.063555
18927.81055 0.063775
18928.18945 0.063995
18928.57031 0.064217
18928.94922 0.064437
18929.33008 0.064657
18929.71094 0.064877
18930.08984 0.065097
18930.46094 0.065311
18930.83984 0.065524
18931.22070 0.065738
18931.59961 0.065952
18931.98047 0.066166
18932.35938 0.066379
18932.74023 0.066593
18933.11914 0.066807
18933.50000 0.067021
18933.88086 0.067234
18934.25977 0.067449
18934.64062 0.067662
18935.01953 0.067875
18935.40039 0.068075
18935.77930 0.068276
18936.16016 0.068476
18936.53906 0.068676
18936.91992 0.068877
18937.28906 0.069077
18937.66992 0.069276
18938.05078 0.069477
18938.42969 0.069677
18938.81055 0.069877
18939.18945 0.070078
18939.57031 0.070278
18939.94922 0.070478
18940.33008 0.070683
18940.71094 0.070888
18941.08984 0.071093
18941.47070 0.071298
18941.84961 0.071503
18942.23047 0.071708
18942.60938 0.071913
18942.99023 0.072118
18943.36914 0.072324
18943.75000 0.072529
18944.13086 0.072733
18944.50977 0.072939
18944.89062 0.073144
18945.26953 0.073345
18945.65039 0.073546
18946.02930 0.073746
18946.41016 0.073946
18946.78906 0.074146
18947.16992 0.074347
18947.53906 0.074547
18947.91992 0.074746
18948.30078 0.074947
18948.67969 0.075147
18949.06055 0.075348
18949.43945 0.075547
18949.82031 0.075748
18950.19922 0.075951
18950.58008 0.076156
18950.96094 0.076362
18951.33984 0.076567
18951.72070 0.076774
18952.09961 0.076979
18952.48047 0.077185
18952.85938 0.07739
18953.24023 0.077597
18953.61914 0.077802
18954.00000 0.078008
18954.38086 0.078213
18954.75977 0.078419
18955.14062 0.078629
18955.51953 0.078848
18955.90039 0.079065
18956.27930 0.079284
18956.66016 0.079502
18957.03906 0.07972
18957.41992 0.079938
18957.80078 0.080157
18958.17969 0.080374
18958.56055 0.080593
18958.93945 0.08081
18959.32031 0.081029
18959.69922 0.081248
18960.08008 0.081462
18960.46094 0.081665
18960.83984 0.081867
18961.22070 0.082069
18961.59961 0.082271
18961.98047 0.082474
18962.35938 0.082676
18962.74023 0.082878
18963.11914 0.083081
18963.50000 0.083283
18963.88086 0.083486
18964.25977 0.083687
18964.64062 0.08389
18965.01953 0.084092
18965.40039 0.084278
18965.77930 0.084464
18966.16016 0.08465
18966.53906 0.084836
18966.91992 0.085023
18967.30078 0.085209
18967.67969 0.085395
18968.06055 0.085582
18968.43945 0.085767
18968.82031 0.085954
18969.19922 0.08614
18969.58008 0.086326
18969.96094 0.086513
18970.33984 0.086712
18970.72070 0.086913
18971.09961 0.087115
18971.48047 0.087315
18971.85938 0.087517
18972.24023 0.087718
18972.61914 0.087919
18973.00000 0.08812
18973.38086 0.088322
18973.75977 0.088522
18974.14062 0.088724
18974.52930 0.088925
18974.91016 0.089127
18975.28906 0.089318
18975.66992 0.089508
18976.05078 0.089697
18976.42969 0.089885
18976.81055 0.090075
18977.18945 0.090264
18977.57031 0.090454
18977.94922 0.090642
18978.33008 0.090832
18978.71094 0.091021
18979.08984 0.091211
18979.47070 0.091399
18979.84961 0.091589
18980.23047 0.091783
18980.60938 0.091982
18980.99023 0.092179
18981.36914 0.092377
18981.75000 0.092575
18982.13086 0.092774
18982.50977 0.092971
18982.89062 0.093169
18983.26953 0.093367
18983.65039 0.093565
18984.03906 0.093764
18984.41016 0.093961
18984.78906 0.094159
18985.17969 0.094361
18985.56055 0.094566
18985.93945 0.094772
18986.32031 0.094976
18986.69922 0.095182
18987.08008 0.095387
18987.46094 0.095593
18987.83984 0.095799
18988.22070 0.096004
18988.59961 0.096209
18988.98047 0.096414
18989.35938 0.09662
18989.74023 0.096825
18990.11914 0.09703
18990.50000 0.097233
18990.88086 0.097437
18991.25977 0.097639
18991.64062 0.097843
18992.02930 0.098046
18992.41016 0.098249
18992.78906 0.098453
18993.16992 0.098656
18993.55078 0.09886
18993.92969 0.099063
18994.31055 0.099266
18994.68945 0.099469
18995.07031 0.099666
18995.44922 0.099836
18995.83008 0.100005
18996.21094 0.100175
18996.58984 0.100345
18996.97070 0.100515
18997.35938 0.100685
18997.74023 0.100854
18998.11914 0.101024
18998.50000 0.101194
18998.88086 0.101364
18999.25977 0.101534
18999.64062 0.101704
19000.01953 0.101872
19000.40039 0.102026
19000.77930 0.102181
19001.16016 0.102335
19001.53906 0.10249
19001.91992 0.102645
19002.30078 0.1028
19002.68945 0.102954
19003.07031 0.103109
19003.44922 0.103264
19003.83008 0.103418
19004.21094 0.103573
19004.58984 0.103728
19004.97070 0.103882
19005.34961 0.104016
19005.73047 0.104149
19006.10938 0.104281
19006.49023 0.104413
19006.88086 0.104545
19007.25977 0.104678
19007.64062 0.10481
19008.01953 0.104943
19008.40039 0.105075
19008.77930 0.105207
19009.16016 0.105339
19009.53906 0.105472
19009.91992 0.105604
19010.30078 0.105741
19010.68945 0.105879
19011.07031 0.106016
19011.44922 0.106154
19011.83008 0.106292
19012.21094 0.10643
19012.58984 0.106568
19012.97070 0.106706
19013.34961 0.106845
19013.73047 0.106983
19014.11914 0.10712
19014.50000 0.107259
19014.88086 0.107396
19015.25977 0.107528
19015.64062 0.107657
19016.01953 0.107786
19016.40039 0.107914
19016.77930 0.108044
19017.16016 0.108173
19017.53906 0.108301
19017.92969 0.10843
19018.31055 0.108559
19018.68945 0.108688
19019.07031 0.108816
19019.44922 0.108946
19019.83008 0.109075
19020.21094 0.109198
19020.58984 0.109318
19020.97070 0.109437
19021.35938 0.109557
19021.74023 0.109677
19022.11914 0.109797
19022.50000 0.109916
19022.88086 0.110036
19023.25977 0.110155
19023.64062 0.110275
19024.02930 0.110395
19024.41016 0.110515
19024.78906 0.110634
19025.16992 0.110752
19025.55078 0.110866
19025.92969 0.11098
19026.31055 0.111095
19026.68945 0.111209
19027.08008 0.111324
19027.46094 0.111438
19027.83984 0.111553
19028.22070 0.111667
19028.59961 0.111782
19028.98047 0.111896
19029.35938 0.11201
19029.74023 0.112125
19030.13086 0.112233
19030.50977 0.112326
19030.89062 0.11242
19031.26953 0.112514
19031.65039 0.112608
19032.02930 0.112702
19032.41016 0.112796
19032.80078 0.11289
19033.17969 0.112984
19033.56055 0.113077
19033.93945 0.113171
19034.32031 0.113265
19034.69922 0.113359
19035.08984 0.113452
19035.47070 0.113542
19035.84961 0.113632
19036.23047 0.113722
19036.60938 0.113812
19036.99023 0.113902
19037.38086 0.113992
19037.75977 0.114082
19038.14062 0.114171
19038.51953 0.114262
19038.90039 0.114351
19039.27930 0.114441
19039.66016 0.114531
19040.03906 0.11462
19040.42969 0.114695
19040.81055 0.114772
19041.18945 0.114847
19041.57031 0.114923
19041.94922 0.114999
19042.33008 0.115075
19042.72070 0.115151
19043.09961 0.115227
19043.48047 0.115303
19043.85938 0.115379
19044.24023 0.115455
19044.63086 0.115531
19045.00977 0.115607
19045.39062 0.115683
19045.76953 0.115759
19046.15039 0.115836
19046.52930 0.115912
19046.91016 0.115988
19047.30078 0.116065
19047.67969 0.11614
19048.06055 0.116217
19048.43945 0.116293
19048.82031 0.11637
19049.21094 0.116446
19049.58984 0.116522
19049.97070 0.116598
19050.34961 0.11667
19050.73047 0.11674
19051.11914 0.116811
19051.50000 0.116882
19051.88086 0.116953
19052.25977 0.117024
19052.64062 0.117095
19053.01953 0.117166
19053.40039 0.117236
19053.78906 0.117307
19054.16992 0.117378
19054.55078 0.117449
19054.92969 0.11752
19055.31055 0.117581
19055.69922 0.117641
19056.08008 0.1177
19056.46094 0.117759
19056.83984 0.117818
19057.22070 0.117877
19057.60938 0.117936
19057.99023 0.117996
19058.36914 0.118055
19058.75000 0.118114
19059.13086 0.118173
19059.51953 0.118232
19059.90039 0.118292
19060.27930 0.118342
19060.66016 0.11839
19061.03906 0.118438
19061.42969 0.118486
19061.81055 0.118534
19062.18945 0.118582
19062.57031 0.11863
19062.94922 0.118677
19063.33984 0.118725
19063.72070 0.118773
19064.09961 0.118821
19064.48047 0.118869
19064.86914 0.118917
19065.25000 0.118958
19065.63086 0.118996
19066.00977 0.119034
19066.39062 0.119072
19066.77930 0.11911
19067.16016 0.119148
19067.53906 0.119186
19067.91992 0.119224
19068.30078 0.119262
19068.68945 0.119301
19069.07031 0.119339
19069.44922 0.119376
19069.83008 0.119415
19070.21094 0.119446
19070.59961 0.119473
19070.98047 0.119501
19071.35938 0.119528
19071.74023 0.119555
19072.13086 0.119582
19072.50977 0.119609
19072.89062 0.119636
19073.26953 0.119663
19073.65039 0.119691
19074.03906 0.119718
19074.41992 0.119745
19074.80078 0.119772
19075.17969 0.119793
19075.57031 0.119807
19075.94922 0.119822
19076.33008 0.119837
19076.71094 0.119851
19077.09961 0.119866
19077.48047 0.11988
19077.85938 0.119895
19078.24023 0.11991
19078.61914 0.119924
19079.00977 0.119939
19079.39062 0.119953
19079.76953 0.119968
19080.15039 0.119985
19080.53906 0.120005
19080.91992 0.120025
19081.30078 0.120045
19081.67969 0.120065
19082.07031 0.120085
19082.44922 0.120105
19082.83008 0.120125
19083.21094 0.120145
19083.59961 0.120165
19083.98047 0.120186
19084.35938 0.120206
19084.74023 0.120226
19085.11914 0.120242
19085.50977 0.120252
19085.89062 0.120261
19086.26953 0.12027
19086.66016 0.12028
19087.03906 0.120289
19087.41992 0.120298
19087.80078 0.120308
19088.18945 0.120317
19088.57031 0.120326
19088.94922 0.120336
19089.33008 0.120345
19089.72070 0.120354
19090.09961 0.120363
19090.48047 0.120371
19090.85938 0.12038
19091.25000 0.120387
19091.63086 0.120396
19092.00977 0.120404
19092.39062 0.120412
19092.77930 0.12042
19093.16016 0.120428
19093.53906 0.120436
19093.92969 0.120444
19094.31055 0.120452
19094.68945 0.12046
19095.07031 0.120467
19095.46094 0.12047
19095.83984 0.120473
19096.22070 0.120476
19096.59961 0.120479
19096.99023 0.120482
19097.36914 0.120485
19097.75000 0.120488
19098.13086 0.120491
19098.51953 0.120493
19098.90039 0.120496
19099.27930 0.120499
19099.66992 0.120502
19100.05078 0.120504
19100.42969 0.120501
19100.81055 0.120498
19101.19922 0.120495
19101.58008 0.120491
19101.96094 0.120488
19102.34961 0.120485
19102.73047 0.120482
19103.10938 0.120478
19103.49023 0.120475
19103.88086 0.120472
19104.25977 0.120469
19104.64062 0.120465
19105.02930 0.120462
19105.41016 0.120454
19105.78906 0.120447
19106.16992 0.120439
19106.56055 0.120432
19106.93945 0.120424
19107.32031 0.120417
19107.71094 0.120409
19108.08984 0.120402
19108.47070 0.120394
19108.85938 0.120387
19109.24023 0.120379
19109.61914 0.120372
19110.00000 0.120364
19110.39062 0.120367
19110.76953 0.12037
19111.15039 0.120373
19111.53906 0.120375
19111.91992 0.120378
19112.30078 0.120381
19112.68945 0.120384
19113.07031 0.120387
19113.44922 0.120389
19113.83008 0.120392
19114.22070 0.120395
19114.59961 0.120398
19114.98047 0.1204
19115.36914 0.120383
19115.75000 0.120364
19116.13086 0.120345
19116.51953 0.120326
19116.90039 0.120307
19117.27930 0.120289
19117.66016 0.12027
19118.05078 0.120251
19118.42969 0.120232
19118.81055 0.120214
19119.19922 0.120195
19119.58008 0.120176
19119.96094 0.120157
19120.34961 0.120144
19120.73047 0.120131
19121.10938 0.120118
19121.50000 0.120105
19121.88086 0.120092
19122.25977 0.12008
19122.65039 0.120067
19123.02930 0.120054
19123.41016 0.120041
19123.80078 0.120028
19124.17969 0.120015
19124.56055 0.120002
19124.94922 0.119989
19125.33008 0.119981
19125.71094 0.119973
19126.09961 0.119966
19126.48047 0.119958
19126.85938 0.11995
19127.25000 0.119943
19127.63086 0.119935
19128.00977 0.119928
19128.40039 0.11992
19128.77930 0.119912
19129.16016 0.119904
19129.55078 0.119897
19129.92969 0.119889
19130.31055 0.119874
19130.69922 0.119858
19131.08008 0.119841
19131.46094 0.119824
19131.84961 0.119808
19132.23047 0.119791
19132.60938 0.119775
19133.00000 0.119758
19133.38086 0.119741
19133.75977 0.119725
19134.15039 0.119708
19134.52930 0.119692
19134.91016 0.119675
19135.30078 0.119659
19135.67969 0.119642
19136.06055 0.119626
19136.44922 0.11961
19136.83008 0.119594
19137.21094 0.119578
19137.59961 0.119561
19137.98047 0.119545
19138.36914 0.119529
19138.75000 0.119513
19139.13086 0.119497
19139.51953 0.11948
19139.90039 0.119464
19140.27930 0.119446
19140.66992 0.119427
19141.05078 0.119409
19141.42969 0.11939
19141.82031 0.119371
19142.19922 0.119353
19142.58984 0.119334
19142.97070 0.119315
19143.34961 0.119296
19143.74023 0.119278
19144.11914 0.119259
19144.50000 0.11924
19144.89062 0.119221
19145.26953 0.119203
19145.65039 0.119185
19146.03906 0.119167
19146.41992 0.119149
19146.81055 0.119131
19147.18945 0.119113
19147.57031 0.119095
19147.96094 0.119077
19148.33984 0.119059
19148.72070 0.119041
19149.10938 0.119023
19149.49023 0.119004
19149.88086 0.118986
19150.25977 0.118967
19150.64062 0.118948
19151.02930 0.118928
19151.41016 0.118908
19151.78906 0.118889
19152.17969 0.118869
19152.56055 0.118849
19152.94922 0.11883
19153.33008 0.11881
19153.71094 0.11879
19154.09961 0.118771
19154.48047 0.118751
19154.86914 0.118731
19155.25000 0.118715
19155.63086 0.118701
19156.01953 0.118686
19156.40039 0.118672
19156.78906 0.118657
19157.16992 0.118643
19157.55078 0.118628
19157.93945 0.118614
19158.32031 0.118599
19158.71094 0.118585
19159.08984 0.11857
19159.47070 0.118556
19159.85938 0.118541
19160.24023 0.11852
19160.63086 0.118495
19161.00977 0.11847
19161.39062 0.118445
19161.77930 0.11842
19162.16016 0.118395
19162.53906 0.11837
19162.92969 0.118345
19163.31055 0.11832
19163.69922 0.118295
19164.08008 0.11827
19164.46094 0.118245
19164.84961 0.11822
19165.23047 0.118201
19165.61914 0.118186
19166.00000 0.118171
19166.39062 0.118156
19166.76953 0.118142
19167.15039 0.118127
19167.53906 0.118112
19167.91992 0.118097
19168.31055 0.118083
19168.68945 0.118068
19169.07031 0.118053
19169.46094 0.118038
19169.83984 0.118023
19170.23047 0.118007
19170.60938 0.117991
19171.00000 0.117974
19171.38086 0.117957
19171.75977 0.11794
19172.15039 0.117923
19172.52930 0.117906
19172.91992 0.117889
19173.30078 0.117872
19173.68945 0.117856
19174.07031 0.117839
19174.46094 0.117822
19174.83984 0.117805
19175.22070 0.117785
19175.60938 0.117763
19175.99023 0.117741
19176.38086 0.11772
19176.75977 0.117697
19177.14062 0.117676
19177.52930 0.117654
19177.91016 0.117632
19178.30078 0.11761
19178.67969 0.117588
19179.07031 0.117566
19179.44922 0.117544
19179.83008 0.117522
19180.22070 0.1175
19180.59961 0.117478
19180.99023 0.117456
19181.36914 0.117434
19181.75977 0.117412
19182.14062 0.11739
19182.52930 0.117368
19182.91016 0.117346
19183.28906 0.117324
19183.67969 0.117302
19184.06055 0.11728
19184.44922 0.117258
19184.83008 0.117236
19185.22070 0.11722
19185.59961 0.117209
19185.99023 0.117198
19186.36914 0.117187
19186.75977 0.117175
19187.14062 0.117164
19187.51953 0.117153
19187.91016 0.117142
19188.28906 0.117131
19188.67969 0.117119
19189.06055 0.117108
19189.44922 0.117097
19189.83008 0.117086
19190.22070 0.117066
19190.59961 0.117041
19190.99023 0.117015
19191.36914 0.11699
19191.75000 0.116965
19192.14062 0.116939
19192.51953 0.116914
19192.91016 0.116888
19193.28906 0.116863
19193.67969 0.116837
19194.06055 0.116812
19194.44922 0.116786
19194.83008 0.116761
19195.22070 0.116743
19195.59961 0.11673
19195.99023 0.116718
19196.36914 0.116706
19196.75977 0.116693
19197.14062 0.116681
19197.52930 0.116668
19197.91016 0.116656
19198.28906 0.116643
19198.67969 0.116631
19199.06055 0.116618
19199.44922 0.116606
19199.83008 0.116593
19200.22070 0.116577
19200.59961 0.116559
19200.99023 0.11654
19201.36914 0.116521
19201.75977 0.116502
19202.14062 0.116484
19202.52930 0.116465
19202.91016 0.116446
19203.30078 0.116428
19203.67969 0.116409
19204.07031 0.11639
19204.44922 0.116372
19204.83984 0.116353
19205.22070 0.116334
19205.60938 0.116317
19205.99023 0.116299
19206.38086 0.116281
19206.75977 0.116263
19207.15039 0.116245
19207.52930 0.116227
19207.91992 0.116209
19208.30078 0.116191
19208.68945 0.116173
19209.07031 0.116155
19209.46094 0.116137
19209.83984 0.116119
19210.23047 0.116103
19210.60938 0.116088
19211.00000 0.116073
19211.38086 0.116058
19211.76953 0.116043
19212.15039 0.116029
19212.53906 0.116014
19212.91992 0.115999
19213.31055 0.115984
19213.68945 0.115969
19214.08008 0.115954
19214.46094 0.115939
19214.84961 0.115924
19215.23047 0.115911
19215.61914 0.115898
19216.00000 0.115885
19216.39062 0.115872
19216.76953 0.115859
19217.16016 0.115847
19217.53906 0.115834
19217.92969 0.115821
19218.31055 0.115808
19218.69922 0.115795
19219.08008 0.115782
19219.47070 0.11577
19219.84961 0.115757
19220.24023 0.115743
19220.61914 0.115729
19221.00977 0.115716
19221.39062 0.115702
19221.77930 0.115688
19222.16016 0.115674
19222.55078 0.11566
19222.93945 0.115646
19223.32031 0.115632
19223.71094 0.115619
19224.08984 0.115605
19224.48047 0.115591
19224.85938 0.115577
19225.25000 0.115562
19225.63086 0.115546
19226.01953 0.11553
19226.40039 0.115515
19226.78906 0.115499
19227.16992 0.115483
19227.56055 0.115467
19227.93945 0.115451
19228.33008 0.115435
19228.71094 0.11542
19229.09961 0.115404
19229.48047 0.115388
19229.86914 0.115372
19230.25977 0.115358
19230.64062 0.115345
19231.02930 0.115333
19231.41016 0.11532
19231.80078 0.115307
19232.17969 0.115294
19232.57031 0.115281
19232.94922 0.115268
19233.33984 0.115255
19233.72070 0.115242
19234.10938 0.115229
19234.50000 0.115216
19234.88086 0.115203
19235.26953 0.115192
19235.65039 0.115181
19236.03906 0.115171
19236.41992 0.11516
19236.81055 0.11515
19237.19922 0.115139
19237.58008 0.115128
19237.96094 0.115118
19238.34961 0.115107
19238.74023 0.115097
19239.11914 0.115086
19239.50977 0.115076
19239.89062 0.115065
19240.27930 0.115058
19240.66016 0.115052
19241.05078 0.115046
19241.43945 0.11504
19241.82031 0.115034
19242.21094 0.115028
19242.58984 0.115022
19242.98047 0.115016
19243.35938 0.11501
19243.75000 0.115004
19244.13086 0.114999
19244.51953 0.114992
19244.91016 0.114987
19245.28906 0.114976
19245.67969 0.114964
19246.06055 0.114951
19246.44922 0.114939
19246.83984 0.114927
19247.22070 0.114915
19247.60938 0.114903
19247.99023 0.114891
19248.38086 0.114879
19248.75977 0.114867
19249.15039 0.114854
19249.53906 0.114842
19249.91992 0.11483
19250.31055 0.114821
19250.68945 0.114812
19251.08008 0.114804
19251.46094 0.114795
19251.84961 0.114787
19252.24023 0.114779
19252.61914 0.11477
19253.00977 0.114762
19253.39062 0.114753
19253.77930 0.114745
19254.16992 0.114736
19254.55078 0.114728
19254.93945 0.114719
19255.32031 0.114713
19255.71094 0.114707
19256.09961 0.114701
19256.48047 0.114696
19256.86914 0.11469
19257.25000 0.114684
19257.64062 0.114678
19258.02930 0.114672
19258.41016 0.114667
19258.80078 0.114661
19259.17969 0.114655
19259.57031 0.114649
19259.96094 0.114643
19260.33984 0.114634
19260.73047 0.114624
19261.10938 0.114614
19261.50000 0.114604
19261.88086 0.114594
19262.26953 0.114584
19262.66016 0.114574
19263.03906 0.114564
19263.42969 0.114554
19263.81055 0.114544
19264.19922 0.114534
19264.58984 0.114525
19264.97070 0.114515
19265.35938 0.114518
19265.75000 0.114523
19266.13086 0.114528
19266.51953 0.114532
19266.90039 0.114537
19267.28906 0.114542
19267.67969 0.114547
19268.06055 0.114551
19268.44922 0.114556
19268.83008 0.114561
19269.22070 0.114565
19269.60938 0.11457
19269.99023 0.114575
19270.38086 0.114565
19270.76953 0.114555
19271.15039 0.114544
19271.53906 0.114534
19271.91992 0.114523
19272.31055 0.114513
19272.69922 0.114503
19273.08008 0.114492
19273.47070 0.114482
19273.85938 0.114472
19274.24023 0.114461
19274.63086 0.114451
19275.00977 0.114441
19275.40039 0.114443
19275.78906 0.114446
19276.16992 0.114448
19276.56055 0.11445
19276.94922 0.114452
19277.33008 0.114455
19277.72070 0.114457
19278.10938 0.114459
19278.49023 0.114461
19278.88086 0.114464
19279.25977 0.114466
19279.65039 0.114468
19280.03906 0.11447
19280.41992 0.114462
19280.81055 0.114455
19281.19922 0.114447
19281.58008 0.11444
19281.97070 0.114432
19282.35938 0.114425
19282.74023 0.114417
19283.13086 0.11441
19283.50977 0.114402
19283.90039 0.114395
19284.28906 0.114387
19284.66992 0.11438
19285.06055 0.114373
19285.44922 0.114366
19285.83008 0.11436
19286.22070 0.114354
19286.60938 0.114348
19286.99023 0.114342
19287.38086 0.114336
19287.76953 0.11433
19288.15039 0.114324
19288.53906 0.114318
19288.92969 0.114311
19289.31055 0.114305
19289.69922 0.114299
19290.08984 0.114296
19290.47070 0.114303
19290.85938 0.11431
19291.25000 0.114317
19291.63086 0.114324
19292.01953 0.114331
19292.41016 0.114338
19292.78906 0.114345
19293.17969 0.114352
19293.56055 0.114359
19293.94922 0.114366
19294.33984 0.114373
19294.72070 0.11438
19295.10938 0.114384
19295.50000 0.114381
19295.88086 0.114378
19296.26953 0.114374
19296.66016 0.114371
19297.03906 0.114368
19297.42969 0.114365
19297.82031 0.114362
19298.21094 0.114358
19298.58984 0.114355
19298.98047 0.114352
19299.36914 0.114349
19299.75000 0.114346
19300.14062 0.114345
19300.52930 0.11435
19300.91016 0.114355
19301.30078 0.11436
19301.68945 0.114365
19302.07031 0.114369
19302.46094 0.114374
19302.84961 0.114379
19303.23047 0.114384
19303.61914 0.114389
19304.00977 0.114393
19304.39062 0.114398
19304.77930 0.114403
19305.16992 0.114403
19305.56055 0.114398
19305.93945 0.114392
19306.33008 0.114386
19306.72070 0.11438
19307.09961 0.114374
19307.49023 0.114369
19307.88086 0.114363
19308.25977 0.114357
19308.65039 0.114351
19309.03906 0.114345
19309.42969 0.114339
19309.81055 0.114334
19310.19922 0.114334
19310.58984 0.114341
19310.97070 0.114348
19311.35938 0.114354
19311.75000 0.114361
19312.13086 0.114368
19312.51953 0.114375
19312.91016 0.114381
19313.28906 0.114388
19313.67969 0.114395
19314.07031 0.114401
19314.46094 0.114408
19314.83984 0.114415
19315.23047 0.114419
19315.61914 0.114421
19316.00977 0.114423
19316.39062 0.114426
19316.77930 0.114428
19317.16992 0.11443
19317.55078 0.114432
19317.93945 0.114434
19318.33008 0.114437
19318.71094 0.114439
19319.09961 0.114441
19319.49023 0.114443
19319.88086 0.114446
19320.25977 0.114448
19320.65039 0.11445
19321.03906 0.114452
19321.42969 0.114454
19321.81055 0.114456
19322.19922 0.114458
19322.58984 0.11446
19322.97070 0.114462
19323.35938 0.114464
19323.75000 0.114466
19324.14062 0.114468
19324.51953 0.11447
19324.91016 0.114472
19325.30078 0.114474
19325.68945 0.114475
19326.07031 0.114476
19326.46094 0.114477
19326.84961 0.114478
19327.23047 0.114479
19327.61914 0.11448
19328.00977 0.114481
19328.40039 0.114482
19328.78906 0.114483
19329.16992 0.114484
19329.56055 0.114485
19329.94922 0.114486
19330.33008 0.11449
19330.72070 0.114494
19331.10938 0.114498
19331.50000 0.114503
19331.88086 0.114507
19332.26953 0.114511
19332.66016 0.114516
19333.03906 0.11452
19333.42969 0.114525
19333.82031 0.114529
19334.21094 0.114533
19334.59961 0.114538
19334.98047 0.114542
19335.36914 0.114543
19335.75977 0.114544
19336.15039 0.114545
19336.52930 0.114546
19336.91992 0.114547
19337.31055 0.114548
19337.69922 0.114549
19338.08008 0.11455
19338.47070 0.114551
19338.85938 0.114552
19339.25000 0.114553
19339.63086 0.114554
19340.01953 0.114555
19340.41016 0.114565
19340.80078 0.114576
19341.17969 0.114586
19341.57031 0.114596
19341.96094 0.114607
19342.34961 0.114617
19342.73047 0.114627
19343.11914 0.114637
19343.50977 0.114648
19343.90039 0.114658
19344.28906 0.114668
19344.66992 0.114679
19345.06055 0.114687
19345.44922 0.114689
19345.83984 0.11469
19346.22070 0.114692
19346.60938 0.114693
19347.00000 0.114695
19347.39062 0.114696
19347.77930 0.114697
19348.16016 0.114699
19348.55078 0.1147
19348.93945 0.114701
19349.33008 0.114703
19349.71094 0.114704
19350.09961 0.114707
19350.49023 0.114711
19350.88086 0.114715
19351.26953 0.11472
19351.65039 0.114724
19352.03906 0.114728
19352.42969 0.114733
19352.82031 0.114737
19353.21094 0.114742
19353.58984 0.114746
19353.98047 0.114751
19354.36914 0.114755
19354.75977 0.114759
19355.14062 0.114767
19355.52930 0.114779
19355.91992 0.114792
19356.31055 0.114805
19356.69922 0.114817
19357.08008 0.11483
19357.47070 0.114843
19357.85938 0.114855
19358.25000 0.114868
19358.63086 0.114881
19359.01953 0.114893
19359.41016 0.114906
19359.80078 0.114919
19360.18945 0.114925
19360.57031 0.114924
19360.96094 0.114923
19361.34961 0.114922
19361.74023 0.114922
19362.13086 0.114921
19362.51953 0.11492
19362.90039 0.11492
19363.28906 0.114919
19363.67969 0.114918
19364.07031 0.114917
19364.46094 0.114917
19364.83984 0.114916
19365.23047 0.114923
19365.61914 0.114936
19366.00977 0.114949
19366.40039 0.114962
19366.77930 0.114975
19367.16992 0.114988
19367.56055 0.115001
19367.94922 0.115014
19368.33984 0.115027
19368.72070 0.11504
19369.10938 0.115053
19369.50000 0.115066
19369.89062 0.115079
19370.27930 0.115084
19370.66992 0.115085
19371.05078 0.115086
19371.43945 0.115088
19371.83008 0.115089
19372.22070 0.11509
19372.60938 0.115092
19373.00000 0.115093
19373.38086 0.115095
19373.76953 0.115096
19374.16016 0.115098
19374.55078 0.115099
19374.93945 0.1151
19375.32031 0.11511
19375.71094 0.115121
19376.09961 0.115131
19376.49023 0.115142
19376.88086 0.115153
19377.26953 0.115164
19377.65039 0.115175
19378.03906 0.115186
19378.42969 0.115197
19378.82031 0.115208
19379.21094 0.115219
19379.59961 0.11523
19379.98047 0.115241
19380.36914 0.115243
19380.75977 0.115246
19381.15039 0.115248
19381.53906 0.11525
19381.92969 0.115252
19382.32031 0.115254
19382.71094 0.115257
19383.08984 0.115259
19383.48047 0.115261
19383.86914 0.115264
19384.25977 0.115266
19384.65039 0.115268
19385.03906 0.115271
19385.41992 0.115285
19385.81055 0.115299
19386.19922 0.115313
19386.58984 0.115327
19386.98047 0.115341
19387.36914 0.115355
19387.75000 0.115369
19388.14062 0.115383
19388.52930 0.115397
19388.91992 0.115411
19389.31055 0.115425
19389.69922 0.115439
19390.08984 0.11545
19390.47070 0.115451
19390.85938 0.115452
19391.25000 0.115453
19391.64062 0.115455
19392.02930 0.115456
19392.41992 0.115457
19392.81055 0.115458
19393.19922 0.115459
19393.58008 0.11546
19393.97070 0.115461
19394.35938 0.115462
19394.75000 0.115463
19395.14062 0.115469
19395.52930 0.115482
19395.91992 0.115495
19396.30078 0.115508
19396.68945 0.115521
19397.08008 0.115534
19397.47070 0.115547
19397.85938 0.11556
19398.25000 0.115573
19398.64062 0.115586
19399.02930 0.115599
19399.41016 0.115612
19399.80078 0.115625
19400.18945 0.115635
19400.58008 0.11564
19400.97070 0.115646
19401.35938 0.115652
19401.75000 0.115658
19402.14062 0.115664
19402.52930 0.11567
19402.91016 0.115676
19403.30078 0.115681
19403.68945 0.115687
19404.08008 0.115693
19404.47070 0.115699
19404.85938 0.115705
19405.25000 0.115711
19405.64062 0.115717
19406.02930 0.115723
19406.41016 0.115729
19406.80078 0.115735
19407.18945 0.115741
19407.58008 0.115748
19407.97070 0.115754
19408.35938 0.11576
19408.75000 0.115766
19409.14062 0.115772
19409.52930 0.115778
19409.91992 0.115784
19410.30078 0.115797
19410.68945 0.115812
19411.08008 0.115827
19411.47070 0.115843
19411.85938 0.115858
19412.25000 0.115873
19412.64062 0.115888
19413.02930 0.115903
19413.41992 0.115918
19413.80078 0.115933
19414.19922 0.115948
19414.58008 0.115963
19414.97070 0.115978
19415.35938 0.115985
19415.75000 0.115992
19416.14062 0.115999
19416.52930 0.116005
19416.91992 0.116012
19417.31055 0.116018
19417.69922 0.116025
19418.08984 0.116032
19418.47070 0.116038
19418.85938 0.116045
19419.25000 0.116051
19419.64062 0.116058
19420.02930 0.116065
19420.41992 0.116074
19420.81055 0.116084
19421.19922 0.116094
19421.58984 0.116103
19421.98047 0.116113
19422.36914 0.116123
19422.75977 0.116132
19423.15039 0.116142
19423.53906 0.116151
19423.91992 0.116161
19424.31055 0.11617
19424.69922 0.11618
19425.08984 0.11619
19425.48047 0.1162
19425.86914 0.11621
19426.25977 0.11622
19426.65039 0.11623
19427.03906 0.11624
19427.42969 0.11625
19427.82031 0.11626
19428.21094 0.116271
19428.59961 0.116281
19428.99023 0.116291
19429.36914 0.116301
19429.75977 0.116311
19430.15039 0.11632
19430.53906 0.116327
19430.92969 0.116334
19431.32031 0.116341
19431.71094 0.116348
19432.09961 0.116355
19432.49023 0.116362
19432.88086 0.11637
19433.26953 0.116377
19433.66016 0.116384
19434.05078 0.116391
19434.43945 0.116398
19434.83008 0.116405
19435.22070 0.11641
19435.60938 0.116412
19436.00000 0.116415
19436.38086 0.116417
19436.77930 0.11642
19437.16016 0.116422
19437.55078 0.116425
19437.93945 0.116427
19438.33008 0.11643
19438.72070 0.116432
19439.10938 0.116435
19439.50000 0.116437
19439.89062 0.11644
19440.27930 0.116446
19440.66992 0.116454
19441.06055 0.116462
19441.44922 0.11647
19441.83984 0.116477
19442.23047 0.116485
19442.61914 0.116493
19443.00977 0.116501
19443.40039 0.116509
19443.78906 0.116516
19444.17969 0.116524
19444.57031 0.116532
19444.96094 0.11654
19445.34961 0.116548
19445.74023 0.116556
19446.13086 0.116564
19446.51953 0.116572
19446.90039 0.11658
19447.28906 0.116588
19447.68945 0.116596
19448.07031 0.116604
19448.46094 0.116612
19448.84961 0.11662
19449.24023 0.116628
19449.63086 0.116636
19450.01953 0.116644
19450.41016 0.116653
19450.80078 0.116662
19451.18945 0.116672
19451.58008 0.116681
19451.97070 0.11669
19452.35938 0.1167
19452.75000 0.116709
19453.14062 0.116718
19453.52930 0.116727
19453.91992 0.116737
19454.31055 0.116746
19454.69922 0.116755
19455.08984 0.116763
19455.48047 0.116765
19455.86914 0.116768
19456.25977 0.11677
19456.65039 0.116772
19457.03906 0.116775
19457.42969 0.116777
19457.82031 0.116779
19458.21094 0.116782
19458.59961 0.116784
19458.99023 0.116786
19459.38086 0.116789
19459.76953 0.116791
19460.16016 0.116795
19460.55078 0.116803
19460.93945 0.116811
19461.33008 0.116818
19461.72070 0.116826
19462.10938 0.116834
19462.50000 0.116841
19462.89062 0.116849
19463.27930 0.116856
19463.66992 0.116864
19464.06055 0.116872
19464.44922 0.116879
19464.83984 0.116887
19465.23047 0.116894
19465.61914 0.116901
19466.00977 0.116907
19466.40039 0.116914
19466.78906 0.116921
19467.17969 0.116928
19467.57031 0.116935
19467.96094 0.116942
19468.34961 0.116948
19468.74023 0.116955
19469.13086 0.116962
19469.51953 0.116969
19469.91016 0.116975
19470.30078 0.116986
19470.68945 0.116997
19471.08008 0.117008
19471.47070 0.117019
19471.86914 0.11703
19472.25000 0.117042
19472.64062 0.117053
19473.03906 0.117064
19473.42969 0.117075
19473.82031 0.117086
19474.21094 0.117098
19474.59961 0.117109
19474.99023 0.11712
19475.38086 0.117119
19475.76953 0.117117
19476.16016 0.117115
19476.55078 0.117113
19476.93945 0.117111
19477.33008 0.11711
19477.72070 0.117108
19478.10938 0.117106
19478.50000 0.117104
19478.89062 0.117102
19479.27930 0.1171
19479.66992 0.117098
19480.06055 0.117097
19480.44922 0.117101
19480.83984 0.117105
19481.23047 0.117109
19481.61914 0.117113
19482.00977 0.117117
19482.40039 0.117121
19482.78906 0.117124
19483.18945 0.117128
19483.58008 0.117132
19483.97070 0.117136
19484.35938 0.11714
19484.75000 0.117143
19485.14062 0.117149
19485.52930 0.117156
19485.91992 0.117164
19486.31055 0.117172
19486.69922 0.11718
19487.08984 0.117188
19487.48047 0.117195
19487.86914 0.117203
19488.25977 0.117211
19488.65039 0.117219
19489.03906 0.117226
19489.42969 0.117234
19489.82031 0.117242
19490.21094 0.117249
19490.60938 0.117256
19491.00000 0.117263
19491.39062 0.11727
19491.77930 0.117277
19492.16992 0.117284
19492.56055 0.117292
19492.94922 0.117299
19493.33984 0.117306
19493.73047 0.117313
19494.11914 0.11732
19494.50977 0.117327
19494.90039 0.117334
19495.28906 0.117336
19495.67969 0.117335
19496.07031 0.117335
19496.46094 0.117335
19496.85938 0.117335
19497.25000 0.117335
19497.64062 0.117335
19498.02930 0.117335
19498.41992 0.117335
19498.81055 0.117334
19499.19922 0.117334
19499.58984 0.117334
19499.98047 0.117334
19500.36914 0.117339
19500.75977 0.117344
19501.15039 0.117349
19501.53906 0.117354
19501.93945 0.117359
19502.33008 0.117363
19502.72070 0.117368
19503.10938 0.117373
19503.50000 0.117378
19503.89062 0.117383
19504.27930 0.117388
19504.66992 0.117393
19505.06055 0.117398
19505.46094 0.1174
19505.84961 0.117402
19506.24023 0.117404
19506.63086 0.117406
19507.01953 0.117408
19507.41016 0.11741
19507.80078 0.117412
19508.18945 0.117414
19508.58008 0.117416
19508.97070 0.117418
19509.35938 0.11742
19509.75000 0.117422
19510.15039 0.117426
19510.53906 0.117431
19510.92969 0.117437
19511.32031 0.117443
19511.71094 0.117449
19512.09961 0.117455
19512.49023 0.117461
19512.88086 0.117466
19513.26953 0.117472
19513.66992 0.117478
19514.06055 0.117484
19514.44922 0.11749
19514.83984 0.117496
19515.23047 0.117499
19515.61914 0.117501
19516.00977 0.117504
19516.40039 0.117506
19516.78906 0.117508
19517.18945 0.11751
19517.58008 0.117513
19517.97070 0.117515
19518.35938 0.117517
19518.75000 0.117519
19519.14062 0.117522
19519.52930 0.117524
19519.91992 0.117526
19520.31055 0.117531
19520.71094 0.117537
19521.09961 0.117542
19521.49023 0.117548
19521.88086 0.117554
19522.26953 0.117559
19522.66016 0.117565
19523.05078 0.11757
19523.44922 0.117576
19523.83984 0.117582
19524.23047 0.117587
19524.61914 0.117593
19525.00977 0.117598
19525.40039 0.117593
19525.78906 0.117588
19526.17969 0.117583
19526.57031 0.117578
19526.97070 0.117573
19527.35938 0.117568
19527.75000 0.117562
19528.14062 0.117557
19528.52930 0.117552
19528.91992 0.117547
19529.31055 0.117542
19529.71094 0.117537
19530.09961 0.117534
19530.49023 0.117537
19530.88086 0.117539
19531.26953 0.117542
19531.66016 0.117545
19532.05078 0.117548
19532.44922 0.117551
19532.83984 0.117554
19533.23047 0.117556
19533.61914 0.117559
19534.00977 0.117562
19534.40039 0.117565
19534.78906 0.117568
19535.18945 0.117569
19535.58008 0.11757
19535.97070 0.11757
19536.35938 0.11757
19536.75000 0.11757
19537.14062 0.11757
19537.53906 0.11757
19537.92969 0.11757
19538.32031 0.11757
19538.71094 0.117571
19539.09961 0.117571
19539.49023 0.117571
19539.88086 0.117571
19540.27930 0.117576
19540.66992 0.117582
19541.06055 0.117589
19541.44922 0.117595
19541.83984 0.117602
19542.23047 0.117609
19542.63086 0.117615
19543.01953 0.117622
19543.41016 0.117628
19543.80078 0.117635
19544.18945 0.117641
19544.58008 0.117648
19544.98047 0.117654
19545.36914 0.11765
19545.75977 0.117645
19546.15039 0.11764
19546.53906 0.117635
19546.93945 0.11763
19547.33008 0.117625
19547.72070 0.11762
19548.10938 0.117615
19548.50000 0.11761
19548.89062 0.117605
19549.28906 0.1176
19549.67969 0.117595
19550.07031 0.117591
19550.46094 0.117589
19550.84961 0.117587
19551.24023 0.117586
19551.64062 0.117584
19552.02930 0.117583
19552.41992 0.117581
19552.81055 0.117579
19553.21094 0.117578
19553.59961 0.117576
19553.99023 0.117574
19554.38086 0.117573
19554.76953 0.117571
19555.16016 0.117574
19555.55078 0.117582
19555.94922 0.11759
19556.33984 0.117599
19556.73047 0.117607
19557.11914 0.117615
19557.51953 0.117624
19557.91016 0.117632
19558.30078 0.11764
19558.68945 0.117649
19559.08008 0.117657
19559.47070 0.117665
19559.86914 0.117673
19560.25977 0.117673
19560.65039 0.117667
19561.03906 0.117662
19561.43945 0.117656
19561.83008 0.117651
19562.22070 0.117645
19562.60938 0.117639
19563.00000 0.117634
19563.39062 0.117628
19563.78906 0.117623
19564.17969 0.117617
19564.57031 0.117612
19564.96094 0.117606
19565.35938 0.117605
19565.75000 0.117604
19566.14062 0.117603
19566.52930 0.117602
19566.91992 0.117601
19567.32031 0.1176
19567.71094 0.117599
19568.09961 0.117598
19568.49023 0.117597
19568.88086 0.117596
19569.27930 0.117596
19569.66992 0.117595
19570.06055 0.117594
19570.46094 0.117593
19570.84961 0.117593
19571.24023 0.117592
19571.63086 0.117592
19572.01953 0.117591
19572.41992 0.11759
19572.81055 0.11759
19573.19922 0.117589
19573.58984 0.117589
19573.98047 0.117588
19574.38086 0.117588
19574.76953 0.117587
19575.16016 0.117585
19575.55078 0.117582
19575.94922 0.117579
19576.33984 0.117576
19576.73047 0.117573
19577.11914 0.11757
19577.51953 0.117567
19577.91016 0.117563
19578.30078 0.11756
19578.68945 0.117557
19579.08008 0.117554
19579.48047 0.117551
19579.86914 0.117548
19580.25977 0.117548
19580.65039 0.117551
19581.05078 0.117553
19581.43945 0.117556
19581.83008 0.117558
19582.22070 0.117561
19582.61914 0.117563
19583.00977 0.117566
19583.40039 0.117568
19583.78906 0.117571
19584.18945 0.117573
19584.58008 0.117576
19584.97070 0.117578
19585.35938 0.117571
19585.75977 0.117564
19586.15039 0.117556
19586.53906 0.117549
19586.92969 0.117541
19587.33008 0.117533
19587.72070 0.117526
19588.10938 0.117518
19588.50000 0.117511
19588.90039 0.117503
19589.28906 0.117495
19589.67969 0.117488
19590.07031 0.117481
19590.47070 0.117481
19590.85938 0.11748
19591.25000 0.117479
19591.64062 0.117478
19592.03906 0.117478
19592.42969 0.117477
19592.82031 0.117476
19593.22070 0.117475
19593.60938 0.117475
19594.00000 0.117474
19594.39062 0.117473
19594.78906 0.117473
19595.17969 0.117468
19595.57031 0.117457
19595.96094 0.117447
19596.35938 0.117437
19596.75000 0.117427
19597.14062 0.117416
19597.53906 0.117406
19597.92969 0.117396
19598.32031 0.117386
19598.71094 0.117376
19599.10938 0.117365
19599.50000 0.117355
19599.89062 0.117345
19600.28906 0.117344
19600.67969 0.117346
19601.07031 0.117348
19601.46094 0.11735
19601.85938 0.117352
19602.25000 0.117355
19602.64062 0.117357
19603.03906 0.117359
19603.42969 0.117361
19603.82031 0.117363
19604.21094 0.117365
19604.60938 0.117367
19605.00000 0.11737
19605.39062 0.117362
19605.78906 0.117354
19606.17969 0.117346
19606.57031 0.117338
19606.96094 0.117331
19607.35938 0.117323
19607.75000 0.117315
19608.14062 0.117307
19608.53906 0.117299
19608.92969 0.117292
19609.32031 0.117284
19609.71094 0.117276
19610.10938 0.11727
19610.50000 0.117268
19610.89062 0.117266
19611.28906 0.117265
19611.67969 0.117263
19612.07031 0.117261
19612.47070 0.11726
19612.85938 0.117258
19613.25000 0.117256
19613.65039 0.117255
19614.03906 0.117253
19614.42969 0.117252
19614.82031 0.11725
19615.22070 0.117248
19615.60938 0.117246
19616.00000 0.117243
19616.40039 0.117241
19616.78906 0.117238
19617.17969 0.117236
19617.58008 0.117234
19617.97070 0.117231
19618.35938 0.117229
19618.75977 0.117226
19619.15039 0.117224
19619.53906 0.117222
19619.93945 0.117219
19620.33008 0.117217
19620.72070 0.117214
19621.11914 0.117211
19621.50977 0.117209
19621.90039 0.117206
19622.28906 0.117203
19622.68945 0.1172
19623.08008 0.117198
19623.47070 0.117195
19623.86914 0.117192
19624.25977 0.11719
19624.65039 0.117187
19625.05078 0.117184
19625.43945 0.117178
19625.83008 0.117171
19626.23047 0.117165
19626.61914 0.117158
19627.01953 0.117152
19627.41016 0.117145
19627.80078 0.117139
19628.19922 0.117133
19628.58984 0.117126
19628.98047 0.11712
19629.36914 0.117113
19629.76953 0.117107
19630.16016 0.1171
19630.55078 0.117094
19630.94922 0.117088
19631.33984 0.117082
19631.74023 0.117076
19632.13086 0.11707
19632.51953 0.117064
19632.91992 0.117057
19633.31055 0.117051
19633.69922 0.117045
19634.09961 0.117039
19634.49023 0.117033
19634.88086 0.117027
19635.27930 0.117018
19635.66992 0.117009
19636.06055 0.117
19636.46094 0.116991
19636.84961 0.116982
19637.24023 0.116972
19637.64062 0.116963
19638.02930 0.116954
19638.42969 0.116945
19638.82031 0.116936
19639.21094 0.116927
19639.60938 0.116917
19640.00000 0.116908
19640.39062 0.11691
19640.78906 0.116912
19641.17969 0.116913
19641.57031 0.116915
19641.97070 0.116917
19642.35938 0.116919
19642.75977 0.11692
19643.15039 0.116922
19643.53906 0.116924
19643.93945 0.116926
19644.33008 0.116927
19644.72070 0.116929
19645.11914 0.11693
19645.50977 0.116929
19645.90039 0.116927
19646.30078 0.116926
19646.68945 0.116924
19647.08984 0.116923
19647.48047 0.116921
19647.86914 0.11692
19648.26953 0.116918
19648.66016 0.116917
19649.05078 0.116915
19649.44922 0.116914
19649.83984 0.116912
19650.24023 0.116904
19650.63086 0.116892
19651.01953 0.116879
19651.41992 0.116867
19651.81055 0.116854
19652.21094 0.116842
19652.59961 0.116829
19652.99023 0.116817
19653.39062 0.116804
19653.77930 0.116792
19654.17969 0.116779
19654.57031 0.116767
19654.96094 0.116754
19655.35938 0.116751
19655.75000 0.11675
19656.14062 0.116749
19656.53906 0.116747
19656.92969 0.116746
19657.33008 0.116744
19657.72070 0.116743
19658.10938 0.116741
19658.50977 0.11674
19658.90039 0.116738
19659.30078 0.116737
19659.68945 0.116735
19660.08008 0.116733
19660.48047 0.116727
19660.86914 0.116721
19661.26953 0.116715
19661.66016 0.116709
19662.05078 0.116703
19662.44922 0.116697
19662.83984 0.116691
19663.24023 0.116685
19663.63086 0.116679
19664.02930 0.116673
19664.41992 0.116667
19664.81055 0.116662
19665.21094 0.116652
19665.59961 0.116638
19666.00000 0.116624
19666.39062 0.116611
19666.77930 0.116597
19667.17969 0.116583
19667.57031 0.11657
19667.97070 0.116556
19668.35938 0.116542
19668.75000 0.116529
19669.15039 0.116515
19669.53906 0.116501
19669.93945 0.116488
19670.33008 0.116486
19670.72070 0.116487
19671.11914 0.116488
19671.50977 0.116489
19671.91016 0.11649
19672.30078 0.116491
19672.69922 0.116492
19673.08984 0.116493
19673.48047 0.116494
19673.88086 0.116495
19674.26953 0.116496
19674.66992 0.116497
19675.06055 0.116497
19675.46094 0.116492
19675.84961 0.116487
19676.25000 0.116482
19676.64062 0.116477
19677.02930 0.116472
19677.42969 0.116467
19677.82031 0.116461
19678.22070 0.116456
19678.60938 0.116451
19679.00977 0.116446
19679.40039 0.116441
19679.78906 0.116436
19680.18945 0.116426
19680.58008 0.11641
19680.98047 0.116395
19681.36914 0.116379
19681.76953 0.116364
19682.16016 0.116348
19682.56055 0.116333
19682.94922 0.116318
19683.33984 0.116302
19683.74023 0.116287
19684.13086 0.116271
19684.52930 0.116256
19684.91992 0.11624
19685.32031 0.116238
19685.71094 0.116239
19686.10938 0.11624
19686.50000 0.116241
19686.89062 0.116242
19687.28906 0.116243
19687.67969 0.116244
19688.08008 0.116245
19688.47070 0.116246
19688.86914 0.116247
19689.25977 0.116248
19689.66016 0.116249
19690.05078 0.116249
19690.44922 0.11624
19690.83984 0.116231
19691.24023 0.116222
19691.63086 0.116213
19692.02930 0.116204
19692.41992 0.116195
19692.81055 0.116186
19693.21094 0.116177
19693.59961 0.116168
19694.00000 0.116159
19694.39062 0.11615
19694.78906 0.116141
19695.17969 0.116135
19695.58008 0.116132
19695.97070 0.116129
19696.36914 0.116126
19696.75977 0.116123
19697.16016 0.116121
19697.55078 0.116118
19697.94922 0.116115
19698.33984 0.116112
19698.74023 0.116109
19699.13086 0.116106
19699.52930 0.116104
19699.91992 0.116101
19700.31055 0.116096
19700.71094 0.116092
19701.09961 0.116087
19701.50000 0.116082
19701.89062 0.116077
19702.28906 0.116073
19702.67969 0.116068
19703.08008 0.116063
19703.47070 0.116058
19703.86914 0.116054
19704.25977 0.116049
19704.66016 0.116044
19705.05078 0.116039
19705.44922 0.116031
19705.83984 0.116023
19706.24023 0.116016
19706.63086 0.116008
19707.02930 0.116
19707.41992 0.115992
19707.82031 0.115985
19708.21094 0.115977
19708.60938 0.115969
19709.00000 0.115961
19709.40039 0.115953
19709.78906 0.115946
19710.18945 0.115937
19710.58008 0.115927
19710.98047 0.115918
19711.36914 0.115908
19711.76953 0.115899
19712.16016 0.11589
19712.56055 0.11588
19712.94922 0.115871
19713.34961 0.115861
19713.74023 0.115852
19714.14062 0.115842
19714.52930 0.115833
19714.92969 0.115823
19715.32031 0.115813
19715.72070 0.115804
19716.10938 0.115793
19716.50977 0.115783
19716.90039 0.115773
19717.30078 0.115764
19717.69922 0.115753
19718.08984 0.115743
19718.48047 0.115733
19718.88086 0.115723
19719.27930 0.115713
19719.66992 0.115703
19720.07031 0.115694
19720.46094 0.115687
19720.85938 0.11568
19721.25000 0.115673
19721.65039 0.115666
19722.03906 0.115659
19722.43945 0.115652
19722.83008 0.115645
19723.23047 0.115638
19723.61914 0.115631
19724.01953 0.115624
19724.41016 0.115617
19724.81055 0.11561
19725.19922 0.115606
19725.59961 0.115603
19725.99023 0.115601
19726.39062 0.115599
19726.78906 0.115597
19727.17969 0.115595
19727.58008 0.115592
19727.97070 0.11559
19728.36914 0.115588
19728.75977 0.115585
19729.16016 0.115583
19729.55078 0.115581
19729.94922 0.115579
19730.33984 0.115574
19730.74023 0.115568
19731.13086 0.115562
19731.52930 0.115557
19731.92969 0.115551
19732.32031 0.115546
19732.72070 0.11554
19733.10938 0.115535
19733.50977 0.115529
19733.90039 0.115524
19734.30078 0.115518
19734.68945 0.115513
19735.08984 0.115507
19735.48047 0.115502
19735.88086 0.115498
19736.27930 0.115493
19736.66992 0.115489
19737.07031 0.115484
19737.46094 0.115479
19737.85938 0.115475
19738.25000 0.11547
19738.65039 0.115465
19739.03906 0.115461
19739.43945 0.115456
19739.83984 0.115452
19740.23047 0.115445
19740.63086 0.115436
19741.01953 0.115427
19741.41992 0.115418
19741.81055 0.115409
19742.21094 0.1154
19742.60938 0.115391
19743.00000 0.115383
19743.40039 0.115374
19743.78906 0.115365
19744.18945 0.115356
19744.58008 0.115347
19744.98047 0.115338
19745.36914 0.115338
19745.76953 0.115338
19746.16992 0.115337
19746.56055 0.115337
19746.96094 0.115337
19747.34961 0.115337
19747.75000 0.115337
19748.15039 0.115337
19748.53906 0.115337
19748.93945 0.115337
19749.33008 0.115337
19749.73047 0.115336
19750.13086 0.115334
19750.51953 0.115325
19750.91992 0.115316
19751.31055 0.115307
19751.71094 0.115298
19752.09961 0.11529
19752.50000 0.115281
19752.90039 0.115272
19753.28906 0.115263
19753.68945 0.115254
19754.08008 0.115245
19754.48047 0.115237
19754.86914 0.115228
19755.26953 0.115221
19755.66992 0.115215
19756.06055 0.115209
19756.46094 0.115204
19756.85938 0.115198
19757.25000 0.115192
19757.65039 0.115186
19758.03906 0.11518
19758.43945 0.115174
19758.83008 0.115169
19759.23047 0.115163
19759.63086 0.115157
19760.01953 0.115151
19760.41992 0.115144
19760.81055 0.115137
19761.21094 0.115129
19761.60938 0.115122
19762.00000 0.115115
19762.40039 0.115108
19762.78906 0.1151
19763.18945 0.115093
19763.58984 0.115086
19763.98047 0.115079
19764.38086 0.115071
19764.77930 0.115064
19765.16992 0.115058
19765.57031 0.115055
19765.96094 0.115051
19766.35938 0.115047
19766.75977 0.115044
19767.15039 0.11504
19767.55078 0.115036
19767.94922 0.115033
19768.33984 0.115029
19768.74023 0.115025
19769.13086 0.115022
19769.52930 0.115018
19769.92969 0.115014
19770.32031 0.115009
19770.72070 0.115004
19771.10938 0.114998
19771.50977 0.114992
19771.91016 0.114987
19772.30078 0.114981
19772.69922 0.114976
19773.09961 0.11497
19773.49023 0.114965
19773.89062 0.114959
19774.28906 0.114954
19774.67969 0.114948
19775.08008 0.114943
19775.47070 0.114942
19775.86914 0.114941
19776.26953 0.114939
19776.66016 0.114938
19777.06055 0.114936
19777.46094 0.114935
19777.84961 0.114933
19778.25000 0.114932
19778.64062 0.114931
19779.03906 0.114929
19779.43945 0.114928
19779.83008 0.114926
19780.23047 0.114922
19780.63086 0.114916
19781.01953 0.11491
19781.41992 0.114904
19781.82031 0.114898
19782.21094 0.114892
19782.60938 0.114886
19783.00977 0.11488
19783.40039 0.114874
19783.80078 0.114868
19784.19922 0.114862
19784.58984 0.114856
19784.99023 0.11485
19785.38086 0.114854
19785.77930 0.114858
19786.17969 0.114862
19786.57031 0.114866
19786.97070 0.11487
19787.36914 0.114874
19787.75977 0.114878
19788.16016 0.114882
19788.56055 0.114886
19788.94922 0.11489
19789.34961 0.114894
19789.75000 0.114898
19790.14062 0.114898
19790.53906 0.11489
19790.93945 0.114882
19791.33008 0.114875
19791.73047 0.114867
19792.13086 0.114859
19792.51953 0.114851
19792.91992 0.114844
19793.32031 0.114836
19793.71094 0.114828
19794.10938 0.114821
19794.50977 0.114813
19794.90039 0.114805
19795.30078 0.114802
19795.69922 0.114799
19796.08984 0.114797
19796.49023 0.114795
19796.89062 0.114793
19797.27930 0.114791
19797.67969 0.114789
19798.08008 0.114787
19798.47070 0.114785
19798.86914 0.114783
19799.26953 0.114781
19799.66016 0.114779
19800.06055 0.114777
19800.46094 0.114774
19800.84961 0.114771
19801.25000 0.114768
19801.65039 0.114766
19802.03906 0.114763
19802.43945 0.11476
19802.83984 0.114758
19803.24023 0.114755
19803.63086 0.114752
19804.02930 0.11475
19804.42969 0.114747
19804.82031 0.114744
19805.22070 0.114741
19805.61914 0.114738
19806.00977 0.114735
19806.41016 0.114732
19806.81055 0.114728
19807.21094 0.114725
19807.59961 0.114722
19808.00000 0.114718
19808.40039 0.114715
19808.78906 0.114712
19809.18945 0.114709
19809.58984 0.114705
19809.98047 0.114702
19810.38086 0.114701
19810.77930 0.114701
19811.17969 0.114701
19811.57031 0.1147
19811.97070 0.1147
19812.36914 0.1147
19812.75977 0.114699
19813.16016 0.114699
19813.56055 0.114699
19813.96094 0.114698
19814.34961 0.114698
19814.75000 0.114698
19815.15039 0.114697
19815.53906 0.114694
19815.93945 0.114692
19816.33984 0.114689
19816.73047 0.114687
19817.13086 0.114684
19817.52930 0.114682
19817.92969 0.11468
19818.32031 0.114677
19818.72070 0.114675
19819.11914 0.114672
19819.50977 0.11467
19819.91016 0.114667
19820.31055 0.114666
19820.71094 0.114666
19821.09961 0.114665
19821.50000 0.114664
19821.90039 0.114664
19822.28906 0.114663
19822.68945 0.114662
19823.08984 0.114662
19823.49023 0.114661
19823.88086 0.11466
19824.27930 0.11466
19824.67969 0.114659
19825.08008 0.114659
19825.47070 0.114662
19825.86914 0.114664
19826.26953 0.114667
19826.66992 0.114669
19827.06055 0.114672
19827.46094 0.114675
19827.85938 0.114677
19828.25977 0.11468
19828.65039 0.114683
19829.05078 0.114685
19829.44922 0.114688
19829.83984 0.11469
19830.24023 0.114688
19830.64062 0.114683
19831.03906 0.114679
19831.42969 0.114674
19831.83008 0.114669
19832.23047 0.114664
19832.63086 0.114659
19833.01953 0.114654
19833.41992 0.114649
19833.82031 0.114644
19834.22070 0.114639
19834.60938 0.114634
19835.00977 0.114629
19835.41016 0.114626
19835.81055 0.114623
19836.21094 0.114619
19836.59961 0.114616
19837.00000 0.114613
19837.40039 0.114609
19837.78906 0.114606
19838.18945 0.114603
19838.58984 0.1146
19838.99023 0.114596
19839.38086 0.114593
19839.77930 0.11459
19840.17969 0.114591
19840.58008 0.114598
19840.97070 0.114605
19841.36914 0.114612
19841.76953 0.114619
19842.16992 0.114627
19842.57031 0.114634
19842.96094 0.114641
19843.35938 0.114648
19843.75977 0.114655
19844.16016 0.114662
19844.55078 0.114669
19844.94922 0.114676
19845.34961 0.114675
19845.75000 0.114673
19846.14062 0.114671
19846.53906 0.114669
19846.93945 0.114668
19847.33984 0.114666
19847.74023 0.114664
19848.13086 0.114662
19848.52930 0.11466
19848.92969 0.114658
19849.33008 0.114656
19849.72070 0.114654
19850.11914 0.114653
19850.51953 0.114654
19850.91992 0.114656
19851.32031 0.114657
19851.71094 0.114658
19852.10938 0.11466
19852.50977 0.114661
19852.91016 0.114663
19853.31055 0.114664
19853.69922 0.114666
19854.09961 0.114667
19854.50000 0.114668
19854.90039 0.11467
19855.28906 0.114671
19855.68945 0.114673
19856.08984 0.114674
19856.49023 0.114676
19856.89062 0.114677
19857.28906 0.114679
19857.67969 0.11468
19858.08008 0.114681
19858.48047 0.114683
19858.88086 0.114684
19859.27930 0.114686
19859.66992 0.114687
19860.07031 0.11469
19860.47070 0.114697
19860.86914 0.114704
19861.26953 0.114711
19861.66016 0.114718
19862.06055 0.114725
19862.46094 0.114733
19862.85938 0.11474
19863.25977 0.114747
19863.65039 0.114754
19864.05078 0.114761
19864.44922 0.114768
19864.84961 0.114775
19865.25000 0.114777
19865.64062 0.114775
19866.03906 0.114772
19866.43945 0.11477
19866.83984 0.114768
19867.24023 0.114766
19867.63086 0.114763
19868.02930 0.114761
19868.42969 0.114759
19868.83008 0.114757
19869.23047 0.114754
19869.63086 0.114752
19870.01953 0.11475
19870.41992 0.114751
19870.82031 0.114751
19871.22070 0.114752
19871.61914 0.114752
19872.01953 0.114753
19872.41016 0.114754
19872.81055 0.114754
19873.21094 0.114755
19873.60938 0.114755
19874.00977 0.114756
19874.40039 0.114757
19874.80078 0.114757
19875.19922 0.11476
19875.59961 0.114766
19876.00000 0.114772
19876.40039 0.114778
19876.78906 0.114783
19877.18945 0.114789
19877.58984 0.114795
19877.99023 0.114801
19878.39062 0.114807
19878.78906 0.114812
19879.18945 0.114818
19879.58008 0.114824
19879.98047 0.11483
19880.38086 0.114829
19880.77930 0.114827
19881.17969 0.114826
19881.58008 0.114824
19881.97070 0.114823
19882.36914 0.114822
19882.76953 0.11482
19883.16992 0.114819
19883.57031 0.114817
19883.97070 0.114816
19884.36914 0.114814
19884.75977 0.114813
19885.16016 0.114816
19885.56055 0.114824
19885.96094 0.114833
19886.35938 0.114842
19886.75977 0.114851
19887.15039 0.11486
19887.55078 0.114869
19887.94922 0.114877
19888.34961 0.114886
19888.75000 0.114895
19889.15039 0.114904
19889.55078 0.114913
19889.94922 0.114922
19890.33984 0.114926
19890.74023 0.11493
19891.14062 0.114934
19891.53906 0.114939
19891.93945 0.114943
19892.33984 0.114947
19892.74023 0.114951
19893.13086 0.114955
19893.52930 0.114959
19893.92969 0.114963
19894.33008 0.114967
19894.73047 0.114971
19895.13086 0.114975
19895.52930 0.114977
19895.92969 0.11498
19896.32031 0.114983
19896.72070 0.114985
19897.11914 0.114988
19897.51953 0.11499
19897.91992 0.114993
19898.32031 0.114996
19898.72070 0.114998
19899.11914 0.115001
19899.50977 0.115004
19899.91016 0.115006
19900.31055 0.115015
19900.71094 0.115024
19901.10938 0.115034
19901.50977 0.115044
19901.91016 0.115054
19902.31055 0.115064
19902.71094 0.115073
19903.09961 0.115083
19903.50000 0.115093
19903.90039 0.115103
19904.30078 0.115113
19904.69922 0.115123
19905.09961 0.11513
19905.50000 0.115131
19905.90039 0.115133
19906.28906 0.115134
19906.68945 0.115135
19907.08984 0.115136
19907.49023 0.115137
19907.89062 0.115138
19908.28906 0.115139
19908.68945 0.11514
19909.08984 0.115141
19909.49023 0.115142
19909.89062 0.115144
19910.28906 0.115145
19910.67969 0.115146
19911.08008 0.115147
19911.48047 0.115148
19911.88086 0.115149
19912.27930 0.11515
19912.67969 0.115151
19913.08008 0.115152
19913.48047 0.115153
19913.88086 0.115154
19914.27930 0.115155
19914.67969 0.115156
19915.07031 0.115158
19915.47070 0.115169
19915.86914 0.11518
19916.26953 0.115191
19916.66992 0.115201
19917.07031 0.115212
19917.47070 0.115223
19917.86914 0.115234
19918.26953 0.115244
19918.66992 0.115255
19919.07031 0.115266
19919.46094 0.115277
19919.85938 0.115287
19920.25977 0.115291
19920.66016 0.115292
19921.06055 0.115292
19921.46094 0.115293
19921.85938 0.115293
19922.25977 0.115294
19922.66016 0.115294
19923.06055 0.115295
19923.46094 0.115295
19923.85938 0.115296
19924.25977 0.115296
19924.66016 0.115297
19925.05078 0.115298
19925.44922 0.115304
19925.84961 0.11531
19926.25000 0.115316
19926.65039 0.115322
19927.05078 0.115327
19927.44922 0.115333
19927.84961 0.115339
19928.25000 0.115345
19928.65039 0.115351
19929.05078 0.115357
19929.44922 0.115363
19929.84961 0.115369
19930.25000 0.115371
19930.65039 0.115372
19931.03906 0.115372
19931.44922 0.115373
19931.83984 0.115373
19932.24023 0.115374
19932.64062 0.115374
19933.03906 0.115375
19933.43945 0.115375
19933.83984 0.115376
19934.24023 0.115376
19934.64062 0.115377
19935.03906 0.115379
19935.43945 0.115393
19935.83984 0.115408
19936.24023 0.115423
19936.64062 0.115438
19937.03906 0.115453
19937.43945 0.115468
19937.83984 0.115482
19938.24023 0.115497
19938.64062 0.115512
19939.03906 0.115527
19939.43945 0.115542
19939.83984 0.115557
19940.23047 0.115567
19940.63086 0.115575
19941.02930 0.115582
19941.42969 0.11559
19941.83008 0.115598
19942.23047 0.115605
19942.63086 0.115613
19943.02930 0.11562
19943.42969 0.115628
19943.83008 0.115636
19944.23047 0.115643
19944.63086 0.115651
19945.02930 0.115659
19945.42969 0.115667
19945.83008 0.115676
19946.23047 0.115684
19946.63086 0.115693
19947.02930 0.115702
19947.42969 0.11571
19947.83008 0.115719
19948.23047 0.115728
19948.63086 0.115736
19949.02930 0.115745
19949.42969 0.115754
19949.83008 0.115762
19950.23047 0.115771
19950.63086 0.11578
19951.02930 0.115789
19951.42969 0.115798
19951.83008 0.115807
19952.23047 0.115816
19952.63086 0.115825
19953.02930 0.115835
19953.42969 0.115844
19953.83008 0.115853
19954.23047 0.115862
19954.63086 0.115871
19955.02930 0.11588
19955.42969 0.115885
19955.83008 0.11589
19956.23047 0.115896
19956.63086 0.115901
19957.02930 0.115906
19957.42969 0.115912
19957.83008 0.115917
19958.23047 0.115922
19958.63086 0.115928
19959.02930 0.115933
19959.42969 0.115939
19959.83008 0.115944
19960.23047 0.115953
19960.63086 0.115966
19961.02930 0.115978
19961.42969 0.11599
19961.83008 0.116002
19962.23047 0.116015
19962.63086 0.116027
19963.02930 0.116039
19963.42969 0.116052
19963.83008 0.116064
19964.23047 0.116076
19964.63086 0.116088
19965.02930 0.1161
19965.42969 0.116104
19965.83008 0.116108
19966.23047 0.116113
19966.63086 0.116117
19967.02930 0.116121
19967.42969 0.116125
19967.83008 0.116129
19968.23047 0.116133
19968.63086 0.116137
19969.02930 0.116142
19969.42969 0.116146
19969.83008 0.11615
19970.23047 0.116155
19970.63086 0.116161
19971.02930 0.116167
19971.42969 0.116174
19971.83008 0.11618
19972.23047 0.116186
19972.63086 0.116192
19973.02930 0.116198
19973.42969 0.116204
19973.83008 0.116211
19974.23047 0.116217
19974.63086 0.116223
19975.02930 0.116229
19975.42969 0.11624
19975.83008 0.116251
19976.23047 0.116262
19976.63086 0.116273
19977.03906 0.116284
19977.43945 0.116295
19977.83984 0.116306
19978.24023 0.116317
19978.64062 0.116328
19979.03906 0.116339
19979.43945 0.11635
19979.83984 0.116361
19980.24023 0.116375
19980.64062 0.11639
19981.03906 0.116406
19981.43945 0.116422
19981.83984 0.116437
19982.24023 0.116453
19982.64062 0.116469
19983.03906 0.116484
19983.43945 0.1165
19983.83984 0.116515
19984.24023 0.116531
19984.64062 0.116547
19985.03906 0.116561
19985.43945 0.11657
19985.83984 0.116578
19986.24023 0.116586
19986.65039 0.116594
19987.05078 0.116603
19987.44922 0.116611
19987.84961 0.116619
19988.25000 0.116627
19988.65039 0.116636
19989.05078 0.116644
19989.44922 0.116652
19989.84961 0.11666
19990.25000 0.116665
19990.65039 0.116668
19991.05078 0.116671
19991.44922 0.116674
19991.84961 0.116678
19992.25000 0.116681
19992.65039 0.116684
19993.05078 0.116687
19993.46094 0.11669
19993.85938 0.116693
19994.25977 0.116696
19994.66016 0.116699
19995.06055 0.116704
19995.46094 0.116723
19995.85938 0.116742
19996.25977 0.116761
19996.66016 0.11678
19997.06055 0.116799
19997.46094 0.116818
19997.86914 0.116837
19998.26953 0.116856
19998.66992 0.116874
19999.07031 0.116893
19999.47070 0.116912
19999.86914 0.116931
20000.26953 0.116951
20000.66992 0.116971
20001.07031 0.116991
20001.47070 0.117012
20001.86914 0.117032
20002.26953 0.117052
20002.66992 0.117072
20003.07031 0.117093
20003.48047 0.117113
20003.88086 0.117133
20004.27930 0.117153
20004.67969 0.117174
20005.08008 0.117196
20005.48047 0.117226
20005.88086 0.117256
20006.27930 0.117286
20006.67969 0.117316
20007.08008 0.117346
20007.49023 0.117376
20007.89062 0.117407
20008.28906 0.117437
20008.68945 0.117467
20009.08984 0.117497
20009.49023 0.117527
20009.89062 0.117557
20010.28906 0.11758
20010.68945 0.117599
20011.08984 0.117618
20011.50000 0.117637
20011.90039 0.117656
20012.30078 0.117676
20012.69922 0.117695
20013.09961 0.117714
20013.50000 0.117733
20013.90039 0.117752
20014.30078 0.117772
20014.71094 0.117791
20015.10938 0.11781
20015.50977 0.117829
20015.91016 0.117847
20016.31055 0.117866
20016.71094 0.117885
20017.10938 0.117903
20017.50977 0.117922
20017.91016 0.117941
20018.31055 0.117959
20018.72070 0.117978
20019.11914 0.117997
20019.51953 0.118015
20019.91992 0.118034
20020.32031 0.118058
20020.72070 0.118084
20021.11914 0.11811
20021.52930 0.118136
20021.92969 0.118162
20022.33008 0.118188
20022.73047 0.118214
20023.13086 0.11824
20023.52930 0.118266
20023.92969 0.118292
20024.33008 0.118318
20024.73047 0.118344
20025.14062 0.11837
20025.53906 0.118395
20025.93945 0.118421
20026.33984 0.118447
20026.74023 0.118472
20027.14062 0.118498
20027.53906 0.118524
20027.94922 0.118549
20028.34961 0.118575
20028.75000 0.118601
20029.15039 0.118626
20029.55078 0.118652
20029.94922 0.118678
20030.34961 0.118704
20030.75977 0.118729
20031.16016 0.118755
20031.56055 0.118781
20031.96094 0.118807
20032.35938 0.118833
20032.75977 0.118859
20033.16016 0.118885
20033.57031 0.118911
20033.97070 0.118937
20034.36914 0.118962
20034.76953 0.118988
20035.16992 0.119012
20035.57031 0.119033
20035.97070 0.119054
20036.38086 0.119075
20036.77930 0.119096
20037.17969 0.119118
20037.58008 0.119139
20037.98047 0.11916
20038.38086 0.119181
20038.78906 0.119202
20039.18945 0.119223
20039.58984 0.119244
20039.99023 0.119265
20040.39062 0.119291
20040.78906 0.119317
20041.19922 0.119343
20041.59961 0.119369
20042.00000 0.119395
20042.40039 0.119421
20042.80078 0.119447
20043.19922 0.119472
20043.60938 0.119498
20044.00977 0.119525
20044.41016 0.11955
20044.81055 0.119576
20045.21094 0.119601
20045.61914 0.119626
20046.01953 0.11965
20046.41992 0.119674
20046.82031 0.119698
20047.22070 0.119722
20047.61914 0.119747
20048.02930 0.119771
20048.42969 0.119795
20048.83008 0.11982
20049.23047 0.119844
20049.63086 0.119868
20050.02930 0.119893
20050.43945 0.11992
20050.83984 0.119948
20051.24023 0.119976
20051.64062 0.120004
20052.03906 0.120031
20052.44922 0.120059
20052.84961 0.120087
20053.25000 0.120115
20053.65039 0.120143
20054.05078 0.12017
20054.46094 0.120198
20054.85938 0.120226
20055.25977 0.120254
20055.66016 0.120282
20056.06055 0.120309
20056.46094 0.120337
20056.86914 0.120365
20057.26953 0.120392
20057.66992 0.12042
20058.07031 0.120448
20058.47070 0.120476
20058.88086 0.120503
20059.27930 0.120531
20059.67969 0.120559
20060.08008 0.120585
20060.48047 0.120608
20060.89062 0.12063
20061.28906 0.120652
20061.68945 0.120674
20062.08984 0.120696
20062.49023 0.120719
20062.90039 0.120741
20063.30078 0.120763
20063.69922 0.120785
20064.09961 0.120808
20064.50977 0.12083
20064.91016 0.120852
20065.31055 0.120875
20065.71094 0.120899
20066.10938 0.120923
20066.51953 0.120947
20066.91992 0.12097
20067.32031 0.120994
20067.72070 0.121018
20068.13086 0.121042
20068.52930 0.121065
20068.92969 0.121089
20069.33008 0.121113
20069.73047 0.121136
20070.13086 0.121163
20070.53906 0.121194
20070.93945 0.121225
20071.33984 0.121256
20071.74023 0.121287
20072.15039 0.121318
20072.55078 0.121349
20072.94922 0.12138
20073.34961 0.121411
20073.75977 0.121442
20074.16016 0.121473
20074.56055 0.121504
20074.96094 0.121535
20075.36914 0.121562
20075.76953 0.121589
20076.16992 0.121616
20076.57031 0.121643
20076.97070 0.12167
20077.38086 0.121697
20077.77930 0.121724
20078.17969 0.121751
20078.58008 0.121778
20078.99023 0.121805
20079.39062 0.121833
20079.78906 0.12186
20080.18945 0.121884
20080.59961 0.121905
20081.00000 0.121926
20081.40039 0.121947
20081.80078 0.121968
20082.21094 0.12199
20082.60938 0.122011
20083.00977 0.122032
20083.41016 0.122053
20083.82031 0.122074
20084.22070 0.122095
20084.61914 0.122116
20085.01953 0.122138
20085.42969 0.122166
20085.83008 0.122194
20086.23047 0.122222
20086.63086 0.12225
20087.03906 0.122278
20087.43945 0.122306
20087.83984 0.122334
20088.24023 0.122362
20088.65039 0.12239
20089.05078 0.122418
20089.44922 0.122446
20089.84961 0.122474
20090.25977 0.122501
20090.66016 0.122528
20091.06055 0.122556
20091.46094 0.122583
20091.86914 0.12261
20092.26953 0.122637
20092.66992 0.122665
20093.08008 0.122692
20093.48047 0.122719
20093.88086 0.122746
20094.27930 0.122774
20094.68945 0.122801
20095.08984 0.122828
20095.49023 0.122853
20095.89062 0.122878
20096.30078 0.122903
20096.69922 0.122928
20097.09961 0.122953
20097.50977 0.122979
20097.91016 0.123004
20098.31055 0.123029
20098.71094 0.123054
20099.11914 0.123079
20099.51953 0.123104
20099.91992 0.12313
20100.33008 0.123156
20100.73047 0.123182
20101.13086 0.123209
20101.52930 0.123235
20101.93945 0.123262
20102.33984 0.123288
20102.74023 0.123315
20103.15039 0.123341
20103.55078 0.123368
20103.94922 0.123394
20104.34961 0.123421
20104.75977 0.123447
20105.16016 0.123475
20105.56055 0.123503
20105.97070 0.123532
20106.36914 0.12356
20106.76953 0.123589
20107.17969 0.123617
20107.58008 0.123646
20107.98047 0.123674
20108.38086 0.123703
20108.78906 0.123731
20109.18945 0.123759
20109.58984 0.123788
20110.00000 0.123816
20110.40039 0.123845
20110.80078 0.123874
20111.21094 0.123902
20111.60938 0.12393
20112.00977 0.123959
20112.41016 0.123988
20112.82031 0.124016
20113.22070 0.124045
20113.61914 0.124073
20114.02930 0.124102
20114.42969 0.12413
20114.83008 0.124159
20115.24023 0.124188
20115.64062 0.124218
20116.03906 0.124248
20116.44922 0.124278
20116.84961 0.124308
20117.25000 0.124337
20117.65039 0.124367
20118.06055 0.124397
20118.46094 0.124427
20118.86914 0.124457
20119.26953 0.124487
20119.66992 0.124517
20120.07031 0.124545
20120.48047 0.124567
20120.88086 0.12459
20121.27930 0.124612
20121.68945 0.124634
20122.08984 0.124656
20122.49023 0.124678
20122.90039 0.1247
20123.30078 0.124723
20123.69922 0.124745
20124.10938 0.124767
20124.50977 0.124789
20124.91016 0.124812
20125.32031 0.124846
20125.72070 0.124884
20126.11914 0.124922
20126.52930 0.124961
20126.92969 0.124999
20127.33008 0.125037
20127.74023 0.125075
20128.14062 0.125113
20128.53906 0.125151
20128.94922 0.12519
20129.34961 0.125228
20129.75000 0.125266
20130.16016 0.125298
20130.56055 0.125318
20130.96094 0.125339
20131.36914 0.12536
20131.76953 0.125381
20132.16992 0.125402
20132.58008 0.125423
20132.98047 0.125444
20133.38086 0.125465
20133.78906 0.125486
20134.18945 0.125506
20134.59961 0.125527
20135.00000 0.125548
20135.40039 0.125569
20135.81055 0.12559
20136.21094 0.125611
20136.60938 0.125633
20137.01953 0.125654
20137.41992 0.125675
20137.82031 0.125696
20138.23047 0.125717
20138.63086 0.125738
20139.03906 0.125759
20139.43945 0.12578
20139.83984 0.125802
20140.25000 0.12583
20140.65039 0.125863
20141.05078 0.125896
20141.46094 0.125929
20141.85938 0.125962
20142.25977 0.125995
20142.66992 0.126028
20143.07031 0.126061
20143.47070 0.126094
20143.88086 0.126127
20144.27930 0.12616
20144.68945 0.126193
20145.08984 0.126224
20145.49023 0.126251
20145.90039 0.126278
20146.30078 0.126305
20146.71094 0.126332
20147.10938 0.12636
20147.50977 0.126386
20147.91992 0.126413
20148.32031 0.12644
20148.72070 0.126467
20149.13086 0.126494
20149.52930 0.126521
20149.93945 0.126548
20150.33984 0.126572
20150.74023 0.126595
20151.15039 0.126618
20151.55078 0.126641
20151.96094 0.126664
20152.35938 0.126687
20152.75977 0.12671
20153.16992 0.126733
20153.57031 0.126757
20153.97070 0.12678
20154.38086 0.126803
20154.77930 0.126826
20155.18945 0.126851
20155.58984 0.12688
20155.99023 0.126909
20156.40039 0.126937
20156.80078 0.126966
20157.21094 0.126994
20157.60938 0.127023
20158.00977 0.127052
20158.41992 0.12708
20158.82031 0.127109
20159.23047 0.127138
20159.63086 0.127166
20160.02930 0.127195
20160.43945 0.12723
20160.83984 0.127264
20161.25000 0.127298
20161.65039 0.127332
20162.05078 0.127367
20162.46094 0.127401
20162.85938 0.127435
20163.26953 0.127469
20163.66992 0.127503
20164.07031 0.127538
20164.48047 0.127572
20164.88086 0.127606
20165.28906 0.127632
20165.68945 0.127654
20166.09961 0.127676
20166.50000 0.127699
20166.90039 0.127721
20167.31055 0.127743
20167.71094 0.127765
20168.11914 0.127787
20168.51953 0.127809
20168.91992 0.127832
20169.33008 0.127854
20169.73047 0.127876
20170.14062 0.127899
20170.53906 0.127924
20170.94922 0.12795
20171.34961 0.127975
20171.75000 0.128
20172.16016 0.128025
20172.56055 0.12805
20172.97070 0.128075
20173.36914 0.1281
20173.77930 0.128125
20174.17969 0.128151
20174.58008 0.128176
20174.99023 0.128201
20175.39062 0.128232
20175.80078 0.128263
20176.19922 0.128295
20176.60938 0.128326
20177.00977 0.128358
20177.41016 0.128389
20177.82031 0.12842
20178.22070 0.128452
20178.63086 0.128483
20179.02930 0.128515
20179.43945 0.128546
20179.83984 0.128578
20180.25000 0.128603
20180.65039 0.128625
20181.05078 0.128646
20181.46094 0.128668
20181.85938 0.12869
20182.26953 0.128711
20182.66992 0.128733
20183.08008 0.128755
20183.48047 0.128776
20183.89062 0.128798
20184.28906 0.12882
20184.69922 0.128841
20185.09961 0.128864
20185.50000 0.128892
20185.91016 0.12892
20186.31055 0.128948
20186.72070 0.128976
20187.11914 0.129005
20187.52930 0.129033
20187.92969 0.129061
20188.33984 0.129089
20188.74023 0.129117
20189.14062 0.129145
20189.55078 0.129173
20189.96094 0.129201
20190.35938 0.129231
20190.75977 0.129262
20191.16992 0.129293
20191.57031 0.129323
20191.98047 0.129354
20192.38086 0.129384
20192.78906 0.129415
20193.18945 0.129445
20193.59961 0.129476
20194.00000 0.129507
20194.41016 0.129537
20194.81055 0.129568
20195.21094 0.129592
20195.61914 0.129611
20196.02930 0.129631
20196.42969 0.12965
20196.83008 0.129669
20197.24023 0.129689
20197.64062 0.129708
20198.05078 0.129727
20198.44922 0.129746
20198.85938 0.129766
20199.25977 0.129785
20199.66992 0.129804
20200.07031 0.129824
20200.48047 0.129845
20200.88086 0.129867
20201.28906 0.129888
20201.68945 0.12991
20202.09961 0.129931
20202.50000 0.129953
20202.91016 0.129974
20203.31055 0.129996
20203.72070 0.130017
20204.11914 0.130039
20204.52930 0.13006
20204.92969 0.130082
20205.33984 0.130104
20205.74023 0.130126
20206.15039 0.130148
20206.55078 0.13017
20206.96094 0.130192
20207.35938 0.130215
20207.76953 0.130237
20208.16992 0.130259
20208.58008 0.130281
20208.98047 0.130303
20209.39062 0.130325
20209.78906 0.130348
20210.19922 0.130373
20210.59961 0.130401
20211.00977 0.130429
20211.41016 0.130457
20211.82031 0.130486
20212.22070 0.130514
20212.63086 0.130542
20213.02930 0.13057
20213.43945 0.130599
20213.83984 0.130627
20214.25000 0.130655
20214.65039 0.130683
20215.06055 0.130712
20215.46094 0.13074
20215.86914 0.130768
20216.26953 0.130796
20216.67969 0.130823
20217.08008 0.130851
20217.49023 0.130879
20217.89062 0.130907
20218.30078 0.130935
20218.69922 0.130963
20219.10938 0.130991
20219.50977 0.131019
20219.91992 0.131047
20220.32031 0.131065
20220.73047 0.13108
20221.13086 0.131095
20221.53906 0.13111
20221.94922 0.131125
20222.34961 0.131139
20222.75977 0.131154
20223.16016 0.131169
20223.57031 0.131184
20223.97070 0.131199
20224.38086 0.131214
20224.77930 0.131229
20225.18945 0.131249
20225.58984 0.131275
20226.00000 0.1313
20226.40039 0.131326
20226.81055 0.131352
20227.21094 0.131378
20227.61914 0.131404
20228.02930 0.13143
20228.42969 0.131455
20228.83984 0.131481
20229.24023 0.131507
20229.65039 0.131533
20230.05078 0.131559
20230.46094 0.131585
20230.85938 0.131611
20231.26953 0.131637
20231.66992 0.131663
20232.08008 0.13169
20232.49023 0.131716
20232.89062 0.131742
20233.30078 0.131768
20233.69922 0.131794
20234.10938 0.131821
20234.50977 0.131847
20234.91992 0.131873
20235.32031 0.131895
20235.73047 0.131916
20236.13086 0.131938
20236.53906 0.131959
20236.94922 0.13198
20237.34961 0.132001
20237.75977 0.132022
20238.16016 0.132043
20238.57031 0.132065
20238.97070 0.132086
20239.38086 0.132107
20239.78906 0.132128
20240.18945 0.13215
20240.59961 0.132171
20241.00000 0.132193
20241.41016 0.132215
20241.81055 0.132237
20242.22070 0.132259
20242.61914 0.132281
20243.02930 0.132303
20243.43945 0.132325
20243.83984 0.132347
20244.25000 0.132369
20244.65039 0.132391
20245.06055 0.132411
20245.46094 0.132422
20245.86914 0.132432
20246.27930 0.132443
20246.67969 0.132454
20247.08984 0.132464
20247.49023 0.132475
20247.90039 0.132485
20248.30078 0.132496
20248.71094 0.132506
20249.11914 0.132517
20249.51953 0.132527
20249.92969 0.132538
20250.33008 0.132563
20250.74023 0.13259
20251.15039 0.132618
20251.55078 0.132646
20251.96094 0.132674
20252.35938 0.132701
20252.76953 0.132729
20253.17969 0.132757
20253.58008 0.132785
20253.99023 0.132813
20254.39062 0.13284
20254.80078 0.132868
20255.21094 0.132893
20255.60938 0.132914
20256.01953 0.132936
20256.41992 0.132958
20256.83008 0.132979
20257.23047 0.133001
20257.64062 0.133022
20258.05078 0.133044
20258.44922 0.133066
20258.85938 0.133087
20259.26953 0.133109
20259.66992 0.133131
20260.08008 0.133151
20260.48047 0.133166
20260.89062 0.133181
20261.28906 0.133196
20261.69922 0.133211
20262.10938 0.133226
20262.50977 0.133241
20262.91992 0.133256
20263.33008 0.133271
20263.73047 0.133286
20264.14062 0.133301
20264.53906 0.133316
20264.94922 0.133331
20265.35938 0.133348
20265.75977 0.133365
20266.16992 0.133382
20266.57031 0.133399
20266.98047 0.133416
20267.39062 0.133433
20267.78906 0.13345
20268.19922 0.133467
20268.60938 0.133484
20269.00977 0.1335
20269.41992 0.133517
20269.82031 0.133534
20270.23047 0.133552
20270.64062 0.133571
20271.03906 0.133589
20271.44922 0.133608
20271.85938 0.133626
20272.25977 0.133645
20272.66992 0.133663
20273.07031 0.133682
20273.48047 0.1337
20273.89062 0.133718
20274.28906 0.133737
20274.69922 0.133755
20275.10938 0.133775
20275.50977 0.133798
20275.91992 0.133822
20276.33008 0.133845
20276.73047 0.133868
20277.14062 0.133891
20277.53906 0.133915
20277.94922 0.133938
20278.35938 0.133961
20278.75977 0.133985
20279.16992 0.134008
20279.58008 0.134031
20279.98047 0.134054
20280.39062 0.134068
20280.78906 0.134082
20281.19922 0.134095
20281.60938 0.134109
20282.01953 0.134122
20282.41992 0.134136
20282.83008 0.134149
20283.23047 0.134163
20283.64062 0.134176
20284.05078 0.134189
20284.46094 0.134203
20284.85938 0.134217
20285.26953 0.134234
20285.66992 0.134253
20286.08008 0.134273
20286.49023 0.134292
20286.89062 0.134312
20287.30078 0.134331
20287.71094 0.134351
20288.10938 0.13437
20288.51953 0.134389
20288.92969 0.134409
20289.33008 0.134428
20289.74023 0.134448
20290.15039 0.134467
20290.55078 0.134485
20290.96094 0.134503
20291.36914 0.134521
20291.76953 0.134539
20292.17969 0.134556
20292.58984 0.134575
20292.99023 0.134593
20293.40039 0.13461
20293.81055 0.134629
20294.21094 0.134646
20294.61914 0.134664
20295.02930 0.134682
20295.42969 0.134698
20295.83984 0.134713
20296.25000 0.134729
20296.65039 0.134744
20297.06055 0.13476
20297.47070 0.134775
20297.86914 0.134791
20298.27930 0.134806
20298.68945 0.134821
20299.08984 0.134837
20299.50000 0.134852
20299.91016 0.134868
20300.31055 0.134879
20300.72070 0.134889
20301.13086 0.134899
20301.53906 0.134909
20301.93945 0.134919
20302.34961 0.13493
20302.75977 0.13494
20303.16016 0.13495
20303.57031 0.13496
20303.98047 0.13497
20304.38086 0.13498
20304.78906 0.13499
20305.19922 0.135002
20305.60938 0.135016
20306.00977 0.135031
20306.41992 0.135045
20306.83008 0.135059
20307.23047 0.135074
20307.64062 0.135088
20308.05078 0.135102
20308.44922 0.135116
20308.85938 0.135131
20309.26953 0.135145
20309.66992 0.135159
20310.08008 0.135173
20310.49023 0.135185
20310.90039 0.135198
20311.30078 0.13521
20311.71094 0.135222
20312.11914 0.135235
20312.51953 0.135247
20312.92969 0.135259
20313.33984 0.135271
20313.75000 0.135284
20314.15039 0.135296
20314.56055 0.135308
20314.97070 0.13532
20315.36914 0.13534
20315.77930 0.135361
20316.18945 0.135382
20316.59961 0.135403
20317.00000 0.135424
20317.41016 0.135445
20317.82031 0.135466
20318.22070 0.135487
20318.63086 0.135508
20319.03906 0.135529
20319.44922 0.13555
20319.84961 0.135571
20320.25977 0.13558
20320.66992 0.135584
20321.07031 0.135587
20321.48047 0.13559
20321.89062 0.135593
20322.30078 0.135597
20322.69922 0.1356
20323.10938 0.135603
20323.51953 0.135606
20323.92969 0.135609
20324.33008 0.135613
20324.74023 0.135616
20325.15039 0.135623
20325.55078 0.135638
20325.96094 0.135652
20326.36914 0.135666
20326.77930 0.135681
20327.17969 0.135695
20327.58984 0.13571
20328.00000 0.135724
20328.41016 0.135738
20328.81055 0.135753
20329.22070 0.135767
20329.63086 0.135782
20330.03906 0.135796
20330.43945 0.135812
20330.84961 0.135827
20331.25977 0.135843
20331.66992 0.135859
20332.07031 0.135875
20332.48047 0.13589
20332.89062 0.135906
20333.30078 0.135922
20333.69922 0.135937
20334.10938 0.135953
20334.51953 0.135969
20334.92969 0.135984
20335.33008 0.135993
20335.74023 0.136
20336.15039 0.136007
20336.56055 0.136014
20336.96094 0.13602
20337.36914 0.136027
20337.77930 0.136034
20338.18945 0.136041
20338.58984 0.136048
20339.00000 0.136055
20339.41016 0.136062
20339.82031 0.136069
20340.22070 0.136079
20340.63086 0.136093
20341.03906 0.136106
20341.44922 0.136119
20341.85938 0.136132
20342.25977 0.136145
20342.66992 0.136158
20343.08008 0.136171
20343.49023 0.136185
20343.89062 0.136198
20344.30078 0.136211
20344.71094 0.136224
20345.11914 0.136237
20345.52930 0.136251
20345.92969 0.136264
20346.33984 0.136278
20346.75000 0.136291
20347.16016 0.136305
20347.56055 0.136318
20347.97070 0.136332
20348.38086 0.136345
20348.78906 0.136359
20349.19922 0.136372
20349.59961 0.136386
20350.00977 0.136399
20350.41992 0.136401
20350.83008 0.136402
20351.23047 0.136403
20351.64062 0.136405
20352.05078 0.136406
20352.46094 0.136408
20352.86914 0.136409
20353.26953 0.13641
20353.67969 0.136412
20354.08984 0.136413
20354.50000 0.136415
20354.91016 0.136416
20355.31055 0.136423
20355.72070 0.136431
20356.13086 0.136439
20356.53906 0.136448
20356.94922 0.136456
20357.34961 0.136465
20357.75977 0.136473
20358.16992 0.136481
20358.58008 0.13649
20358.98047 0.136498
20359.39062 0.136506
20359.80078 0.136515
20360.21094 0.136524
20360.61914 0.136533
20361.02930 0.136543
20361.42969 0.136553
20361.83984 0.136563
20362.25000 0.136572
20362.66016 0.136582
20363.07031 0.136592
20363.47070 0.136601
20363.88086 0.136611
20364.28906 0.136621
20364.69922 0.13663
20365.10938 0.136639
20365.50977 0.136643
20365.91992 0.136647
20366.33008 0.136652
20366.74023 0.136656
20367.15039 0.136661
20367.55078 0.136665
20367.96094 0.136669
20368.36914 0.136674
20368.77930 0.136678
20369.18945 0.136683
20369.59961 0.136687
20370.00000 0.136691
20370.41016 0.136699
20370.82031 0.136707
20371.23047 0.136714
20371.64062 0.136722
20372.05078 0.136729
20372.46094 0.136737
20372.85938 0.136744
20373.26953 0.136752
20373.67969 0.136759
20374.08984 0.136767
20374.50000 0.136774
20374.90039 0.136782
20375.31055 0.136793
20375.72070 0.136804
20376.13086 0.136815
20376.53906 0.136827
20376.94922 0.136838
20377.34961 0.13685
20377.75977 0.136861
20378.16992 0.136873
20378.58008 0.136884
20378.99023 0.136895
20379.40039 0.136907
20379.80078 0.136918
20380.21094 0.136927
20380.61914 0.136934
20381.02930 0.136941
20381.43945 0.136948
20381.84961 0.136955
20382.25977 0.136962
20382.66016 0.136968
20383.07031 0.136975
20383.48047 0.136982
20383.89062 0.136989
20384.30078 0.136996
20384.71094 0.137003
20385.11914 0.13701
20385.51953 0.137019
20385.92969 0.137028
20386.33984 0.137037
20386.75000 0.137046
20387.16016 0.137055
20387.57031 0.137064
20387.97070 0.137073
20388.38086 0.137082
20388.78906 0.137092
20389.19922 0.1371
20389.60938 0.137109
20390.01953 0.137118
20390.42969 0.137123
20390.83984 0.137128
20391.24023 0.137133
20391.65039 0.137138
20392.06055 0.137143
20392.47070 0.137148
20392.88086 0.137153
20393.28906 0.137157
20393.69922 0.137162
20394.10938 0.137167
20394.50977 0.137172
20394.91992 0.137177
20395.33008 0.13718
20395.74023 0.137184
20396.15039 0.137187
20396.56055 0.13719
20396.97070 0.137193
20397.38086 0.137196
20397.77930 0.1372
20398.18945 0.137203
20398.59961 0.137206
20399.00977 0.137209
20399.41992 0.137213
20399.83008 0.137216
20400.24023 0.137224
20400.65039 0.137236
20401.05078 0.137247
20401.46094 0.137259
20401.86914 0.137271
20402.27930 0.137282
20402.68945 0.137294
20403.09961 0.137306
20403.50977 0.137318
20403.91992 0.137329
20404.33008 0.137341
20404.73047 0.137353
20405.14062 0.137363
20405.55078 0.13737
20405.96094 0.137377
20406.36914 0.137384
20406.77930 0.137391
20407.18945 0.137398
20407.59961 0.137405
20408.00977 0.137412
20408.41992 0.137419
20408.82031 0.137426
20409.23047 0.137433
20409.64062 0.13744
20410.05078 0.137447
20410.46094 0.137451
20410.86914 0.137454
20411.27930 0.137458
20411.68945 0.137462
20412.09961 0.137465
20412.50977 0.137469
20412.91992 0.137473
20413.32031 0.137476
20413.73047 0.13748
20414.14062 0.137484
20414.55078 0.137487
20414.96094 0.137491
20415.36914 0.137497
20415.77930 0.137504
20416.18945 0.13751
20416.59961 0.137517
20417.00977 0.137523
20417.41992 0.137529
20417.82031 0.137536
20418.23047 0.137542
20418.64062 0.137549
20419.05078 0.137555
20419.46094 0.137562
20419.86914 0.137568
20420.27930 0.13758
20420.68945 0.137594
20421.09961 0.137608
20421.50977 0.137622
20421.91992 0.137636
20422.33008 0.13765
20422.74023 0.137664
20423.14062 0.137678
20423.55078 0.137692
20423.96094 0.137706
20424.36914 0.13772
20424.77930 0.137734
20425.18945 0.137745
20425.59961 0.137752
20426.00977 0.137759
20426.41992 0.137766
20426.83008 0.137773
20427.24023 0.137781
20427.65039 0.137788
20428.06055 0.137795
20428.47070 0.137802
20428.88086 0.137809
20429.28906 0.137816
20429.69922 0.137823
20430.10938 0.13783
20430.50977 0.137834
20430.91992 0.137839
20431.33008 0.137844
20431.74023 0.137849
20432.15039 0.137854
20432.56055 0.137859
20432.97070 0.137864
20433.38086 0.137869
20433.78906 0.137874
20434.19922 0.137878
20434.60938 0.137883
20435.01953 0.137888
20435.42969 0.137899
20435.83984 0.137909
20436.25000 0.137919
20436.66016 0.137929
20437.07031 0.13794
20437.48047 0.13795
20437.88086 0.13796
20438.28906 0.13797
20438.71094 0.137981
20439.11914 0.137991
20439.51953 0.138001
20439.92969 0.138012
20440.33984 0.138017
20440.75000 0.138021
20441.16016 0.138025
20441.57031 0.138029
20441.98047 0.138034
20442.39062 0.138038
20442.80078 0.138042
20443.21094 0.138046
20443.61914 0.13805
20444.02930 0.138055
20444.43945 0.138059
20444.84961 0.138063
20445.25977 0.13807
20445.66992 0.138078
20446.08008 0.138086
20446.49023 0.138094
20446.90039 0.138102
20447.31055 0.13811
20447.72070 0.138118
20448.13086 0.138126
20448.53906 0.138134
20448.94922 0.138142
20449.35938 0.13815
20449.76953 0.138158
20450.17969 0.138166
20450.58984 0.138174
20451.00000 0.138182
20451.41016 0.13819
20451.82031 0.138198
20452.23047 0.138206
20452.64062 0.138214
20453.05078 0.138222
20453.46094 0.13823
20453.86914 0.138238
20454.27930 0.138246
20454.68945 0.138254
20455.09961 0.138261
20455.50977 0.138266
20455.91992 0.138271
20456.33008 0.138276
20456.74023 0.138281
20457.15039 0.138286
20457.56055 0.138291
20457.96094 0.138296
20458.38086 0.138301
20458.78906 0.138306
20459.19922 0.138312
20459.60938 0.138317
20460.01953 0.138322
20460.42969 0.138327
20460.83984 0.138333
20461.25000 0.138339
20461.66016 0.138345
20462.07031 0.138351
20462.48047 0.138356
20462.89062 0.138362
20463.30078 0.138368
20463.71094 0.138374
20464.11914 0.13838
20464.52930 0.138385
20464.93945 0.138391
20465.34961 0.138399
20465.75977 0.138407
20466.16992 0.138414
20466.58008 0.138422
20466.99023 0.13843
20467.40039 0.138438
20467.81055 0.138446
20468.22070 0.138453
20468.63086 0.138461
20469.03906 0.138469
20469.44922 0.138477
20469.85938 0.138485
20470.26953 0.138499
20470.67969 0.138517
20471.08984 0.138536
20471.50000 0.138554
20471.91016 0.138572
20472.32031 0.138591
20472.73047 0.138609
20473.14062 0.138627
20473.55078 0.138646
20473.96094 0.138664
20474.36914 0.138682
20474.77930 0.138701
20475.18945 0.138715
20475.59961 0.138724
20476.00977 0.138734
20476.41992 0.138743
20476.83008 0.138753
20477.24023 0.138763
20477.66016 0.138772
20478.07031 0.138782
20478.48047 0.138792
20478.89062 0.138801
20479.30078 0.138811
20479.71094 0.13882
20480.11914 0.138829
20480.52930 0.138838
20480.93945 0.138846
20481.34961 0.138854
20481.75977 0.138862
20482.16992 0.13887
20482.58008 0.138878
20482.99023 0.138886
20483.40039 0.138895
20483.81055 0.138903
20484.22070 0.138911
20484.63086 0.138919
20485.03906 0.138927
20485.46094 0.138931
20485.86914 0.138935
20486.27930 0.138939
20486.68945 0.138944
20487.09961 0.138948
20487.50977 0.138952
20487.91992 0.138957
20488.33008 0.138961
20488.74023 0.138965
20489.15039 0.138969
20489.56055 0.138974
20489.97070 0.138978
20490.38086 0.138988
20490.78906 0.138999
20491.19922 0.13901
20491.60938 0.139021
20492.02930 0.139032
20492.43945 0.139042
20492.84961 0.139053
20493.25977 0.139064
20493.66992 0.139075
20494.08008 0.139086
20494.49023 0.139096
20494.90039 0.139107
20495.31055 0.139113
20495.72070 0.139117
20496.13086 0.139121
20496.53906 0.139124
20496.94922 0.139128
20497.35938 0.139132
20497.77930 0.139136
20498.18945 0.13914
20498.59961 0.139144
20499.00977 0.139148
20499.41992 0.139151
20499.83008 0.139155
20500.24023 0.13917
20500.65039 0.139192
20501.06055 0.139214
20501.47070 0.139237
20501.88086 0.139259
20502.28906 0.139281
20502.71094 0.139304
20503.11914 0.139326
20503.52930 0.139348
20503.93945 0.139371
20504.34961 0.139393
20504.75977 0.139415
20505.16992 0.13943
20505.58008 0.139434
20505.99023 0.139439
20506.40039 0.139443
20506.81055 0.139447
20507.22070 0.139451
20507.64062 0.139455
20508.05078 0.13946
20508.46094 0.139464
20508.86914 0.139468
20509.27930 0.139472
20509.68945 0.139476
20510.09961 0.139483
20510.50977 0.139494
20510.91992 0.139506
20511.33984 0.139517
20511.75000 0.139529
20512.16016 0.139541
20512.57031 0.139552
20512.98047 0.139564
20513.39062 0.139576
20513.80078 0.139587
20514.21094 0.139599
20514.63086 0.13961
20515.03906 0.139623
20515.44922 0.139639
20515.85938 0.139655
20516.26953 0.139672
20516.67969 0.139688
20517.08984 0.139705
20517.50000 0.139721
20517.91016 0.139738
20518.33008 0.139755
20518.74023 0.139771
20519.15039 0.139787
20519.56055 0.139804
20519.97070 0.13982
20520.38086 0.139825
20520.78906 0.139828
20521.19922 0.139832
20521.61914 0.139835
20522.02930 0.139839
20522.43945 0.139842
20522.84961 0.139846
20523.25977 0.139849
20523.66992 0.139852
20524.08008 0.139856
20524.49023 0.139859
20524.91016 0.139863
20525.32031 0.139877
20525.73047 0.139894
20526.14062 0.139911
20526.55078 0.139928
20526.96094 0.139945
20527.36914 0.139962
20527.78906 0.139979
20528.19922 0.139996
20528.60938 0.140014
20529.01953 0.140031
20529.42969 0.140048
20529.83984 0.140065
20530.25000 0.140078
20530.66992 0.140089
20531.08008 0.140099
20531.49023 0.140109
20531.90039 0.14012
20532.31055 0.14013
20532.72070 0.140141
20533.13086 0.140152
20533.53906 0.140162
20533.96094 0.140173
20534.36914 0.140183
20534.77930 0.140194
20535.18945 0.140203
20535.59961 0.140212
20536.01953 0.14022
20536.42969 0.140229
20536.83984 0.140237
20537.25000 0.140246
20537.66016 0.140254
20538.07031 0.140263
20538.48047 0.140271
20538.90039 0.14028
20539.31055 0.140288
20539.72070 0.140297
20540.13086 0.140309
20540.53906 0.140327
20540.96094 0.140346
20541.36914 0.140365
20541.77930 0.140383
20542.18945 0.140402
20542.59961 0.140421
20543.00977 0.140439
20543.41992 0.140458
20543.83984 0.140477
20544.25000 0.140495
20544.66016 0.140514
20545.07031 0.140533
20545.48047 0.140556
20545.89062 0.140579
20546.31055 0.140601
20546.72070 0.140624
20547.13086 0.140647
20547.53906 0.14067
20547.94922 0.140692
20548.36914 0.140715
20548.77930 0.140738
20549.18945 0.14076
20549.59961 0.140783
20550.00977 0.140805
20550.42969 0.14081
20550.83984 0.140814
20551.25000 0.140818
20551.66016 0.140823
20552.07031 0.140827
20552.48047 0.140832
20552.90039 0.140836
20553.31055 0.140841
20553.72070 0.140845
20554.13086 0.140849
20554.53906 0.140854
20554.96094 0.140858
20555.36914 0.140887
20555.77930 0.140919
20556.18945 0.140951
20556.59961 0.140983
20557.01953 0.141014
20557.42969 0.141046
20557.83984 0.141078
20558.25000 0.14111
20558.66016 0.141142
20559.08008 0.141174
20559.49023 0.141206
20559.90039 0.141238
20560.31055 0.141255
20560.72070 0.141268
20561.14062 0.14128
20561.55078 0.141293
20561.96094 0.141305
20562.36914 0.141318
20562.78906 0.14133
20563.19922 0.141343
20563.60938 0.141355
20564.01953 0.141368
20564.42969 0.14138
20564.84961 0.141393
20565.25977 0.141414
20565.66992 0.141439
20566.08008 0.141465
20566.49023 0.141491
20566.91016 0.141517
20567.32031 0.141543
20567.73047 0.141568
20568.14062 0.141594
20568.55078 0.14162
20568.97070 0.141646
20569.38086 0.141672
20569.78906 0.141697
20570.19922 0.141715
20570.61914 0.141726
20571.02930 0.141736
20571.43945 0.141746
20571.84961 0.141757
20572.26953 0.141767
20572.67969 0.141777
20573.08984 0.141787
20573.50000 0.141798
20573.91016 0.141808
20574.33008 0.141818
20574.74023 0.141828
20575.15039 0.141842
20575.56055 0.141863
20575.98047 0.141883
20576.39062 0.141904
20576.80078 0.141924
20577.21094 0.141945
20577.61914 0.141965
20578.03906 0.141985
20578.44922 0.142006
20578.85938 0.142026
20579.27930 0.142047
20579.68945 0.142067
20580.09961 0.142089
20580.50977 0.142117
20580.92969 0.142144
20581.33984 0.142172
20581.75000 0.142199
20582.16016 0.142227
20582.57031 0.142254
20582.99023 0.142282
20583.40039 0.142309
20583.81055 0.142337
20584.22070 0.142364
20584.64062 0.142392
20585.05078 0.142418
20585.46094 0.142439
20585.88086 0.142459
20586.28906 0.14248
20586.69922 0.1425
20587.10938 0.142521
20587.52930 0.142541
20587.93945 0.142562
20588.34961 0.142582
20588.75977 0.142603
20589.17969 0.142623
20589.58984 0.142644
20590.00000 0.142664
20590.41016 0.142688
20590.83008 0.142711
20591.24023 0.142734
20591.65039 0.142757
20592.06055 0.142781
20592.48047 0.142804
20592.89062 0.142827
20593.30078 0.14285
20593.71094 0.142873
20594.13086 0.142897
20594.53906 0.14292
20594.94922 0.142943
20595.36914 0.142965
20595.77930 0.142986
20596.18945 0.143008
20596.60938 0.14303
20597.01953 0.143051
20597.42969 0.143073
20597.83984 0.143094
20598.25977 0.143116
20598.66992 0.143137
20599.08008 0.143159
20599.49023 0.14318
20599.91016 0.143202
20600.32031 0.143227
20600.73047 0.143253
20601.15039 0.143279
20601.56055 0.143304
20601.97070 0.14333
20602.38086 0.143356
20602.80078 0.143382
20603.21094 0.143408
20603.61914 0.143434
20604.03906 0.14346
20604.44922 0.143486
20604.85938 0.143511
20605.27930 0.143544
20605.68945 0.143581
20606.09961 0.143617
20606.50977 0.143653
20606.92969 0.14369
20607.33984 0.143726
20607.75000 0.143762
20608.16992 0.143799
20608.58008 0.143835
20608.99023 0.143872
20609.40039 0.143908
20609.82031 0.143945
20610.23047 0.14397
20610.64062 0.143988
20611.06055 0.144005
20611.47070 0.144023
20611.88086 0.14404
20612.30078 0.144058
20612.71094 0.144075
20613.11914 0.144092
20613.53906 0.14411
20613.94922 0.144127
20614.35938 0.144144
20614.77930 0.144162
20615.18945 0.144187
20615.59961 0.144223
20616.00977 0.144258
20616.42969 0.144294
20616.83984 0.144329
20617.25000 0.144365
20617.66992 0.1444
20618.08008 0.144435
20618.49023 0.144471
20618.91016 0.144506
20619.32031 0.144542
20619.73047 0.144577
20620.15039 0.144611
20620.56055 0.144642
20620.97070 0.144673
20621.39062 0.144704
20621.80078 0.144734
20622.21094 0.144765
20622.63086 0.144796
20623.03906 0.144827
20623.44922 0.144858
20623.86914 0.144889
20624.27930 0.14492
20624.68945 0.144951
20625.10938 0.144979
20625.51953 0.145003
20625.92969 0.145026
20626.34961 0.145049
20626.75977 0.145073
20627.16992 0.145096
20627.58984 0.145119
20628.00000 0.145143
20628.41016 0.145166
20628.83008 0.145189
20629.24023 0.145213
20629.65039 0.145236
20630.07031 0.145261
20630.48047 0.145295
20630.89062 0.145328
20631.31055 0.145362
20631.72070 0.145395
20632.13086 0.145428
20632.55078 0.145462
20632.96094 0.145495
20633.38086 0.145529
20633.78906 0.145562
20634.19922 0.145596
20634.61914 0.145629
20635.02930 0.145662
20635.43945 0.145688
20635.85938 0.145713
20636.26953 0.145739
20636.67969 0.145765
20637.09961 0.14579
20637.50977 0.145816
20637.91992 0.145842
20638.33984 0.145867
20638.75000 0.145893
20639.16992 0.145919
20639.58008 0.145944
20639.99023 0.14597
20640.41016 0.146011
20640.82031 0.146052
20641.23047 0.146093
20641.65039 0.146134
20642.06055 0.146175
20642.47070 0.146216
20642.89062 0.146257
20643.30078 0.146298
20643.71094 0.146339
20644.13086 0.146381
20644.53906 0.146422
20644.96094 0.146463
20645.36914 0.146494
20645.78906 0.146524
20646.19922 0.146554
20646.60938 0.146583
20647.02930 0.146613
20647.43945 0.146643
20647.84961 0.146673
20648.26953 0.146703
20648.67969 0.146733
20649.09961 0.146763
20649.50977 0.146793
20649.91992 0.146823
20650.33984 0.146853
20650.75000 0.146885
20651.16016 0.146916
20651.58008 0.146947
20651.99023 0.146979
20652.41016 0.14701
20652.82031 0.147041
20653.23047 0.147072
20653.65039 0.147103
20654.06055 0.147135
20654.47070 0.147166
20654.89062 0.147197
20655.30078 0.147225
20655.72070 0.147253
20656.13086 0.147279
20656.53906 0.147307
20656.96094 0.147334
20657.36914 0.147361
20657.78906 0.147388
20658.19922 0.147415
20658.61914 0.147442
20659.02930 0.147469
20659.43945 0.147496
20659.85938 0.147523
20660.26953 0.14756
20660.68945 0.147602
20661.09961 0.147645
20661.50977 0.147688
20661.92969 0.14773
20662.33984 0.147773
20662.75977 0.147815
20663.16992 0.147858
20663.58008 0.1479
20664.00000 0.147943
20664.41016 0.147986
20664.83008 0.148028
20665.24023 0.148067
20665.65039 0.148103
20666.07031 0.148139
20666.48047 0.148175
20666.90039 0.148211
20667.31055 0.148247
20667.73047 0.148283
20668.14062 0.148318
20668.55078 0.148354
20668.97070 0.14839
20669.38086 0.148426
20669.80078 0.148462
20670.21094 0.148493
20670.63086 0.148519
20671.03906 0.148545
20671.44922 0.148572
20671.86914 0.148598
20672.27930 0.148624
20672.69922 0.14865
20673.10938 0.148677
20673.52930 0.148703
20673.93945 0.148729
20674.34961 0.148755
20674.76953 0.148781
20675.17969 0.148812
20675.59961 0.148847
20676.00977 0.148883
20676.42969 0.148919
20676.83984 0.148954
20677.25000 0.14899
20677.66992 0.149026
20678.08008 0.149061
20678.50000 0.149097
20678.91016 0.149132
20679.33008 0.149168
20679.74023 0.149204
20680.16016 0.149238
20680.57031 0.14927
20680.98047 0.149301
20681.40039 0.149333
20681.81055 0.149365
20682.23047 0.149397
20682.64062 0.149428
20683.06055 0.14946
20683.47070 0.149492
20683.89062 0.149524
20684.30078 0.149556
20684.71094 0.149588
20685.13086 0.149622
20685.53906 0.149665
20685.96094 0.149707
20686.36914 0.149749
20686.78906 0.149792
20687.19922 0.149834
20687.61914 0.149876
20688.02930 0.149918
20688.44922 0.149961
20688.85938 0.150003
20689.27930 0.150045
20689.68945 0.150088
20690.10938 0.150126
20690.51953 0.150151
20690.92969 0.150177
20691.34961 0.150202
20691.75977 0.150228
20692.17969 0.150253
20692.58984 0.150279
20693.00977 0.150304
20693.41992 0.15033
20693.83984 0.150356
20694.25000 0.150381
20694.66992 0.150407
20695.08008 0.150435
20695.50000 0.150475
20695.91016 0.150515
20696.33008 0.150556
20696.74023 0.150596
20697.16016 0.150636
20697.57031 0.150676
20697.98047 0.150717
20698.40039 0.150757
20698.81055 0.150797
20699.23047 0.150838
20699.64062 0.150878
20700.06055 0.150914
20700.47070 0.150931
20700.89062 0.150947
20701.30078 0.150964
20701.72070 0.15098
20702.13086 0.150996
20702.55078 0.151012
20702.96094 0.151029
20703.38086 0.151045
20703.78906 0.151061
20704.21094 0.151078
20704.61914 0.151094
20705.03906 0.151113
20705.44922 0.151152
20705.86914 0.151192
20706.27930 0.151231
20706.69922 0.151271
20707.10938 0.15131
20707.52930 0.15135
20707.93945 0.151389
20708.35938 0.151429
20708.76953 0.151469
20709.18945 0.151508
20709.59961 0.151548
20710.01953 0.151586
20710.42969 0.151606
20710.84961 0.151625
20711.25977 0.151644
20711.67969 0.151664
20712.08984 0.151683
20712.50977 0.151702
20712.91992 0.151721
20713.33984 0.151741
20713.75000 0.15176
20714.16992 0.151779
20714.58008 0.151798
20715.00000 0.151818
20715.41016 0.15184
20715.83008 0.151862
20716.24023 0.151884
20716.66016 0.151906
20717.08008 0.151928
20717.49023 0.15195
20717.91016 0.151972
20718.32031 0.151994
20718.74023 0.152016
20719.15039 0.152038
20719.57031 0.15206
20719.98047 0.152082
20720.40039 0.152095
20720.81055 0.152109
20721.23047 0.152122
20721.64062 0.152136
20722.06055 0.152149
20722.47070 0.152162
20722.89062 0.152176
20723.30078 0.152189
20723.72070 0.152202
20724.13086 0.152216
20724.55078 0.152229
20724.96094 0.152243
20725.38086 0.152267
20725.80078 0.152293
20726.21094 0.152319
20726.63086 0.152345
20727.03906 0.152371
20727.46094 0.152396
20727.86914 0.152422
20728.28906 0.152448
20728.69922 0.152474
20729.11914 0.1525
20729.53906 0.152526
20729.94922 0.152552
20730.36914 0.152565
20730.77930 0.152578
20731.19922 0.15259
20731.60938 0.152602
20732.02930 0.152614
20732.43945 0.152627
20732.85938 0.152639
20733.26953 0.152651
20733.68945 0.152663
20734.10938 0.152676
20734.51953 0.152688
20734.93945 0.1527
20735.34961 0.152714
20735.76953 0.152728
20736.17969 0.152743
20736.59961 0.152757
20737.00977 0.152771
20737.42969 0.152786
20737.84961 0.1528
20738.25977 0.152814
20738.67969 0.152829
20739.08984 0.152843
20739.50977 0.152857
20739.91992 0.152872
20740.33984 0.15288
20740.75977 0.152887
20741.16992 0.152894
20741.58984 0.152901
20742.00000 0.152908
20742.41992 0.152915
20742.83008 0.152922
20743.25000 0.152929
20743.66016 0.152937
20744.08008 0.152944
20744.50000 0.152951
20744.91016 0.152958
20745.33008 0.152972
20745.74023 0.152988
20746.16016 0.153004
20746.58008 0.15302
20746.99023 0.153036
20747.41016 0.153052
20747.82031 0.153068
20748.24023 0.153084
20748.65039 0.1531
20749.07031 0.153116
20749.49023 0.153132
20749.90039 0.153148
20750.32031 0.153148
20750.73047 0.153142
20751.15039 0.153137
20751.56055 0.153131
20751.98047 0.153126
20752.40039 0.15312
20752.81055 0.153115
20753.23047 0.153109
20753.64062 0.153104
20754.06055 0.153098
20754.48047 0.153093
20754.89062 0.153087
20755.31055 0.153079
20755.72070 0.15307
20756.14062 0.15306
20756.56055 0.153051
20756.97070 0.153042
20757.39062 0.153032
20757.80078 0.153023
20758.22070 0.153014
20758.64062 0.153004
20759.05078 0.152995
20759.47070 0.152986
20759.88086 0.152976
20760.30078 0.152967
20760.72070 0.152957
20761.13086 0.152948
20761.55078 0.152938
20761.96094 0.152929
20762.38086 0.152919
20762.80078 0.15291
20763.21094 0.1529
20763.63086 0.152891
20764.03906 0.152881
20764.46094 0.152872
20764.88086 0.152862
20765.28906 0.152848
20765.71094 0.152833
20766.13086 0.152817
20766.53906 0.152801
20766.96094 0.152785
20767.38086 0.15277
20767.78906 0.152754
20768.21094 0.152738
20768.61914 0.152723
20769.03906 0.152707
20769.46094 0.152691
20769.86914 0.152675
20770.28906 0.152662
20770.71094 0.152649
20771.11914 0.152637
20771.53906 0.152624
20771.94922 0.152612
20772.36914 0.152599
20772.78906 0.152586
20773.19922 0.152574
20773.61914 0.152561
20774.03906 0.152549
20774.44922 0.152536
20774.86914 0.152524
20775.28906 0.1525
20775.69922 0.152471
20776.11914 0.152442
20776.52930 0.152413
20776.94922 0.152384
20777.36914 0.152355
20777.77930 0.152326
20778.19922 0.152298
20778.61914 0.152269
20779.02930 0.15224
20779.44922 0.152211
20779.86914 0.152182
20780.27930 0.152143
20780.69922 0.152098
20781.11914 0.152054
20781.52930 0.15201
20781.94922 0.151966
20782.35938 0.151922
20782.77930 0.151878
20783.19922 0.151834
20783.60938 0.151789
20784.02930 0.151745
20784.44922 0.151701
20784.85938 0.151657
20785.27930 0.151614
20785.69922 0.151572
20786.10938 0.15153
20786.52930 0.151488
20786.94922 0.151447
20787.35938 0.151404
20787.77930 0.151363
20788.19922 0.151321
20788.60938 0.151279
20789.02930 0.151237
20789.44922 0.151195
20789.85938 0.151153
20790.27930 0.151109
20790.69922 0.151064
20791.10938 0.151019
20791.52930 0.150974
20791.94922 0.150928
20792.35938 0.150883
20792.77930 0.150838
20793.19922 0.150793
20793.60938 0.150748
20794.02930 0.150703
20794.44922 0.150658
20794.85938 0.150612
20795.27930 0.15056
20795.69922 0.150504
20796.10938 0.150447
20796.52930 0.150391
20796.94922 0.150335
20797.35938 0.150279
20797.77930 0.150222
20798.19922 0.150166
20798.60938 0.15011
20799.02930 0.150053
20799.44922 0.149997
20799.86914 0.14994
20800.27930 0.149881
20800.69922 0.149821
20801.11914 0.14976
20801.52930 0.1497
20801.94922 0.14964
20802.36914 0.149579
20802.77930 0.149519
20803.19922 0.149458
20803.61914 0.149398
20804.02930 0.149337
20804.44922 0.149277
20804.86914 0.149216
20805.28906 0.149152
20805.69922 0.149087
20806.11914 0.149022
20806.53906 0.148957
20806.94922 0.148892
20807.36914 0.148827
20807.78906 0.148761
20808.19922 0.148696
20808.61914 0.148631
20809.03906 0.148565
20809.46094 0.1485
20809.86914 0.148435
20810.28906 0.148363
20810.71094 0.148289
20811.11914 0.148215
20811.53906 0.148141
20811.96094 0.148067
20812.36914 0.147993
20812.78906 0.147919
20813.21094 0.147844
20813.61914 0.14777
20814.03906 0.147696
20814.46094 0.147622
20814.88086 0.147548
20815.28906 0.147457
20815.71094 0.14736
20816.13086 0.147262
20816.53906 0.147165
20816.96094 0.147067
20817.38086 0.14697
20817.80078 0.146872
20818.21094 0.146774
20818.63086 0.146677
20819.05078 0.146579
20819.47070 0.146481
20819.88086 0.146384
20820.30078 0.146286
20820.72070 0.146188
20821.13086 0.14609
20821.55078 0.145992
20821.97070 0.145894
20822.39062 0.145796
20822.80078 0.145698
20823.22070 0.1456
20823.64062 0.145502
20824.06055 0.145403
20824.47070 0.145305
20824.89062 0.145207
20825.31055 0.145097
20825.72070 0.144984
20826.14062 0.144871
20826.56055 0.144757
20826.98047 0.144643
20827.39062 0.14453
20827.81055 0.144417
20828.23047 0.144303
20828.65039 0.144189
20829.06055 0.144076
20829.48047 0.143962
20829.90039 0.143848
20830.32031 0.143736
20830.73047 0.143624
20831.15039 0.143512
20831.57031 0.1434
20831.99023 0.143288
20832.40039 0.143176
20832.82031 0.143064
20833.24023 0.142952
20833.66016 0.14284
20834.07031 0.142728
20834.49023 0.142616
20834.91016 0.142503
20835.33008 0.142371
20835.74023 0.142235
20836.16016 0.142097
20836.58008 0.14196
20837.00000 0.141822
20837.41992 0.141684
20837.83008 0.141548
20838.25000 0.14141
20838.66992 0.141272
20839.08984 0.141135
20839.50000 0.140997
20839.91992 0.140859
20840.33984 0.140731
20840.75977 0.140604
20841.16992 0.140477
20841.58984 0.14035
20842.00977 0.140223
20842.42969 0.140096
20842.84961 0.139969
20843.25977 0.139843
20843.67969 0.139716
20844.09961 0.139589
20844.51953 0.139461
20844.92969 0.139334
20845.34961 0.139191
20845.76953 0.139044
20846.18945 0.138897
20846.60938 0.13875
20847.01953 0.138603
20847.43945 0.138457
20847.85938 0.13831
20848.27930 0.138163
20848.68945 0.138016
20849.10938 0.137869
20849.52930 0.137721
20849.94922 0.137574
20850.36914 0.137413
20850.77930 0.13725
20851.19922 0.137087
20851.61914 0.136923
20852.03906 0.13676
20852.46094 0.136597
20852.86914 0.136433
20853.28906 0.13627
20853.71094 0.136106
20854.13086 0.135943
20854.53906 0.135779
20854.96094 0.135616
20855.38086 0.135444
20855.80078 0.135272
20856.22070 0.135099
20856.63086 0.134927
20857.05078 0.134754
20857.47070 0.134581
20857.89062 0.134409
20858.31055 0.134236
20858.72070 0.134063
20859.14062 0.13389
20859.56055 0.133717
20859.98047 0.133545
20860.40039 0.133382
20860.81055 0.133221
20861.23047 0.133059
20861.65039 0.132898
20862.07031 0.132736
20862.49023 0.132575
20862.90039 0.132413
20863.32031 0.132251
20863.74023 0.132089
20864.16016 0.131927
20864.58008 0.131765
20865.00000 0.131604
20865.41016 0.131417
20865.83008 0.13123
20866.25000 0.131044
20866.66992 0.130857
20867.08984 0.13067
20867.50000 0.130484
20867.91992 0.130296
20868.33984 0.130109
20868.75977 0.129922
20869.17969 0.129735
20869.59961 0.129548
20870.00977 0.129361
20870.42969 0.129182
20870.84961 0.129001
20871.26953 0.128821
20871.68945 0.128641
20872.10938 0.128461
20872.51953 0.12828
20872.93945 0.1281
20873.35938 0.127919
20873.77930 0.127739
20874.19922 0.127559
20874.61914 0.127378
20875.02930 0.127196
20875.44922 0.126988
20875.86914 0.126782
20876.28906 0.126575
20876.71094 0.126368
20877.11914 0.126161
20877.53906 0.125953
20877.96094 0.125746
20878.38086 0.125539
20878.80078 0.125332
20879.22070 0.125124
20879.64062 0.124917
20880.05078 0.12471
20880.47070 0.1245
20880.89062 0.124289
20881.31055 0.124079
20881.73047 0.123869
20882.15039 0.123659
20882.57031 0.123448
20882.98047 0.123237
20883.40039 0.123027
20883.82031 0.122816
20884.24023 0.122606
20884.66016 0.122395
20885.08008 0.122182
20885.50000 0.121958
20885.91016 0.121734
20886.33008 0.121511
20886.75000 0.121286
20887.16992 0.121062
20887.58984 0.120839
20888.00977 0.120614
20888.42969 0.12039
20888.83984 0.120166
20889.25977 0.119941
20889.67969 0.119717
20890.09961 0.119496
20890.51953 0.119281
20890.93945 0.119068
20891.35938 0.118853
20891.77930 0.118639
20892.18945 0.118426
20892.60938 0.118211
20893.02930 0.117998
20893.44922 0.117784
20893.86914 0.117569
20894.28906 0.117355
20894.71094 0.11714
20895.13086 0.116925
20895.53906 0.116708
20895.96094 0.116489
20896.38086 0.116271
20896.80078 0.116053
20897.22070 0.115835
20897.64062 0.115616
20898.06055 0.115398
20898.47070 0.11518
20898.89062 0.114961
20899.31055 0.114743
20899.73047 0.114524
20900.15039 0.114302
20900.57031 0.114071
20900.99023 0.113841
20901.41016 0.11361
20901.83008 0.11338
20902.25000 0.113149
20902.66016 0.112919
20903.08008 0.112688
20903.50000 0.112458
20903.91992 0.112227
20904.33984 0.111997
20904.75977 0.111765
20905.17969 0.111537
20905.59961 0.11131
20906.01953 0.111085
20906.43945 0.110858
20906.84961 0.110632
20907.26953 0.110405
20907.68945 0.110179
20908.10938 0.109952
20908.52930 0.109726
20908.94922 0.109499
20909.36914 0.109273
20909.78906 0.109046
20910.21094 0.108812
20910.61914 0.10857
20911.03906 0.108328
20911.46094 0.108087
20911.88086 0.107845
20912.30078 0.107604
20912.72070 0.107362
20913.14062 0.107119
20913.56055 0.106878
20913.98047 0.106636
20914.40039 0.106395
20914.82031 0.106152
20915.24023 0.105909
20915.65039 0.105666
20916.07031 0.105422
20916.49023 0.10518
20916.91016 0.104936
20917.33008 0.104692
20917.75000 0.104449
20918.16992 0.104205
20918.58984 0.103961
20919.00977 0.103718
20919.42969 0.103473
20919.84961 0.103229
20920.26953 0.102986
20920.68945 0.102743
20921.10938 0.102499
20921.51953 0.102257
20921.93945 0.102013
20922.35938 0.101769
20922.77930 0.101526
20923.19922 0.101282
20923.61914 0.101038
20924.03906 0.100795
20924.46094 0.100551
20924.88086 0.100307
20925.30078 0.100066
20925.72070 0.099828
20926.14062 0.099589
20926.56055 0.099349
20926.97070 0.099111
20927.39062 0.098871
20927.81055 0.098632
20928.23047 0.098392
20928.65039 0.098154
20929.07031 0.097914
20929.49023 0.097675
20929.91016 0.097435
20930.33008 0.097198
20930.75000 0.09696
20931.16992 0.096723
20931.58984 0.096485
20932.00977 0.096247
20932.42969 0.096011
20932.84961 0.095773
20933.26953 0.095535
20933.68945 0.095297
20934.10938 0.095059
20934.52930 0.094822
20934.94922 0.094584
20935.36914 0.094349
20935.78906 0.094114
20936.21094 0.093879
20936.61914 0.093645
20937.03906 0.09341
20937.46094 0.093175
20937.88086 0.09294
20938.30078 0.092705
20938.72070 0.09247
20939.14062 0.092235
20939.56055 0.092001
20939.98047 0.091765
20940.40039 0.091524
20940.82031 0.091282
20941.24023 0.09104
20941.66016 0.090799
20942.08008 0.090557
20942.50000 0.090315
20942.91992 0.090074
20943.33984 0.089832
20943.75977 0.08959
20944.17969 0.089348
20944.59961 0.089106
20945.01953 0.088864
20945.43945 0.088623
20945.85938 0.088383
20946.27930 0.088142
20946.69922 0.087902
20947.11914 0.087661
20947.53906 0.08742
20947.96094 0.087179
20948.38086 0.08694
20948.78906 0.086699
20949.21094 0.086458
20949.63086 0.086217
20950.05078 0.085975
20950.47070 0.085732
20950.89062 0.085488
20951.31055 0.085245
20951.73047 0.085001
20952.15039 0.084758
20952.57031 0.084514
20952.99023 0.08427
20953.41016 0.084026
20953.83008 0.083783
20954.25000 0.083539
20954.66992 0.083295
20955.08984 0.083054
20955.50977 0.082823
20955.92969 0.082592
20956.34961 0.082361
20956.76953 0.082131
20957.18945 0.0819
20957.61914 0.081668
20958.03906 0.081437
20958.46094 0.081206
20958.86914 0.080974
20959.28906 0.080743
20959.71094 0.080512
20960.13086 0.080284
20960.55078 0.080063
20960.97070 0.079842
20961.39062 0.079621
20961.81055 0.0794
20962.23047 0.079179
20962.65039 0.078958
20963.08008 0.078736
20963.50000 0.078515
20963.91992 0.078294
20964.33984 0.078072
20964.75977 0.077851
20965.17969 0.077627
20965.59961 0.0774
20966.01953 0.077172
20966.43945 0.076945
20966.85938 0.076716
20967.27930 0.076489
20967.69922 0.076261
20968.11914 0.076033
20968.53906 0.075806
20968.96094 0.075578
20969.38086 0.075349
20969.80078 0.075121
20970.22070 0.074902
20970.64062 0.074691
20971.06055 0.07448
20971.48047 0.074269
20971.90039 0.074056
20972.32031 0.073845
20972.74023 0.073634
20973.16016 0.073422
20973.58008 0.073211
20974.00000 0.072998
20974.41992 0.072787
20974.83984 0.072575
20975.25977 0.072358
20975.67969 0.072135
20976.09961 0.071913
20976.51953 0.071691
20976.93945 0.07147
20977.36914 0.071247
20977.78906 0.071025
20978.21094 0.070803
20978.63086 0.070581
20979.05078 0.070358
20979.47070 0.070136
20979.89062 0.069914
20980.31055 0.069688
20980.73047 0.06946
20981.15039 0.069233
20981.57031 0.069006
20981.99023 0.068777
20982.41016 0.06855
20982.83008 0.068323
20983.25000 0.068094
20983.66992 0.067867
20984.08984 0.067639
20984.50977 0.067412
20984.92969 0.067183
20985.34961 0.066969
20985.76953 0.066757
20986.19922 0.066544
20986.61914 0.066332
20987.03906 0.066119
20987.46094 0.065906
20987.88086 0.065694
20988.30078 0.06548
20988.72070 0.065268
20989.14062 0.065056
20989.56055 0.064842
20989.98047 0.06463
20990.40039 0.064441
20990.82031 0.064253
20991.24023 0.064065
20991.66016 0.063877
20992.08008 0.063689
20992.50000 0.063501
20992.92969 0.063313
20993.34961 0.063125
20993.76953 0.062936
20994.18945 0.062749
20994.60938 0.06256
20995.02930 0.062372
20995.44922 0.062179
20995.86914 0.061985
20996.28906 0.061792
20996.71094 0.061598
20997.13086 0.061404
20997.55078 0.06121
20997.97070 0.061017
20998.40039 0.060823
20998.82031 0.06063
20999.24023 0.060436
20999.66016 0.060242
21000.08008 0.060048
21000.50000 0.059851
21000.91992 0.059656
21001.33984 0.059459
21001.75977 0.059263
21002.17969 0.059067
21002.59961 0.058871
21003.02930 0.058674
21003.44922 0.058478
21003.86914 0.058282
21004.28906 0.058085
21004.71094 0.057889
21005.13086 0.057695
21005.55078 0.057508
21005.97070 0.057319
21006.39062 0.057132
21006.81055 0.056943
21007.23047 0.056756
21007.66016 0.056567
21008.08008 0.05638
21008.50000 0.056191
21008.91992 0.056003
21009.33984 0.055815
21009.75977 0.055627
21010.17969 0.055439
21010.59961 0.055251
21011.02930 0.055062
21011.44922 0.054874
21011.86914 0.054686
21012.28906 0.054498
21012.71094 0.054309
21013.13086 0.054121
21013.55078 0.053933
21013.97070 0.053744
21014.39062 0.053557
21014.81055 0.053368
21015.24023 0.053181
21015.66016 0.052995
21016.08008 0.052808
21016.50000 0.052622
21016.91992 0.052436
21017.33984 0.05225
21017.75977 0.052063
21018.17969 0.051878
21018.60938 0.051691
21019.02930 0.051505
21019.44922 0.051319
21019.86914 0.051133
21020.28906 0.050958
21020.71094 0.050791
21021.13086 0.050622
21021.55078 0.050454
21021.97070 0.050286
21022.40039 0.050117
21022.82031 0.049949
21023.24023 0.04978
21023.66016 0.049612
21024.08008 0.049444
21024.50000 0.049275
21024.92969 0.049106
21025.34961 0.048947
21025.76953 0.048789
21026.18945 0.04863
21026.60938 0.048472
21027.02930 0.048314
21027.44922 0.048156
21027.88086 0.047997
21028.30078 0.047839
21028.72070 0.047681
21029.14062 0.047523
21029.56055 0.047364
21029.98047 0.047206
21030.40039 0.047047
21030.82031 0.046889
21031.25000 0.04673
21031.66992 0.046571
21032.08984 0.046412
21032.50977 0.046253
21032.92969 0.046095
21033.34961 0.045936
21033.77930 0.045777
21034.19922 0.045618
21034.61914 0.045459
21035.03906 0.045301
21035.46094 0.045154
21035.88086 0.045006
21036.30078 0.044858
21036.73047 0.04471
21037.15039 0.044562
21037.57031 0.044414
21037.99023 0.044265
21038.41016 0.044118
21038.83008 0.04397
21039.25977 0.043822
21039.67969 0.043674
21040.09961 0.043523
21040.51953 0.043363
21040.93945 0.043203
21041.36914 0.043043
21041.78906 0.042883
21042.21094 0.042723
21042.63086 0.042564
21043.05078 0.042404
21043.47070 0.042244
21043.89062 0.042085
21044.32031 0.041925
21044.74023 0.041765
21045.16016 0.04161
21045.58008 0.041462
21046.00000 0.041315
21046.42969 0.041168
21046.84961 0.041021
21047.26953 0.040874
21047.68945 0.040727
21048.10938 0.04058
21048.53906 0.040432
21048.96094 0.040285
21049.38086 0.040138
21049.80078 0.039991
21050.22070 0.03985
21050.64062 0.039715
21051.07031 0.03958
21051.49023 0.039445
21051.91016 0.039309
21052.33008 0.039174
21052.75000 0.039039
21053.17969 0.038904
21053.59961 0.038769
21054.01953 0.038634
21054.43945 0.038498
21054.85938 0.038363
21055.28906 0.038235
21055.71094 0.03811
21056.13086 0.037985
21056.55078 0.03786
21056.97070 0.037734
21057.39062 0.037609
21057.82031 0.037484
21058.24023 0.037359
21058.66016 0.037233
21059.08008 0.037108
21059.50977 0.036983
21059.92969 0.036858
21060.34961 0.03673
21060.76953 0.0366
21061.18945 0.036471
21061.61914 0.036342
21062.03906 0.036213
21062.46094 0.036083
21062.88086 0.035954
21063.30078 0.035824
21063.73047 0.035695
21064.15039 0.035566
21064.57031 0.035437
21064.99023 0.035307
21065.41016 0.035192
21065.83984 0.035076
21066.25977 0.03496
21066.67969 0.034845
21067.09961 0.034729
21067.52930 0.034613
21067.94922 0.034498
21068.36914 0.034382
21068.78906 0.034266
21069.21094 0.034151
21069.64062 0.034035
21070.06055 0.03392
21070.48047 0.033802
21070.90039 0.033685
21071.33008 0.033568
21071.75000 0.033451
21072.16992 0.033334
21072.58984 0.033217
21073.01953 0.0331
21073.43945 0.032983
21073.85938 0.032866
21074.27930 0.032749
21074.71094 0.032632
21075.13086 0.032514
21075.55078 0.032393
21075.97070 0.032272
21076.39062 0.032151
21076.82031 0.032031
21077.24023 0.03191
21077.66016 0.031789
21078.08008 0.031669
21078.50977 0.031548
21078.92969 0.031427
21079.34961 0.031306
21079.76953 0.031186
21080.19922 0.031071
21080.61914 0.030965
21081.03906 0.030859
21081.46094 0.030753
21081.89062 0.030647
21082.31055 0.030541
21082.73047 0.030435
21083.15039 0.030328
21083.58008 0.030222
21084.00000 0.030116
21084.41992 0.03001
21084.83984 0.029904
21085.26953 0.029803
21085.68945 0.029706
21086.10938 0.029608
21086.53906 0.029511
21086.96094 0.029414
21087.38086 0.029317
21087.80078 0.029219
21088.22070 0.029122
21088.65039 0.029024
21089.07031 0.028927
21089.49023 0.02883
21089.91992 0.028732
21090.33984 0.028641
21090.75977 0.028551
21091.17969 0.028461
21091.60938 0.02837
21092.02930 0.02828
21092.44922 0.02819
21092.86914 0.0281
21093.30078 0.02801
21093.72070 0.027919
21094.14062 0.027829
21094.57031 0.027739
21094.99023 0.027648
21095.41016 0.027555
21095.83008 0.027461
21096.25977 0.027367
21096.67969 0.027273
21097.09961 0.027179
21097.52930 0.027085
21097.94922 0.026991
21098.36914 0.026897
21098.78906 0.026803
21099.22070 0.026709
21099.64062 0.026615
21100.06055 0.026519
21100.48047 0.026416
21100.91016 0.026312
21101.33008 0.026209
21101.75000 0.026106
21102.17969 0.026003
21102.59961 0.025899
21103.01953 0.025796
21103.44922 0.025692
21103.86914 0.025589
21104.28906 0.025486
21104.71094 0.025382
21105.14062 0.025282
21105.56055 0.025189
21105.98047 0.025097
21106.41016 0.025004
21106.83008 0.024912
21107.25000 0.024819
21107.67969 0.024726
21108.09961 0.024634
21108.51953 0.024541
21108.93945 0.024449
21109.36914 0.024356
21109.78906 0.024263
21110.21094 0.024183
21110.64062 0.024114
21111.06055 0.024044
21111.48047 0.023976
21111.91016 0.023906
21112.33008 0.023838
21112.75000 0.023768
21113.17969 0.023699
21113.59961 0.02363
21114.01953 0.023561
21114.44922 0.023492
21114.86914 0.023423
21115.28906 0.023345
21115.71094 0.023263
21116.14062 0.023182
21116.56055 0.0231
21116.98047 0.023018
21117.41016 0.022936
21117.83008 0.022854
21118.25000 0.022772
21118.67969 0.02269
21119.09961 0.022608
21119.51953 0.022526
21119.94922 0.022444
21120.36914 0.022366
21120.78906 0.022288
21121.22070 0.022209
21121.64062 0.022131
21122.06055 0.022053
21122.49023 0.021975
21122.91016 0.021896
21123.33008 0.021818
21123.75977 0.02174
21124.17969 0.021662
21124.59961 0.021583
21125.02930 0.021506
21125.44922 0.02144
21125.86914 0.021373
21126.30078 0.021307
21126.72070 0.021241
21127.14062 0.021175
21127.57031 0.021108
21127.99023 0.021042
21128.41016 0.020976
21128.83984 0.02091
21129.25977 0.020844
21129.67969 0.020777
21130.10938 0.020709
21130.52930 0.020636
21130.96094 0.020564
21131.38086 0.020491
21131.80078 0.020418
21132.22070 0.020346
21132.65039 0.020273
21133.07031 0.0202
21133.50000 0.020127
21133.91992 0.020055
21134.33984 0.019982
21134.76953 0.019909
21135.18945 0.019836
21135.60938 0.019761
21136.03906 0.019686
21136.46094 0.019611
21136.88086 0.019537
21137.31055 0.019462
21137.73047 0.019387
21138.15039 0.019313
21138.58008 0.019238
21139.00000 0.019163
21139.42969 0.019088
21139.84961 0.019013
21140.26953 0.018943
21140.69922 0.018875
21141.11914 0.018807
21141.53906 0.018739
21141.97070 0.018671
21142.39062 0.018603
21142.81055 0.018535
21143.24023 0.018467
21143.66016 0.018399
21144.08984 0.018331
21144.50977 0.018263
21144.92969 0.018195
21145.35938 0.018142
21145.77930 0.018093
21146.21094 0.018044
21146.63086 0.017995
21147.05078 0.017945
21147.48047 0.017896
21147.90039 0.017847
21148.32031 0.017797
21148.75000 0.017748
21149.16992 0.017699
21149.59961 0.017649
21150.01953 0.017599
21150.43945 0.017537
21150.86914 0.017474
21151.28906 0.017411
21151.71094 0.017349
21152.14062 0.017286
21152.56055 0.017223
21152.99023 0.01716
21153.41016 0.017098
21153.83984 0.017035
21154.25977 0.016972
21154.67969 0.01691
21155.10938 0.016849
21155.52930 0.016795
21155.96094 0.016742
21156.38086 0.016688
21156.80078 0.016634
21157.23047 0.01658
21157.65039 0.016526
21158.07031 0.016473
21158.50000 0.016418
21158.91992 0.016365
21159.34961 0.016311
21159.76953 0.016257
21160.19922 0.016206
21160.61914 0.016159
21161.03906 0.016112
21161.47070 0.016065
21161.89062 0.016017
21162.32031 0.01597
21162.74023 0.015923
21163.16016 0.015875
21163.58984 0.015828
21164.00977 0.015781
21164.43945 0.015734
21164.85938 0.015686
21165.28906 0.015635
21165.71094 0.015583
21166.13086 0.01553
21166.56055 0.015477
21166.98047 0.015424
21167.41016 0.015371
21167.83008 0.015318
21168.25000 0.015265
21168.67969 0.015213
21169.09961 0.015159
21169.52930 0.015107
21169.94922 0.015054
21170.36914 0.015003
21170.80078 0.014951
21171.22070 0.014901
21171.65039 0.01485
21172.07031 0.014799
21172.50000 0.014748
21172.91992 0.014697
21173.34961 0.014646
21173.76953 0.014595
21174.19922 0.014544
21174.61914 0.014493
21175.03906 0.014442
21175.47070 0.014397
21175.89062 0.014351
21176.32031 0.014305
21176.74023 0.014259
21177.16992 0.014213
21177.58984 0.014168
21178.00977 0.014122
21178.43945 0.014076
21178.85938 0.01403
21179.28906 0.013985
21179.71094 0.013939
21180.14062 0.013893
21180.56055 0.013846
21180.99023 0.013799
21181.41016 0.013752
21181.83008 0.013705
21182.25977 0.013658
21182.67969 0.013611
21183.10938 0.013564
21183.52930 0.013517
21183.96094 0.01347
21184.38086 0.013423
21184.81055 0.013376
21185.23047 0.013331
21185.66016 0.013287
21186.08008 0.013244
21186.50000 0.013201
21186.92969 0.013157
21187.34961 0.013114
21187.77930 0.01307
21188.19922 0.013027
21188.63086 0.012984
21189.05078 0.01294
21189.48047 0.012897
21189.90039 0.012853
21190.33008 0.01281
21190.75000 0.012766
21191.17969 0.012723
21191.59961 0.012679
21192.02930 0.012636
21192.44922 0.012592
21192.86914 0.012549
21193.30078 0.012505
21193.72070 0.012462
21194.15039 0.012418
21194.57031 0.012375
21195.00000 0.012331
21195.41992 0.012282
21195.84961 0.012233
21196.26953 0.012184
21196.69922 0.012136
21197.11914 0.012086
21197.55078 0.012038
21197.97070 0.011989
21198.40039 0.01194
21198.82031 0.011891
21199.25000 0.011842
21199.66992 0.011793
21200.09961 0.01175
21200.51953 0.011727
21200.94922 0.011705
21201.36914 0.011682
21201.78906 0.011659
21202.22070 0.011636
21202.65039 0.011614
21203.07031 0.011591
21203.50000 0.011568
21203.91992 0.011546
21204.34961 0.011523
21204.76953 0.0115
21205.19922 0.01147
21205.61914 0.011432
21206.03906 0.011394
21206.47070 0.011355
21206.89062 0.011317
21207.32031 0.011278
21207.75000 0.01124
21208.16992 0.011202
21208.59961 0.011163
21209.01953 0.011125
21209.44922 0.011086
21209.86914 0.011048
21210.28906 0.011005
21210.72070 0.010959
21211.15039 0.010913
21211.57031 0.010867
21212.00000 0.010821
21212.41992 0.010775
21212.84961 0.01073
21213.26953 0.010684
21213.69922 0.010638
21214.11914 0.010592
21214.55078 0.010547
21214.97070 0.010501
21215.40039 0.01047
21215.82031 0.01044
21216.25000 0.01041
21216.66992 0.01038
21217.09961 0.01035
21217.51953 0.01032
21217.94922 0.010289
21218.36914 0.01026
21218.80078 0.010229
21219.22070 0.010199
21219.65039 0.010169
21220.07031 0.010141
21220.50000 0.010119
21220.92969 0.010097
21221.34961 0.010076
21221.77930 0.010054
21222.19922 0.010032
21222.63086 0.01001
21223.05078 0.009989
21223.48047 0.009967
21223.90039 0.009945
21224.33008 0.009923
21224.75000 0.009902
21225.17969 0.009876
21225.59961 0.009844
21226.02930 0.009813
21226.46094 0.009781
21226.88086 0.009749
21227.31055 0.009718
21227.73047 0.009686
21228.16016 0.009654
21228.58008 0.009623
21229.00977 0.009591
21229.42969 0.009559
21229.85938 0.009528
21230.27930 0.0095
21230.71094 0.009473
21231.13086 0.009447
21231.56055 0.009421
21231.99023 0.009394
21232.41016 0.009368
21232.83984 0.009342
21233.25977 0.009315
21233.68945 0.009289
21234.10938 0.009263
21234.53906 0.009236
21234.96094 0.00921
21235.39062 0.009184
21235.82031 0.009158
21236.24023 0.009132
21236.66992 0.009106
21237.08984 0.00908
21237.51953 0.009054
21237.93945 0.009028
21238.36914 0.009002
21238.78906 0.008976
21239.22070 0.00895
21239.65039 0.008924
21240.07031 0.008896
21240.50000 0.008858
21240.91992 0.00882
21241.34961 0.008782
21241.77930 0.008744
21242.19922 0.008706
21242.63086 0.008667
21243.05078 0.008629
21243.48047 0.008591
21243.90039 0.008553
21244.33008 0.008515
21244.75977 0.008477
21245.17969 0.008441
21245.60938 0.00841
21246.02930 0.008378
21246.46094 0.008347
21246.88086 0.008315
21247.31055 0.008283
21247.74023 0.008252
21248.16016 0.00822
21248.58984 0.008189
21249.00977 0.008157
21249.43945 0.008125
21249.86914 0.008094
21250.28906 0.008074
21250.72070 0.00806
21251.14062 0.008045
21251.57031 0.008031
21251.99023 0.008017
21252.41992 0.008003
21252.84961 0.007989
21253.26953 0.007974
21253.69922 0.00796
21254.11914 0.007946
21254.55078 0.007932
21254.98047 0.007917
21255.40039 0.0079
21255.83008 0.007882
21256.25000 0.007864
21256.67969 0.007846
21257.10938 0.007829
21257.52930 0.007811
21257.96094 0.007793
21258.38086 0.007775
21258.81055 0.007757
21259.24023 0.007739
21259.66016 0.007722
21260.08984 0.007703
21260.51953 0.007682
21260.93945 0.007661
21261.36914 0.007639
21261.78906 0.007618
21262.22070 0.007597
21262.64062 0.007576
21263.07031 0.007555
21263.50000 0.007533
21263.91992 0.007512
21264.34961 0.007491
21264.77930 0.00747
21265.19922 0.007446
21265.63086 0.00742
21266.05078 0.007394
21266.48047 0.007368
21266.91016 0.007342
21267.33008 0.007316
21267.75977 0.00729
21268.18945 0.007263
21268.60938 0.007237
21269.03906 0.007211
21269.46094 0.007185
21269.89062 0.007159
21270.32031 0.007135
21270.74023 0.007111
21271.16992 0.007088
21271.59961 0.007065
21272.01953 0.007041
21272.44922 0.007018
21272.86914 0.006994
21273.30078 0.006971
21273.73047 0.006947
21274.15039 0.006924
21274.58008 0.006901
21275.00977 0.006877
21275.42969 0.006849
21275.85938 0.006821
21276.28906 0.006793
21276.71094 0.006765
21277.14062 0.006737
21277.56055 0.006709
21277.99023 0.00668
21278.41992 0.006652
21278.83984 0.006624
21279.26953 0.006596
21279.69922 0.006568
21280.11914 0.006544
21280.55078 0.006531
21280.98047 0.006518
21281.40039 0.006505
21281.83008 0.006492
21282.25977 0.006479
21282.67969 0.006466
21283.10938 0.006453
21283.53906 0.00644
21283.96094 0.006427
21284.39062 0.006414
21284.82031 0.006401
21285.24023 0.006384
21285.66992 0.006365
21286.09961 0.006345
21286.51953 0.006326
21286.94922 0.006306
21287.38086 0.006287
21287.80078 0.006267
21288.23047 0.006247
21288.65039 0.006228
21289.08008 0.006208
21289.50977 0.006189
21289.93945 0.006169
21290.35938 0.006159
21290.78906 0.00615
21291.21094 0.006141
21291.64062 0.006132
21292.07031 0.006123
21292.50000 0.006114
21292.91992 0.006106
21293.34961 0.006097
21293.77930 0.006088
21294.19922 0.006079
21294.63086 0.00607
21295.06055 0.00606
21295.48047 0.006038
21295.91016 0.006016
21296.33984 0.005995
21296.75977 0.005973
21297.18945 0.005951
21297.61914 0.00593
21298.03906 0.005908
21298.47070 0.005886
21298.90039 0.005865
21299.32031 0.005843
21299.75000 0.005821
21300.17969 0.005798
21300.60938 0.005772
21301.02930 0.005746
21301.46094 0.00572
21301.88086 0.005694
21302.31055 0.005668
21302.74023 0.005642
21303.16992 0.005616
21303.58984 0.00559
21304.01953 0.005564
21304.44922 0.005538
21304.88086 0.005512
21305.30078 0.005502
21305.73047 0.005497
21306.15039 0.005493
21306.58008 0.005488
21307.00977 0.005484
21307.43945 0.00548
21307.85938 0.005475
21308.28906 0.005471
21308.72070 0.005466
21309.14062 0.005462
21309.57031 0.005458
21310.00000 0.005453
21310.42969 0.005437
21310.84961 0.00542
21311.27930 0.005403
21311.71094 0.005387
21312.13086 0.00537
21312.56055 0.005354
21312.99023 0.005337
21313.41992 0.00532
21313.83984 0.005304
21314.26953 0.005287
21314.69922 0.005271
21315.11914 0.005251
21315.55078 0.005226
21315.98047 0.0052
21316.41016 0.005174
21316.83008 0.005149
21317.25977 0.005123
21317.68945 0.005097
21318.11914 0.005071
21318.53906 0.005046
21318.97070 0.00502
21319.40039 0.004994
21319.82031 0.004969
21320.25000 0.004952
21320.67969 0.004941
21321.10938 0.004931
21321.52930 0.004921
21321.96094 0.00491
21322.39062 0.0049
21322.81055 0.004889
21323.24023 0.004879
21323.66992 0.004868
21324.09961 0.004858
21324.51953 0.004847
21324.94922 0.004837
21325.38086 0.004833
21325.81055 0.00483
21326.23047 0.004827
21326.66016 0.004824
21327.08984 0.004821
21327.51953 0.004818
21327.93945 0.004815
21328.36914 0.004812
21328.80078 0.004809
21329.23047 0.004805
21329.65039 0.004802
21330.08008 0.004796
21330.50977 0.004772
21330.93945 0.004749
21331.35938 0.004726
21331.78906 0.004703
21332.22070 0.00468
21332.65039 0.004657
21333.07031 0.004633
21333.50000 0.00461
21333.92969 0.004587
21334.35938 0.004564
21334.77930 0.004541
21335.21094 0.004523
21335.64062 0.004512
21336.07031 0.004501
21336.49023 0.00449
21336.91992 0.004479
21337.34961 0.004468
21337.77930 0.004457
21338.21094 0.004446
21338.63086 0.004435
21339.06055 0.004424
21339.49023 0.004412
21339.91016 0.004401
21340.33984 0.004392
21340.76953 0.004382
21341.19922 0.004373
21341.63086 0.004363
21342.05078 0.004353
21342.48047 0.004344
21342.91016 0.004334
21343.33984 0.004325
21343.75977 0.004315
21344.18945 0.004306
21344.61914 0.004296
21345.05078 0.004287
21345.47070 0.00428
21345.90039 0.004272
21346.33008 0.004265
21346.75977 0.004258
21347.18945 0.004251
21347.61914 0.004243
21348.03906 0.004236
21348.47070 0.004229
21348.90039 0.004222
21349.33008 0.004214
21349.75000 0.004207
21350.17969 0.004198
21350.60938 0.004188
21351.03906 0.004177
21351.46094 0.004166
21351.89062 0.004155
21352.32031 0.004144
21352.75000 0.004133
21353.17969 0.004122
21353.60938 0.004112
21354.02930 0.004101
21354.46094 0.00409
21354.89062 0.004079
21355.32031 0.00407
21355.74023 0.004062
21356.16992 0.004053
21356.59961 0.004045
21357.02930 0.004037
21357.46094 0.004028
21357.88086 0.00402
21358.31055 0.004012
21358.74023 0.004003
21359.16992 0.003995
21359.59961 0.003986
21360.02930 0.003978
21360.44922 0.003967
21360.88086 0.003956
21361.31055 0.003945
21361.74023 0.003934
21362.16992 0.003923
21362.58984 0.003912
21363.01953 0.003901
21363.44922 0.00389
21363.88086 0.003879
21364.31055 0.003868
21364.73047 0.003857
21365.16016 0.00384
21365.58984 0.003813
21366.01953 0.003786
21366.44922 0.003759
21366.86914 0.003732
21367.30078 0.003705
21367.73047 0.003678
21368.16016 0.003651
21368.58984 0.003624
21369.01953 0.003597
21369.44922 0.00357
21369.86914 0.003543
21370.30078 0.003536
21370.73047 0.003538
21371.16016 0.003539
21371.58984 0.003541
21372.01953 0.003542
21372.43945 0.003544
21372.86914 0.003546
21373.30078 0.003547
21373.73047 0.003549
21374.16016 0.003551
21374.58984 0.003552
21375.00977 0.003554
21375.43945 0.003542
21375.86914 0.00353
21376.30078 0.003519
21376.73047 0.003507
21377.16016 0.003495
21377.58008 0.003484
21378.00977 0.003472
21378.43945 0.00346
21378.86914 0.003449
21379.30078 0.003437
21379.73047 0.003426
21380.15039 0.003414
21380.58008 0.003402
21381.00977 0.00339
21381.43945 0.003379
21381.86914 0.003367
21382.30078 0.003355
21382.73047 0.003343
21383.15039 0.003331
21383.58008 0.00332
21384.00977 0.003308
21384.43945 0.003296
21384.86914 0.003284
21385.30078 0.003275
21385.73047 0.003266
21386.15039 0.003257
21386.58008 0.003248
21387.00977 0.003239
21387.43945 0.00323
21387.86914 0.003221
21388.30078 0.003212
21388.73047 0.003203
21389.15039 0.003194
21389.58008 0.003184
21390.00977 0.003176
21390.43945 0.003172
21390.86914 0.003169
21391.30078 0.003165
21391.73047 0.003162
21392.16016 0.003159
21392.58008 0.003155
21393.00977 0.003152
21393.43945 0.003149
21393.86914 0.003145
21394.30078 0.003142
21394.73047 0.003138
21395.16016 0.003137
21395.58984 0.00314
21396.00977 0.003143
21396.43945 0.003146
21396.86914 0.003149
21397.30078 0.003152
21397.73047 0.003155
21398.16016 0.003158
21398.58984 0.00316
21399.01953 0.003163
21399.44922 0.003166
21399.88086 0.003169
21400.30078 0.003159
21400.73047 0.003142
21401.16016 0.003126
21401.58984 0.00311
21402.01953 0.003094
21402.44922 0.003078
21402.88086 0.003062
21403.30078 0.003046
21403.73047 0.003029
21404.16016 0.003013
21404.58984 0.002997
21405.01953 0.002981
21405.44922 0.002971
21405.88086 0.002962
21406.31055 0.002952
21406.74023 0.002942
21407.16992 0.002932
21407.59961 0.002923
21408.02930 0.002913
21408.44922 0.002903
21408.88086 0.002893
21409.31055 0.002884
21409.74023 0.002874
21410.16992 0.002862
21410.59961 0.002848
21411.02930 0.002833
21411.46094 0.002819
21411.89062 0.002804
21412.31055 0.00279
21412.74023 0.002776
21413.16992 0.002761
21413.59961 0.002747
21414.02930 0.002732
21414.46094 0.002718
21414.89062 0.002704
21415.32031 0.002704
21415.75000 0.002709
21416.17969 0.002714
21416.60938 0.002719
21417.03906 0.002724
21417.46094 0.002729
21417.89062 0.002734
21418.32031 0.002739
21418.75000 0.002745
21419.17969 0.00275
21419.60938 0.002755
21420.03906 0.002758
21420.47070 0.002749
21420.90039 0.00274
21421.33008 0.002731
21421.75977 0.002721
21422.18945 0.002712
21422.61914 0.002703
21423.05078 0.002693
21423.48047 0.002684
21423.90039 0.002675
21424.33008 0.002665
21424.75977 0.002656
21425.18945 0.002648
21425.61914 0.002642
21426.05078 0.002635
21426.48047 0.002629
21426.91016 0.002623
21427.33984 0.002616
21427.76953 0.00261
21428.19922 0.002603
21428.63086 0.002597
21429.06055 0.002591
21429.49023 0.002584
21429.91992 0.002578
21430.34961 0.002568
21430.77930 0.002556
21431.21094 0.002545
21431.63086 0.002534
21432.06055 0.002523
21432.49023 0.002511
21432.91992 0.0025
21433.34961 0.002489
21433.77930 0.002477
21434.21094 0.002466
21434.64062 0.002455
21435.07031 0.002445
21435.50000 0.002438
21435.92969 0.002432
21436.35938 0.002425
21436.78906 0.002419
21437.22070 0.002412
21437.65039 0.002406
21438.08008 0.002399
21438.50977 0.002392
21438.93945 0.002386
21439.36914 0.002379
21439.80078 0.002373
21440.23047 0.002369
21440.66016 0.002366
21441.08984 0.002364
21441.51953 0.002361
21441.94922 0.002359
21442.36914 0.002356
21442.80078 0.002354
21443.23047 0.002351
21443.66016 0.002349
21444.08984 0.002346
21444.51953 0.002344
21444.94922 0.002341
21445.38086 0.002341
21445.81055 0.002342
21446.24023 0.002342
21446.66992 0.002342
21447.09961 0.002342
21447.52930 0.002342
21447.96094 0.002343
21448.39062 0.002343
21448.82031 0.002343
21449.25000 0.002343
21449.67969 0.002343
21450.10938 0.002339
21450.53906 0.002323
21450.97070 0.002307
21451.40039 0.00229
21451.83008 0.002274
21452.25977 0.002258
21452.68945 0.002242
21453.11914 0.002225
21453.55078 0.002209
21453.98047 0.002193
21454.41016 0.002176
21454.83984 0.00216
21455.26953 0.002145
21455.69922 0.002131
21456.13086 0.002117
21456.56055 0.002103
21456.99023 0.002088
21457.41992 0.002074
21457.84961 0.00206
21458.27930 0.002046
21458.71094 0.002032
21459.14062 0.002017
21459.57031 0.002003
21460.00000 0.001989
21460.42969 0.001993
21460.85938 0.001997
21461.28906 0.002001
21461.72070 0.002005
21462.15039 0.002009
21462.58008 0.002013
21463.00977 0.002017
21463.43945 0.002021
21463.86914 0.002025
21464.30078 0.002029
21464.73047 0.002033
21465.16016 0.002035
21465.58984 0.002033
21466.01953 0.002032
21466.44922 0.002031
21466.88086 0.00203
21467.31055 0.002028
21467.74023 0.002027
21468.17969 0.002026
21468.60938 0.002024
21469.03906 0.002023
21469.46094 0.002022
21469.90039 0.002021
21470.33008 0.002017
21470.75977 0.002012
21471.18945 0.002007
21471.61914 0.002002
21472.05078 0.001997
21472.48047 0.001992
21472.91016 0.001987
21473.33984 0.001982
21473.76953 0.001977
21474.19922 0.001972
21474.63086 0.001968
21475.06055 0.001961
21475.49023 0.001948
21475.91992 0.001934
21476.34961 0.00192
21476.77930 0.001906
21477.21094 0.001892
21477.64062 0.001878
21478.07031 0.001864
21478.50000 0.00185
21478.92969 0.001837
21479.36914 0.001823
21479.78906 0.001809
21480.22070 0.001806
21480.66016 0.001814
21481.08984 0.001822
21481.51953 0.00183
21481.94922 0.001837
21482.38086 0.001845
21482.81055 0.001853
21483.24023 0.001861
21483.66992 0.001869
21484.09961 0.001876
21484.52930 0.001884
21484.96094 0.001892
21485.39062 0.001882
21485.82031 0.001871
21486.25000 0.001859
21486.67969 0.001848
21487.11914 0.001836
21487.53906 0.001825
21487.97070 0.001814
21488.41016 0.001802
21488.83984 0.001791
21489.26953 0.001779
21489.69922 0.001768
21490.13086 0.001757
21490.56055 0.001748
21490.99023 0.001738
21491.41992 0.001729
21491.84961 0.00172
21492.27930 0.00171
21492.71094 0.001701
21493.14062 0.001692
21493.57031 0.001682
21494.00977 0.001673
21494.43945 0.001664
21494.86914 0.001654
21495.30078 0.001652
21495.73047 0.001654
21496.16016 0.001655
21496.58984 0.001657
21497.01953 0.001658
21497.44922 0.00166
21497.88086 0.001661
21498.31055 0.001663
21498.74023 0.001664
21499.17969 0.001666
21499.60938 0.001668
21500.03906 0.001668
21500.47070 0.001658
21500.90039 0.001648
21501.33008 0.001638
21501.75977 0.001628
21502.18945 0.001618
21502.61914 0.001608
21503.05078 0.001598
21503.48047 0.001588
21503.91992 0.001578
21504.34961 0.001569
21504.77930 0.001559
21505.21094 0.001554
21505.64062 0.001555
21506.07031 0.001556
21506.50000 0.001557
21506.92969 0.001558
21507.35938 0.001559
21507.78906 0.001561
21508.22070 0.001562
21508.66016 0.001563
21509.08984 0.001564
21509.51953 0.001565
21509.94922 0.001566
21510.38086 0.001573
21510.81055 0.001581
21511.24023 0.001588
21511.66992 0.001596
21512.10938 0.001604
21512.53906 0.001612
21512.97070 0.00162
21513.40039 0.001627
21513.83008 0.001635
21514.25977 0.001643
21514.68945 0.001651
21515.11914 0.001653
21515.55078 0.001642
21515.99023 0.001631
21516.41992 0.00162
21516.84961 0.001609
21517.27930 0.001598
21517.71094 0.001587
21518.14062 0.001576
21518.57031 0.001565
21519.00000 0.001554
21519.43945 0.001543
21519.86914 0.001532
21520.30078 0.001524
21520.73047 0.001516
21521.16016 0.001509
21521.58984 0.001501
21522.01953 0.001494
21522.46094 0.001487
21522.89062 0.001479
21523.32031 0.001472
21523.75000 0.001464
21524.17969 0.001457
21524.60938 0.00145
21525.03906 0.001442
21525.47070 0.001435
21525.91016 0.001429
21526.33984 0.001422
21526.76953 0.001415
21527.19922 0.001408
21527.63086 0.001401
21528.06055 0.001394
21528.49023 0.001387
21528.92969 0.001381
21529.35938 0.001374
21529.78906 0.001367
21530.22070 0.001368
21530.65039 0.001377
21531.08008 0.001386
21531.51953 0.001395
21531.94922 0.001404
21532.38086 0.001413
21532.81055 0.001422
21533.24023 0.00143
21533.66992 0.001439
21534.09961 0.001448
21534.53906 0.001457
21534.97070 0.001466
21535.40039 0.001458
21535.83008 0.001448
21536.25977 0.001438
21536.68945 0.001428
21537.13086 0.001418
21537.56055 0.001408
21537.99023 0.001398
21538.41992 0.001388
21538.84961 0.001378
21539.27930 0.001368
21539.71094 0.001358
21540.15039 0.001351
21540.58008 0.00135
21541.00977 0.001349
21541.43945 0.001347
21541.86914 0.001346
21542.30078 0.001345
21542.74023 0.001344
21543.16992 0.001343
21543.59961 0.001342
21544.02930 0.001341
21544.46094 0.00134
21544.90039 0.001338
21545.33008 0.001333
21545.75977 0.001327
21546.18945 0.001321
21546.61914 0.001315
21547.05078 0.001309
21547.49023 0.001303
21547.91992 0.001296
21548.34961 0.00129
21548.77930 0.001284
21549.21094 0.001278
21549.65039 0.001272
21550.08008 0.001267
21550.50977 0.001269
21550.93945 0.001272
21551.36914 0.001274
21551.81055 0.001276
21552.24023 0.001279
21552.66992 0.001281
21553.09961 0.001283
21553.52930 0.001286
21553.96094 0.001288
21554.40039 0.00129
21554.83008 0.001293
21555.25977 0.001284
21555.68945 0.001267
21556.13086 0.001251
21556.56055 0.001234
21556.99023 0.001218
21557.41992 0.001201
21557.84961 0.001185
21558.28906 0.001168
21558.72070 0.001152
21559.15039 0.001135
21559.58008 0.001119
21560.00977 0.001103
21560.44922 0.001115
21560.88086 0.001128
21561.31055 0.00114
21561.74023 0.001153
21562.16992 0.001165
21562.60938 0.001177
21563.03906 0.00119
21563.47070 0.001202
21563.90039 0.001215
21564.33984 0.001227
21564.76953 0.001239
21565.19922 0.001244
21565.63086 0.001238
21566.06055 0.001233
21566.50000 0.001228
21566.92969 0.001222
21567.35938 0.001217
21567.78906 0.001212
21568.22070 0.001206
21568.66016 0.001201
21569.08984 0.001196
21569.51953 0.001191
21569.96094 0.001185
21570.39062 0.00119
21570.82031 0.001196
21571.25000 0.001202
21571.67969 0.001208
21572.11914 0.001214
21572.55078 0.001219
21572.98047 0.001225
21573.41016 0.001231
21573.84961 0.001237
21574.27930 0.001243
21574.71094 0.001249
21575.14062 0.001248
21575.57031 0.001232
21576.00977 0.001217
21576.43945 0.001202
21576.86914 0.001186
21577.30078 0.001171
21577.74023 0.001155
21578.16992 0.00114
21578.59961 0.001125
21579.03906 0.001109
21579.47070 0.001094
21579.90039 0.001079
21580.33008 0.001079
21580.75977 0.001084
21581.19922 0.00109
21581.63086 0.001095
21582.06055 0.001101
21582.49023 0.001106
21582.92969 0.001111
21583.35938 0.001117
21583.78906 0.001122
21584.22070 0.001127
21584.66016 0.001133
21585.08984 0.001135
21585.51953 0.001126
21585.96094 0.001116
21586.39062 0.001107
21586.82031 0.001097
21587.25000 0.001088
21587.68945 0.001079
21588.11914 0.001069
21588.55078 0.00106
21588.98047 0.00105
21589.41992 0.001041
21589.84961 0.001032
21590.27930 0.001025
21590.71094 0.00102
21591.15039 0.001015
21591.58008 0.00101
21592.00977 0.001005
21592.44922 0.001
21592.88086 0.000995
21593.31055 0.00099
21593.74023 0.000984
21594.17969 0.000979
21594.60938 0.000974
21595.03906 0.00097
21595.47070 0.000977
21595.91016 0.000984
21596.33984 0.000991
21596.76953 0.000998
21597.21094 0.001005
21597.64062 0.001012
21598.07031 0.001019
21598.50000 0.001026
21598.93945 0.001033
21599.36914 0.00104
21599.80078 0.001047
21600.24023 0.001044
21600.66992 0.001032
21601.09961 0.001021
21601.53906 0.001009
21601.97070 0.000997
21602.40039 0.000986
21602.83008 0.000974
21603.26953 0.000962
21603.69922 0.00095
21604.13086 0.000939
21604.56055 0.000927
21605.00000 0.000915
21605.42969 0.00092
21605.85938 0.000925
21606.30078 0.00093
21606.73047 0.000935
21607.16016 0.00094
21607.59961 0.000945
21608.02930 0.000949
21608.46094 0.000954
21608.90039 0.000959
21609.33008 0.000964
21609.75977 0.000969
21610.19922 0.000967
21610.63086 0.000956
21611.06055 0.000945
21611.49023 0.000934
21611.92969 0.000923
21612.35938 0.000912
21612.78906 0.000901
21613.23047 0.00089
21613.66016 0.000879
21614.08984 0.000868
21614.52930 0.000857
21614.96094 0.000846
21615.39062 0.000855
21615.83008 0.000866
21616.25977 0.000877
21616.68945 0.000888
21617.13086 0.0009
21617.56055 0.000911
21617.99023 0.000922
21618.42969 0.000933
21618.85938 0.000944
21619.28906 0.000956
21619.72070 0.000967
21620.16016 0.000971
21620.58984 0.000962
21621.02930 0.000953
21621.46094 0.000944
21621.89062 0.000935
21622.32031 0.000926
21622.75977 0.000917
21623.18945 0.000908
21623.61914 0.0009
21624.06055 0.000891
21624.49023 0.000882
21624.92969 0.000873
21625.35938 0.000865
21625.78906 0.000858
21626.22070 0.000851
21626.66016 0.000844
21627.08984 0.000837
21627.52930 0.00083
21627.96094 0.000822
21628.39062 0.000815
21628.83008 0.000808
21629.25977 0.000801
21629.68945 0.000794
21630.13086 0.000791
21630.56055 0.000798
21630.99023 0.000805
21631.42969 0.000813
21631.85938 0.00082
21632.28906 0.000827
21632.73047 0.000834
21633.16016 0.000842
21633.58984 0.000849
21634.02930 0.000856
21634.46094 0.000863
21634.89062 0.00087
21635.33008 0.000868
21635.75977 0.000862
21636.19922 0.000856
21636.63086 0.00085
21637.06055 0.000844
21637.50000 0.000838
21637.92969 0.000832
21638.36914 0.000826
21638.80078 0.00082
21639.23047 0.000814
21639.66992 0.000808
21640.09961 0.000804
21640.52930 0.000804
21640.97070 0.000805
21641.40039 0.000805
21641.83008 0.000806
21642.26953 0.000807
21642.69922 0.000807
21643.13086 0.000808
21643.57031 0.000808
21644.00000 0.000809
21644.43945 0.00081
21644.86914 0.00081
21645.30078 0.000807
21645.74023 0.000803
21646.16992 0.000798
21646.60938 0.000794
21647.03906 0.000789
21647.47070 0.000785
21647.91016 0.00078
21648.33984 0.000775
21648.77930 0.000771
21649.21094 0.000766
21649.64062 0.000762
21650.08008 0.00076
21650.50977 0.00077
21650.93945 0.000779
21651.38086 0.000789
21651.81055 0.000799
21652.25000 0.000809
21652.67969 0.000818
21653.10938 0.000828
21653.55078 0.000838
21653.98047 0.000848
21654.41992 0.000857
21654.84961 0.000867
21655.27930 0.000871
21655.72070 0.000871
21656.15039 0.000872
21656.58984 0.000872
21657.01953 0.000873
21657.44922 0.000873
21657.89062 0.000874
21658.32031 0.000875
21658.75977 0.000875
21659.18945 0.000876
21659.61914 0.000876
21660.06055 0.000874
21660.49023 0.000857
21660.92969 0.000839
21661.35938 0.000821
21661.78906 0.000803
21662.23047 0.000786
21662.66016 0.000768
21663.09961 0.00075
21663.52930 0.000732
21663.96094 0.000715
21664.40039 0.000697
21664.83008 0.000679
21665.26953 0.000675
21665.69922 0.000678
21666.14062 0.000682
21666.57031 0.000685
21667.00977 0.000689
21667.43945 0.000692
21667.86914 0.000696
21668.31055 0.000699
21668.74023 0.000703
21669.17969 0.000707
21669.60938 0.00071
21670.03906 0.000712
21670.48047 0.000695
21670.91016 0.000679
21671.34961 0.000662
21671.77930 0.000646
21672.22070 0.000629
21672.65039 0.000613
21673.08984 0.000597
21673.51953 0.00058
21673.94922 0.000564
21674.39062 0.000547
21674.82031 0.000531
21675.25977 0.00053
21675.68945 0.000539
21676.13086 0.000549
21676.56055 0.000558
21676.99023 0.000568
21677.42969 0.000577
21677.85938 0.000587
21678.30078 0.000596
21678.73047 0.000606
21679.16992 0.000615
21679.59961 0.000625
21680.03906 0.000634
21680.47070 0.000635
21680.90039 0.000636
21681.33984 0.000637
21681.76953 0.000639
21682.21094 0.00064
21682.64062 0.000641
21683.08008 0.000642
21683.50977 0.000643
21683.94922 0.000645
21684.38086 0.000646
21684.82031 0.000647
21685.25000 0.00065
21685.68945 0.000655
21686.11914 0.00066
21686.55078 0.000665
21686.99023 0.00067
21687.41992 0.000675
21687.85938 0.00068
21688.28906 0.000684
21688.73047 0.000689
21689.16016 0.000694
21689.59961 0.000699
21690.02930 0.000703
21690.47070 0.000696
21690.90039 0.000689
21691.33984 0.000682
21691.76953 0.000675
21692.21094 0.000668
21692.64062 0.000661
21693.07031 0.000655
21693.50977 0.000648
21693.93945 0.000641
21694.38086 0.000634
21694.81055 0.000627
21695.25000 0.000619
21695.67969 0.00061
21696.11914 0.000601
21696.55078 0.000592
21696.99023 0.000583
21697.41992 0.000574
21697.85938 0.000565
21698.28906 0.000557
21698.73047 0.000548
21699.16016 0.000539
21699.59961 0.00053
21700.02930 0.000522
21700.47070 0.00052
21700.90039 0.000518
21701.33984 0.000517
21701.76953 0.000515
21702.21094 0.000513
21702.64062 0.000512
21703.08008 0.00051
21703.50977 0.000508
21703.94922 0.000507
21704.38086 0.000505
21704.82031 0.000503
21705.25000 0.000507
21705.68945 0.000513
21706.11914 0.00052
21706.56055 0.000526
21706.99023 0.000533
21707.42969 0.000539
21707.85938 0.000546
21708.30078 0.000552
21708.73047 0.000559
21709.16992 0.000565
21709.59961 0.000572
21710.03906 0.000578
21710.47070 0.00058
21710.91016 0.000581
21711.33984 0.000583
21711.77930 0.000585
21712.21094 0.000587
21712.65039 0.000589
21713.08008 0.000591
21713.51953 0.000593
21713.94922 0.000595
21714.39062 0.000597
21714.82031 0.000599
21715.25977 0.000596
21715.68945 0.00059
21716.13086 0.000584
21716.56055 0.000578
21717.00000 0.000572
21717.43945 0.000567
21717.86914 0.000561
21718.30078 0.000555
21718.74023 0.000549
21719.17969 0.000543
21719.60938 0.000537
21720.05078 0.000533
21720.48047 0.000539
21720.91992 0.000546
21721.34961 0.000552
21721.78906 0.000558
21722.22070 0.000565
21722.66016 0.000571
21723.08984 0.000578
21723.52930 0.000584
21723.96094 0.000591
21724.40039 0.000597
21724.83984 0.000603
21725.26953 0.0006
21725.71094 0.00059
21726.14062 0.00058
21726.58008 0.000571
21727.00977 0.000561
21727.44922 0.000551
21727.88086 0.000541
21728.32031 0.000532
21728.75000 0.000522
21729.18945 0.000512
21729.63086 0.000502
21730.06055 0.000492
21730.50000 0.000479
21730.92969 0.000465
21731.36914 0.000452
21731.80078 0.000438
21732.24023 0.000425
21732.66992 0.000411
23905.93750 0.0
