# %ECSV 0.9
# ---
# datatype:
# - {name: wavelength, unit: Angstrom, datatype: float32}
# - {name: response, datatype: float32}
# meta: !!omap
# - {band_name: F216N}
# - {group_name: NICMOS2}
wavelength response
21406.28906 0.0
21406.50000 0.000157
21406.72070 0.000452
21406.92969 0.000745
21407.15039 0.00104
21407.35938 0.001333
21407.57031 0.001628
21407.78906 0.001921
21408.00000 0.002212
21408.21094 0.00203
21408.42969 0.001846
21408.64062 0.001665
21408.85938 0.001481
21409.07031 0.001299
21409.28906 0.001116
21409.50000 0.000934
21409.71094 0.000751
21409.92969 0.000569
21410.14062 0.000548
21410.34961 0.000613
21410.57031 0.000679
21410.77930 0.000744
21411.00000 0.000809
21411.21094 0.000874
21411.41992 0.000939
21411.64062 0.001004
21411.84961 0.00107
21412.06055 0.001097
21412.27930 0.001038
21412.49023 0.000979
21412.71094 0.00092
21412.91992 0.000861
21413.13086 0.000802
21413.34961 0.000743
21413.56055 0.000684
21413.77930 0.000625
21413.99023 0.000566
21414.19922 0.000686
21414.41992 0.000816
21414.63086 0.000945
21414.84961 0.001075
21415.06055 0.001204
21415.26953 0.001334
21415.49023 0.001463
21415.69922 0.001593
21415.91016 0.001722
21416.13086 0.001814
21416.33984 0.001881
21416.56055 0.001948
21416.76953 0.002014
21416.98047 0.002081
21417.19922 0.002147
21417.41016 0.002214
21417.61914 0.00228
21417.83984 0.002347
21418.05078 0.002343
21418.26953 0.002121
21418.48047 0.001901
21418.69922 0.001679
21418.91016 0.001457
21419.11914 0.001238
21419.33984 0.001016
21419.55078 0.000796
21419.76953 0.000574
21419.98047 0.000354
21420.18945 0.000408
21420.41016 0.000492
21420.61914 0.000576
21420.83008 0.00066
21421.05078 0.000745
21421.25977 0.000828
21421.48047 0.000913
21421.68945 0.000997
21421.90039 0.001081
21422.11914 0.001147
21422.33008 0.001198
21422.55078 0.00125
21422.75977 0.001301
21422.97070 0.001352
21423.18945 0.001404
21423.40039 0.001455
21423.61914 0.001507
21423.83008 0.001558
21424.03906 0.001595
21424.25977 0.001578
21424.47070 0.001562
21424.68945 0.001545
21424.90039 0.001528
21425.10938 0.001512
21425.33008 0.001495
21425.53906 0.001478
21425.75977 0.001462
21425.97070 0.001445
21426.17969 0.001536
21426.40039 0.001645
21426.60938 0.001753
21426.83008 0.001862
21427.03906 0.001971
21427.25000 0.00208
21427.47070 0.002189
21427.67969 0.002297
21427.90039 0.002406
21428.10938 0.00245
21428.32031 0.002432
21428.53906 0.002415
21428.75000 0.002398
21428.97070 0.002381
21429.17969 0.002363
21429.39062 0.002346
21429.60938 0.002329
21429.82031 0.002312
21430.03906 0.002283
21430.25000 0.0022
21430.46094 0.002116
21430.67969 0.002032
21430.89062 0.001948
21431.10938 0.001864
21431.32031 0.001781
21431.53906 0.001697
21431.75000 0.001614
21431.96094 0.001529
21432.17969 0.001472
21432.39062 0.001421
21432.60938 0.00137
21432.82031 0.001319
21433.02930 0.001267
21433.25000 0.001216
21433.46094 0.001165
21433.67969 0.001113
21433.89062 0.001061
21434.09961 0.001029
21434.32031 0.001015
21434.52930 0.001001
21434.75000 0.000988
21434.96094 0.000974
21435.16992 0.00096
21435.39062 0.000947
21435.59961 0.000933
21435.82031 0.00092
21436.02930 0.000917
21436.24023 0.000983
21436.46094 0.001049
21436.66992 0.001115
21436.89062 0.001181
21437.09961 0.001247
21437.31055 0.001312
21437.52930 0.001378
21437.74023 0.001445
21437.96094 0.00151
21438.16992 0.001772
21438.39062 0.002083
21438.59961 0.00239
21438.81055 0.002701
21439.02930 0.003009
21439.24023 0.00332
21439.46094 0.00363
21439.66992 0.003938
21439.88086 0.004249
21440.09961 0.00433
21440.31055 0.004148
21440.52930 0.003964
21440.74023 0.00378
21440.96094 0.003598
21441.16992 0.003414
21441.38086 0.00323
21441.59961 0.003048
21441.81055 0.002864
21442.02930 0.002703
21442.24023 0.002706
21442.46094 0.002708
21442.66992 0.00271
21442.88086 0.002712
21443.09961 0.002714
21443.31055 0.002716
21443.52930 0.002719
21443.74023 0.002721
21443.94922 0.002723
21444.16992 0.002815
21444.38086 0.002932
21444.59961 0.003048
21444.81055 0.003165
21445.02930 0.003282
21445.24023 0.003398
21445.44922 0.003516
21445.66992 0.003633
21445.88086 0.003749
21446.09961 0.003791
21446.31055 0.003742
21446.51953 0.003692
21446.74023 0.003642
21446.94922 0.003592
21447.16992 0.003543
21447.38086 0.003493
21447.59961 0.003443
21447.81055 0.003394
21448.01953 0.00335
21448.24023 0.003352
21448.44922 0.003354
21448.66992 0.003356
21448.88086 0.003358
21449.09961 0.00336
21449.31055 0.003362
21449.51953 0.003364
21449.74023 0.003366
21449.94922 0.003368
21450.16992 0.003419
21450.38086 0.003485
21450.58984 0.00355
21450.81055 0.003615
21451.01953 0.00368
21451.24023 0.003746
21451.44922 0.003811
21451.66992 0.003876
21451.88086 0.003942
21452.08984 0.003975
21452.31055 0.003968
21452.51953 0.00396
21452.74023 0.003953
21452.94922 0.003946
21453.16992 0.003939
21453.38086 0.003932
21453.58984 0.003925
21453.81055 0.003917
21454.01953 0.003916
21454.24023 0.003958
21454.44922 0.004002
21454.66992 0.004045
21454.88086 0.004088
21455.08984 0.004131
21455.31055 0.004174
21455.51953 0.004217
21455.74023 0.00426
21455.94922 0.004303
21456.16992 0.00436
21456.38086 0.004421
21456.58984 0.004481
21456.81055 0.004542
21457.01953 0.004603
21457.24023 0.004664
21457.44922 0.004724
21457.66992 0.004785
21457.88086 0.004846
21458.08984 0.00487
21458.31055 0.004845
21458.51953 0.004821
21458.74023 0.004797
21458.94922 0.004773
21459.16992 0.004748
21459.38086 0.004724
21459.59961 0.0047
21459.81055 0.004676
21460.01953 0.004652
21460.24023 0.004636
21460.44922 0.004619
21460.66992 0.004602
21460.88086 0.004586
21461.09961 0.004569
21461.31055 0.004552
21461.51953 0.004536
21461.74023 0.004519
21461.94922 0.004502
21462.16992 0.004646
21462.38086 0.004833
21462.59961 0.005022
21462.81055 0.00521
21463.02930 0.005399
21463.24023 0.005586
21463.44922 0.005774
21463.66992 0.005963
21463.88086 0.006152
21464.09961 0.006248
21464.31055 0.006233
21464.52930 0.006218
21464.74023 0.006203
21464.94922 0.006188
21465.16992 0.006173
21465.38086 0.006158
21465.59961 0.006143
21465.81055 0.006128
21466.02930 0.006113
21466.24023 0.006099
21466.46094 0.006086
21466.66992 0.006072
21466.88086 0.006058
21467.09961 0.006044
21467.31055 0.006031
21467.52930 0.006017
21467.74023 0.006003
21467.96094 0.005989
21468.16992 0.006172
21468.38086 0.006405
21468.59961 0.006639
21468.81055 0.006871
21469.02930 0.007105
21469.24023 0.007339
21469.46094 0.007573
21469.66992 0.007806
21469.88086 0.008038
21470.09961 0.008136
21470.31055 0.008077
21470.52930 0.008017
21470.74023 0.007958
21470.96094 0.007899
21471.16992 0.007839
21471.39062 0.00778
21471.59961 0.00772
21471.82031 0.007661
21472.02930 0.007629
21472.24023 0.00777
21472.46094 0.007911
21472.66992 0.008052
21472.89062 0.008194
21473.09961 0.008333
21473.32031 0.008475
21473.52930 0.008616
21473.75000 0.008757
21473.96094 0.008898
21474.17969 0.009016
21474.39062 0.009128
21474.59961 0.009241
21474.82031 0.009353
21475.02930 0.009466
21475.25000 0.009579
21475.46094 0.009691
21475.67969 0.009804
21475.89062 0.009916
21476.10938 0.01001
21476.32031 0.010084
21476.53906 0.010158
21476.75000 0.010231
21476.96094 0.010305
21477.17969 0.010379
21477.39062 0.010453
21477.60938 0.010527
21477.82031 0.010601
21478.03906 0.010684
21478.25000 0.01082
21478.46094 0.010956
21478.67969 0.011092
21478.89062 0.011228
21479.10938 0.011364
21479.32031 0.011499
21479.53906 0.011635
21479.75000 0.01177
21479.97070 0.011906
21480.17969 0.011806
21480.40039 0.011663
21480.60938 0.011519
21480.82031 0.011377
21481.03906 0.011234
21481.25000 0.01109
21481.47070 0.010947
21481.67969 0.010803
21481.90039 0.01066
21482.10938 0.010707
21482.33008 0.01093
21482.53906 0.011152
21482.75977 0.011374
21482.97070 0.011597
21483.18945 0.011819
21483.40039 0.012041
21483.61914 0.012264
21483.83008 0.012484
21484.03906 0.01269
21484.25977 0.012833
21484.47070 0.012976
21484.68945 0.013118
21484.90039 0.013261
21485.11914 0.013403
21485.33008 0.013545
21485.53906 0.013687
21485.75977 0.01383
21485.97070 0.013973
21486.18945 0.014216
21486.40039 0.014473
21486.61914 0.01473
21486.83008 0.014986
21487.05078 0.015241
21487.25977 0.015498
21487.48047 0.015755
21487.68945 0.016011
21487.91016 0.016268
21488.11914 0.016371
21488.33984 0.016356
21488.55078 0.01634
21488.76953 0.016325
21488.98047 0.016309
21489.18945 0.016294
21489.41016 0.016278
21489.61914 0.016262
21489.83984 0.016247
21490.05078 0.016307
21490.26953 0.016602
21490.48047 0.016896
21490.69922 0.01719
21490.91016 0.017485
21491.13086 0.017776
21491.33984 0.018071
21491.55078 0.018365
21491.76953 0.01866
21491.98047 0.018954
21492.19922 0.018992
21492.41016 0.019009
21492.63086 0.019027
21492.83984 0.019045
21493.06055 0.019063
21493.26953 0.01908
21493.49023 0.019098
21493.69922 0.019115
21493.91992 0.019133
21494.13086 0.01933
21494.34961 0.019643
21494.56055 0.019956
21494.77930 0.020268
21494.99023 0.020581
21495.21094 0.020893
21495.41992 0.021206
21495.63086 0.021518
21495.84961 0.021831
21496.06055 0.022099
21496.27930 0.022268
21496.49023 0.022437
21496.71094 0.022606
21496.91992 0.022775
21497.14062 0.022944
21497.34961 0.023112
21497.57031 0.023281
21497.77930 0.02345
21498.00000 0.023619
21498.21094 0.023983
21498.42969 0.02435
21498.64062 0.024717
21498.85938 0.025085
21499.07031 0.025452
21499.28906 0.025819
21499.50000 0.026183
21499.71094 0.02655
21499.92969 0.026917
21500.14062 0.027157
21500.35938 0.027332
21500.57031 0.027507
21500.78906 0.027681
21501.00000 0.027856
21501.22070 0.028031
21501.42969 0.028206
21501.65039 0.028381
21501.85938 0.028556
21502.08008 0.028805
21502.28906 0.029191
21502.50977 0.029576
21502.72070 0.029961
21502.93945 0.030346
21503.15039 0.030732
21503.36914 0.031117
21503.58008 0.031502
21503.78906 0.031887
21504.00977 0.032274
21504.22070 0.032695
21504.43945 0.033111
21504.65039 0.033531
21504.86914 0.033952
21505.08008 0.034372
21505.30078 0.034792
21505.50977 0.035212
21505.73047 0.035633
21505.93945 0.036053
21506.16016 0.036344
21506.36914 0.036586
21506.58984 0.036828
21506.80078 0.03707
21507.01953 0.037312
21507.23047 0.037554
21507.44922 0.037796
21507.66016 0.038038
21507.86914 0.03828
21508.08984 0.038644
21508.30078 0.039179
21508.51953 0.039713
21508.73047 0.040248
21508.94922 0.040782
21509.16016 0.041317
21509.38086 0.041851
21509.58984 0.042386
21509.81055 0.04292
21510.01953 0.043443
21510.24023 0.043869
21510.44922 0.044295
21510.66992 0.044722
21510.88086 0.045148
21511.09961 0.045574
21511.31055 0.046
21511.52930 0.046427
21511.74023 0.046853
21511.96094 0.047279
21512.16992 0.047695
21512.39062 0.048109
21512.59961 0.048522
21512.82031 0.048936
21513.02930 0.049349
21513.25000 0.049763
21513.46094 0.050177
21513.67969 0.05059
21513.89062 0.051004
21514.10938 0.051592
21514.32031 0.052362
21514.53906 0.053132
21514.75000 0.053902
21514.96094 0.054672
21515.17969 0.055442
21515.39062 0.056212
21515.60938 0.056981
21515.82031 0.057751
21516.03906 0.058488
21516.25977 0.059049
21516.47070 0.05961
21516.68945 0.060171
21516.90039 0.060731
21517.11914 0.061292
21517.33008 0.061853
21517.53906 0.062414
21517.75977 0.062975
21517.97070 0.063535
21518.18945 0.064326
21518.40039 0.065147
21518.61914 0.065968
21518.83008 0.066789
21519.05078 0.067611
21519.25977 0.068432
21519.48047 0.069253
21519.68945 0.070075
21519.91016 0.070896
21520.11914 0.071553
21520.33984 0.072089
21520.55078 0.072624
21520.76953 0.07316
21520.98047 0.073695
21521.19922 0.074236
21521.41016 0.074771
21521.63086 0.075307
21521.83984 0.075842
21522.06055 0.076495
21522.26953 0.077461
21522.49023 0.078427
21522.69922 0.079393
21522.91992 0.080359
21523.13086 0.081325
21523.34961 0.082291
21523.56055 0.083257
21523.77930 0.084223
21523.99023 0.085189
21524.21094 0.08606
21524.41992 0.086934
21524.64062 0.087801
21524.84961 0.088668
21525.07031 0.089535
21525.27930 0.090401
21525.50000 0.091268
21525.71094 0.092135
21525.92969 0.093002
21526.14062 0.093785
21526.35938 0.094525
21526.57031 0.095266
21526.78906 0.096006
21527.00000 0.096746
21527.22070 0.097493
21527.42969 0.098234
21527.65039 0.098974
21527.85938 0.099715
21528.08008 0.100678
21528.28906 0.10203
21528.50977 0.103382
21528.72070 0.104734
21528.93945 0.106086
21529.15039 0.107438
21529.36914 0.10879
21529.58008 0.110155
21529.80078 0.111507
21530.00977 0.112838
21530.23047 0.113854
21530.43945 0.114871
21530.66016 0.115887
21530.86914 0.116903
21531.08984 0.11792
21531.30078 0.118937
21531.51953 0.119962
21531.73047 0.120979
21531.94922 0.121996
21532.16016 0.123207
21532.38086 0.124478
21532.58984 0.12575
21532.81055 0.127022
21533.01953 0.128293
21533.24023 0.129565
21533.46094 0.130848
21533.66992 0.13212
21533.88086 0.133392
21534.09961 0.134637
21534.31055 0.135853
21534.52930 0.137068
21534.74023 0.138284
21534.96094 0.139499
21535.17969 0.140726
21535.39062 0.141942
21535.60938 0.143157
21535.82031 0.144373
21536.03906 0.145596
21536.25000 0.146859
21536.46094 0.148121
21536.67969 0.149384
21536.90039 0.150658
21537.10938 0.151921
21537.33008 0.153183
21537.53906 0.154446
21537.75977 0.155709
21537.97070 0.156971
21538.18945 0.158085
21538.40039 0.159185
21538.61914 0.160274
21538.83008 0.161364
21539.05078 0.162454
21539.25977 0.163544
21539.48047 0.164634
21539.68945 0.165724
21539.91016 0.166824
21540.11914 0.168046
21540.33984 0.169366
21540.55078 0.170686
21540.76953 0.172006
21540.98047 0.173326
21541.19922 0.174659
21541.41016 0.175979
21541.63086 0.177299
21541.83984 0.17862
21542.06055 0.179906
21542.26953 0.181102
21542.49023 0.18231
21542.71094 0.183506
21542.91992 0.184702
21543.13086 0.185899
21543.34961 0.187095
21543.56055 0.188292
21543.77930 0.189499
21544.00000 0.190696
21544.21094 0.191668
21544.42969 0.192636
21544.64062 0.193604
21544.85938 0.194572
21545.07031 0.195549
21545.28906 0.196517
21545.50000 0.197486
21545.72070 0.198454
21545.92969 0.199422
21546.15039 0.200595
21546.35938 0.201874
21546.58008 0.203143
21546.78906 0.204411
21547.00977 0.205679
21547.22070 0.206947
21547.43945 0.208227
21547.65039 0.209495
21547.86914 0.210764
21548.08008 0.211886
21548.30078 0.212782
21548.51953 0.213686
21548.73047 0.214582
21548.94922 0.215477
21549.16016 0.216373
21549.36914 0.217269
21549.58984 0.218173
21549.81055 0.219069
21550.01953 0.219985
21550.24023 0.221089
21550.44922 0.222192
21550.66992 0.223306
21550.88086 0.224409
21551.09961 0.225513
21551.31055 0.226617
21551.52930 0.22772
21551.74023 0.228834
21551.96094 0.229938
21552.16992 0.230725
21552.39062 0.231437
21552.59961 0.23215
21552.82031 0.232869
21553.03906 0.233581
21553.25000 0.234293
21553.46094 0.235006
21553.67969 0.235725
21553.90039 0.236437
21554.10938 0.237138
21554.33008 0.237828
21554.53906 0.238518
21554.75977 0.239214
21554.97070 0.239904
21555.18945 0.240594
21555.40039 0.241284
21555.61914 0.24198
21555.83008 0.24267
21556.05078 0.243341
21556.25977 0.243947
21556.48047 0.244558
21556.69922 0.245164
21556.91016 0.24577
21557.13086 0.246376
21557.33984 0.246987
21557.56055 0.247593
21557.76953 0.248199
21557.99023 0.248805
21558.19922 0.24926
21558.41992 0.2497
21558.63086 0.25014
21558.84961 0.25058
21559.06055 0.251024
21559.27930 0.251464
21559.49023 0.251904
21559.71094 0.252345
21559.92969 0.252789
21560.14062 0.253155
21560.35938 0.253481
21560.57031 0.253808
21560.78906 0.254138
21561.00000 0.254464
21561.22070 0.254791
21561.42969 0.255118
21561.65039 0.255447
21561.85938 0.255774
21562.08008 0.256067
21562.28906 0.256299
21562.50977 0.256533
21562.72070 0.256765
21562.93945 0.256997
21563.15039 0.25723
21563.36914 0.257464
21563.58984 0.257696
21563.80078 0.257929
21564.01953 0.258164
21564.23047 0.25841
21564.44922 0.258655
21564.66016 0.2589
21564.88086 0.259148
21565.08984 0.259393
21565.31055 0.259639
21565.52930 0.259887
21565.74023 0.260132
21565.96094 0.260378
21566.16992 0.260346
21566.39062 0.26024
21566.59961 0.260135
21566.82031 0.26003
21567.02930 0.259924
21567.25000 0.259819
21567.46094 0.259714
21567.67969 0.259609
21567.89062 0.259503
21568.10938 0.259421
21568.32031 0.25936
21568.53906 0.259299
21568.75977 0.259239
21568.97070 0.259178
21569.18945 0.259118
21569.40039 0.259056
21569.61914 0.258996
21569.83008 0.258935
21570.05078 0.25888
21570.25977 0.258845
21570.48047 0.258811
21570.69922 0.258776
21570.91016 0.258742
21571.13086 0.258707
21571.33984 0.258672
21571.56055 0.258638
21571.76953 0.258603
21571.99023 0.258569
21572.19922 0.258578
21572.41992 0.258589
21572.63086 0.258601
21572.84961 0.258613
21573.06055 0.258625
21573.27930 0.258637
21573.50000 0.258649
21573.71094 0.258661
21573.92969 0.258672
21574.14062 0.258478
21574.35938 0.258178
21574.57031 0.257878
21574.78906 0.257576
21575.00000 0.257277
21575.22070 0.256977
21575.43945 0.256675
21575.65039 0.256375
21575.86914 0.256076
21576.08008 0.255847
21576.30078 0.255742
21576.50977 0.255636
21576.73047 0.25553
21576.93945 0.255425
21577.16016 0.255319
21577.38086 0.255213
21577.58984 0.255107
21577.80078 0.255002
21578.01953 0.254891
21578.24023 0.254743
21578.44922 0.254595
21578.66992 0.254446
21578.88086 0.254297
21579.09961 0.254148
21579.31055 0.254
21579.52930 0.253852
21579.75000 0.253702
21579.96094 0.253554
21580.17969 0.253367
21580.39062 0.25317
21580.60938 0.252975
21580.82031 0.25278
21581.03906 0.252583
21581.25000 0.252388
21581.47070 0.252193
21581.68945 0.251996
21581.90039 0.251801
21582.11914 0.251609
21582.33008 0.251423
21582.55078 0.251238
21582.75977 0.25105
21582.98047 0.250864
21583.18945 0.250678
21583.41016 0.250491
21583.63086 0.250305
21583.83984 0.250117
21584.06055 0.249921
21584.26953 0.249695
21584.49023 0.249466
21584.69922 0.24924
21584.91992 0.249013
21585.13086 0.248785
21585.34961 0.248559
21585.57031 0.24833
21585.77930 0.248104
21586.00000 0.247878
21586.21094 0.247695
21586.42969 0.247515
21586.64062 0.247334
21586.85938 0.247154
21587.07031 0.246974
21587.28906 0.246793
21587.50977 0.246613
21587.72070 0.246431
21587.93945 0.246252
21588.15039 0.24611
21588.36914 0.245983
21588.58008 0.245858
21588.80078 0.245732
21589.01953 0.245605
21589.23047 0.24548
21589.44922 0.245353
21589.66016 0.245227
21589.88086 0.245101
21590.08984 0.245002
21590.31055 0.244938
21590.52930 0.244874
21590.74023 0.24481
21590.96094 0.244746
21591.16992 0.244682
21591.39062 0.244619
21591.59961 0.244555
21591.82031 0.244491
21592.03906 0.2444
21592.25000 0.244175
21592.46094 0.24395
21592.67969 0.243723
21592.90039 0.243499
21593.10938 0.243272
21593.33008 0.243047
21593.53906 0.24282
21593.75977 0.242595
21593.97070 0.24237
21594.18945 0.242311
21594.41016 0.242274
21594.61914 0.242237
21594.83984 0.2422
21595.05078 0.242163
21595.26953 0.242126
21595.48047 0.242089
21595.69922 0.242052
21595.91992 0.242015
21596.13086 0.241895
21596.34961 0.241724
21596.56055 0.241552
21596.77930 0.24138
21597.00000 0.241208
21597.21094 0.241036
21597.42969 0.240865
21597.64062 0.240693
21597.85938 0.240521
21598.07031 0.240445
21598.28906 0.240553
21598.50977 0.240662
21598.72070 0.240769
21598.93945 0.240878
21599.15039 0.240986
21599.36914 0.241095
21599.58008 0.241202
21599.80078 0.24131
21600.01953 0.241401
21600.23047 0.24126
21600.44922 0.241119
21600.66016 0.240978
21600.88086 0.240837
21601.08984 0.240696
21601.31055 0.240555
21601.52930 0.240414
21601.74023 0.240272
21601.96094 0.240132
21602.16992 0.240101
21602.39062 0.240097
21602.59961 0.240093
21602.82031 0.240089
21603.03906 0.240085
21603.25000 0.240081
21603.47070 0.240078
21603.67969 0.240074
21603.90039 0.24007
21604.11914 0.240058
21604.33008 0.24004
21604.55078 0.240022
21604.75977 0.240004
21604.98047 0.239985
21605.18945 0.239967
21605.41016 0.239949
21605.63086 0.23993
21605.83984 0.239912
21606.06055 0.239899
21606.26953 0.239899
21606.49023 0.239899
21606.71094 0.239899
21606.91992 0.2399
21607.14062 0.2399
21607.34961 0.2399
21607.57031 0.2399
21607.77930 0.239901
21608.00000 0.239901
21608.21094 0.239895
21608.42969 0.239889
21608.65039 0.239883
21608.85938 0.239877
21609.08008 0.239871
21609.28906 0.239865
21609.50977 0.239859
21609.73047 0.239853
21609.93945 0.239847
21610.16016 0.239901
21610.36914 0.239976
21610.58984 0.240052
21610.80078 0.240127
21611.01953 0.240202
21611.24023 0.240277
21611.44922 0.240353
21611.66992 0.240428
21611.88086 0.240504
21612.09961 0.240584
21612.32031 0.240671
21612.52930 0.240756
21612.75000 0.240843
21612.96094 0.240929
21613.17969 0.241015
21613.40039 0.241102
21613.60938 0.241188
21613.83008 0.241275
21614.03906 0.241376
21614.25977 0.24154
21614.47070 0.241702
21614.68945 0.241866
21614.91016 0.242029
21615.11914 0.242193
21615.33984 0.242355
21615.55078 0.242519
21615.76953 0.242681
21615.99023 0.242845
21616.19922 0.242903
21616.41992 0.242953
21616.63086 0.243004
21616.84961 0.243054
21617.07031 0.243104
21617.27930 0.243154
21617.50000 0.243205
21617.71094 0.243255
21617.92969 0.243306
21618.14062 0.243428
21618.35938 0.243588
21618.58008 0.243746
21618.78906 0.243905
21619.00977 0.244064
21619.22070 0.244222
21619.43945 0.244381
21619.66016 0.244539
21619.86914 0.244699
21620.08984 0.244825
21620.30078 0.244907
21620.51953 0.244989
21620.74023 0.24507
21620.94922 0.245152
21621.16992 0.245233
21621.38086 0.245315
21621.59961 0.245396
21621.82031 0.245478
21622.02930 0.245574
21622.25000 0.245742
21622.46094 0.245912
21622.67969 0.246081
21622.90039 0.246251
21623.10938 0.24642
21623.33008 0.24659
21623.53906 0.24676
21623.75977 0.246928
21623.98047 0.247098
21624.18945 0.247225
21624.41016 0.247349
21624.61914 0.247471
21624.83984 0.247594
21625.06055 0.247717
21625.26953 0.247839
21625.49023 0.247962
21625.69922 0.248084
21625.91992 0.248207
21626.14062 0.248418
21626.34961 0.248678
21626.57031 0.24894
21626.77930 0.2492
21627.00000 0.249463
21627.22070 0.249725
21627.42969 0.249985
21627.65039 0.250248
21627.85938 0.250508
21628.08008 0.250679
21628.30078 0.250692
21628.50977 0.250706
21628.73047 0.250719
21628.93945 0.250733
21629.16016 0.250746
21629.38086 0.25076
21629.58984 0.250774
21629.81055 0.250787
21630.01953 0.250819
21630.24023 0.250999
21630.46094 0.251179
21630.66992 0.251358
21630.89062 0.251538
21631.09961 0.251716
21631.32031 0.251896
21631.53906 0.252076
21631.75000 0.252255
21631.97070 0.252435
21632.18945 0.252563
21632.40039 0.252681
21632.61914 0.2528
21632.83008 0.252918
21633.05078 0.253037
21633.26953 0.253156
21633.48047 0.253274
21633.69922 0.253393
21633.91016 0.253512
21634.13086 0.253657
21634.34961 0.253821
21634.56055 0.253986
21634.77930 0.254148
21634.99023 0.254313
21635.21094 0.254476
21635.42969 0.25464
21635.64062 0.254804
21635.85938 0.254967
21636.07031 0.255096
21636.28906 0.255155
21636.50977 0.255214
21636.72070 0.255274
21636.93945 0.255333
21637.15039 0.255392
21637.36914 0.255452
21637.58984 0.255511
21637.80078 0.25557
21638.01953 0.255638
21638.24023 0.255796
21638.44922 0.255951
21638.66992 0.256108
21638.88086 0.256264
21639.09961 0.256421
21639.32031 0.256578
21639.52930 0.256734
21639.75000 0.256891
21639.96094 0.257047
21640.17969 0.257326
21640.40039 0.257631
21640.60938 0.257936
21640.83008 0.258238
21641.03906 0.258543
21641.25977 0.258848
21641.48047 0.25915
21641.68945 0.259455
21641.91016 0.25976
21642.13086 0.259963
21642.33984 0.260097
21642.56055 0.26023
21642.77930 0.260363
21642.99023 0.260495
21643.21094 0.260628
21643.41992 0.260761
21643.64062 0.260894
21643.85938 0.261027
21644.07031 0.261152
21644.28906 0.261262
21644.50000 0.261372
21644.72070 0.261483
21644.93945 0.261592
21645.15039 0.261703
21645.36914 0.261813
21645.58008 0.261923
21645.80078 0.262033
21646.01953 0.262142
21646.23047 0.262233
21646.44922 0.262325
21646.66992 0.262417
21646.88086 0.262509
21647.09961 0.2626
21647.31055 0.262692
21647.52930 0.262784
21647.75000 0.262876
21647.96094 0.262968
21648.17969 0.263055
21648.40039 0.263141
21648.60938 0.263226
21648.83008 0.263312
21649.03906 0.263398
21649.25977 0.263483
21649.48047 0.263569
21649.68945 0.263655
21649.91016 0.263741
21650.11914 0.26389
21650.33984 0.264087
21650.56055 0.264283
21650.76953 0.264477
21650.99023 0.264674
21651.21094 0.26487
21651.41992 0.265066
21651.64062 0.265261
21651.85938 0.265457
21652.07031 0.265577
21652.28906 0.265544
21652.50000 0.26551
21652.72070 0.265477
21652.93945 0.265444
21653.15039 0.26541
21653.36914 0.265377
21653.58984 0.265344
21653.80078 0.26531
21654.01953 0.265282
21654.23047 0.265305
21654.44922 0.265328
21654.66992 0.26535
21654.88086 0.265373
21655.09961 0.265396
21655.32031 0.265419
21655.52930 0.265442
21655.75000 0.265465
21655.96094 0.265488
21656.17969 0.265626
21656.40039 0.265786
21656.60938 0.265947
21656.83008 0.266107
21657.05078 0.266269
21657.25977 0.266428
21657.48047 0.266589
21657.69922 0.26675
21657.91016 0.266911
21658.13086 0.266993
21658.33984 0.267021
21658.56055 0.267049
21658.77930 0.267078
21658.99023 0.267106
21659.21094 0.267134
21659.42969 0.267163
21659.64062 0.267191
21659.85938 0.26722
21660.07031 0.267307
21660.28906 0.267509
21660.50977 0.267711
21660.72070 0.267912
21660.93945 0.268112
21661.16016 0.268314
21661.36914 0.268516
21661.58984 0.268718
21661.80078 0.268918
21662.01953 0.269097
21662.24023 0.269075
21662.46094 0.269053
21662.66992 0.269031
21662.89062 0.269009
21663.09961 0.268987
21663.32031 0.268965
21663.53906 0.268943
21663.75000 0.268921
21663.97070 0.268899
21664.18945 0.268877
21664.40039 0.268854
21664.61914 0.268832
21664.83008 0.268809
21665.05078 0.268787
21665.26953 0.268764
21665.48047 0.268742
21665.69922 0.26872
21665.91992 0.268697
21666.13086 0.268773
21666.34961 0.26891
21666.57031 0.269047
21666.77930 0.269185
21667.00000 0.269321
21667.21094 0.269458
21667.42969 0.269595
21667.65039 0.269733
21667.86914 0.26987
21668.08008 0.269915
21668.30078 0.269804
21668.50977 0.269694
21668.73047 0.269583
21668.94922 0.269473
21669.16016 0.269364
21669.38086 0.269253
21669.59961 0.269143
21669.81055 0.269033
21670.02930 0.268934
21670.25000 0.268908
21670.46094 0.268882
21670.67969 0.268855
21670.89062 0.268829
21671.10938 0.268803
21671.33008 0.268776
21671.53906 0.268751
21671.75977 0.268724
21671.98047 0.268698
21672.18945 0.268776
21672.41016 0.268867
21672.63086 0.268958
21672.83984 0.269048
21673.06055 0.269139
21673.27930 0.26923
21673.49023 0.269321
21673.71094 0.269412
21673.92969 0.269503
21674.14062 0.269501
21674.35938 0.269451
21674.57031 0.269401
21674.78906 0.269351
21675.00977 0.2693
21675.22070 0.26925
21675.43945 0.2692
21675.66016 0.26915
21675.86914 0.2691
21676.08984 0.269063
21676.31055 0.269045
21676.51953 0.269028
21676.74023 0.26901
21676.96094 0.268992
21677.16992 0.268974
21677.39062 0.268956
21677.60938 0.268939
21677.82031 0.268921
21678.03906 0.268915
21678.25977 0.268963
21678.47070 0.269011
21678.68945 0.269059
21678.90039 0.269107
21679.11914 0.269155
21679.33984 0.269204
21679.55078 0.269252
21679.76953 0.2693
21679.99023 0.269348
21680.19922 0.269205
21680.41992 0.269048
21680.64062 0.268892
21680.84961 0.268736
21681.07031 0.26858
21681.28906 0.268423
21681.50000 0.268267
21681.72070 0.268112
21681.93945 0.267956
21682.15039 0.267952
21682.36914 0.268012
21682.58984 0.268072
21682.80078 0.268131
21683.01953 0.268191
21683.24023 0.268251
21683.44922 0.268311
21683.66992 0.26837
21683.88086 0.26843
21684.09961 0.268358
21684.32031 0.268137
21684.53906 0.267915
21684.75000 0.267694
21684.97070 0.267472
21685.18945 0.267251
21685.40039 0.267029
21685.61914 0.266809
21685.83008 0.266588
21686.05078 0.266445
21686.26953 0.266559
21686.48047 0.266674
21686.69922 0.266788
21686.91992 0.266902
21687.13086 0.267016
21687.34961 0.26713
21687.57031 0.267245
21687.77930 0.267358
21688.00000 0.267472
21688.22070 0.267373
21688.42969 0.267273
21688.65039 0.267174
21688.86914 0.267075
21689.08008 0.266975
21689.30078 0.266876
21689.51953 0.266777
21689.73047 0.266678
21689.94922 0.266578
21690.16992 0.266485
21690.38086 0.266394
21690.59961 0.266302
21690.82031 0.266211
21691.02930 0.266119
21691.25000 0.266028
21691.47070 0.265936
21691.67969 0.265844
21691.90039 0.265753
21692.11914 0.265685
21692.33008 0.265636
21692.55078 0.265588
21692.76953 0.265539
21692.98047 0.265491
21693.19922 0.265442
21693.41992 0.265394
21693.63086 0.265346
21693.84961 0.265297
21694.07031 0.265234
21694.27930 0.265139
21694.50000 0.265044
21694.72070 0.264948
21694.92969 0.264853
21695.15039 0.264758
21695.36914 0.264663
21695.58008 0.264568
21695.80078 0.264472
21696.01953 0.264363
21696.23047 0.264102
21696.44922 0.26384
21696.66992 0.263578
21696.88086 0.263316
21697.09961 0.263054
21697.32031 0.262792
21697.52930 0.262532
21697.75000 0.26227
21697.97070 0.262008
21698.17969 0.262001
21698.40039 0.26204
21698.61914 0.262079
21698.83008 0.262118
21699.05078 0.262156
21699.26953 0.262195
21699.48047 0.262234
21699.69922 0.262273
21699.91992 0.262312
21700.13086 0.262159
21700.34961 0.261888
21700.57031 0.261618
21700.78906 0.261347
21701.00000 0.261077
21701.22070 0.260806
21701.43945 0.260536
21701.65039 0.260266
21701.86914 0.259995
21702.08984 0.259839
21702.30078 0.259858
21702.51953 0.259877
21702.74023 0.259896
21702.94922 0.259915
21703.16992 0.259934
21703.39062 0.259953
21703.59961 0.259972
21703.82031 0.259991
21704.03906 0.259962
21704.25000 0.259699
21704.47070 0.259435
21704.68945 0.259172
21704.90039 0.258908
21705.11914 0.258645
21705.33984 0.258381
21705.55078 0.258118
21705.76953 0.257855
21705.99023 0.257591
21706.21094 0.257286
21706.41992 0.256979
21706.64062 0.256671
21706.85938 0.256364
21707.07031 0.256057
21707.28906 0.255749
21707.50977 0.255442
21707.72070 0.255135
21707.93945 0.254827
21708.16016 0.254602
21708.36914 0.254409
21708.58984 0.254216
21708.81055 0.254023
21709.01953 0.25383
21709.24023 0.253637
21709.46094 0.253444
21709.66992 0.253251
21709.89062 0.253057
21710.10938 0.252788
21710.32031 0.252441
21710.53906 0.252094
21710.75977 0.251747
21710.97070 0.2514
21711.18945 0.251053
21711.41016 0.250705
21711.61914 0.250358
21711.83984 0.250011
21712.06055 0.249685
21712.27930 0.249416
21712.49023 0.249147
21712.71094 0.248878
21712.92969 0.248609
21713.14062 0.248341
21713.35938 0.248072
21713.58008 0.247803
21713.78906 0.247534
21714.00977 0.247259
21714.23047 0.246847
21714.44922 0.246439
21714.66016 0.246031
21714.88086 0.245623
21715.09961 0.245215
21715.31055 0.244807
21715.52930 0.244398
21715.75000 0.24399
21715.96094 0.243582
21716.17969 0.24307
21716.40039 0.242535
21716.60938 0.242001
21716.83008 0.241467
21717.05078 0.240933
21717.25977 0.240398
21717.48047 0.239864
21717.69922 0.23933
21717.91016 0.238795
21718.13086 0.23834
21718.34961 0.237933
21718.57031 0.23753
21718.77930 0.237127
21719.00000 0.236724
21719.22070 0.236321
21719.42969 0.235918
21719.65039 0.235514
21719.86914 0.235111
21720.08008 0.234702
21720.30078 0.234284
21720.51953 0.233865
21720.73047 0.233447
21720.94922 0.233029
21721.16992 0.23261
21721.39062 0.232188
21721.59961 0.23177
21721.82031 0.231352
21722.03906 0.230888
21722.25000 0.230208
21722.47070 0.229527
21722.68945 0.228847
21722.90039 0.228166
21723.11914 0.227485
21723.33984 0.226805
21723.55078 0.226124
21723.76953 0.225437
21723.99023 0.224757
21724.21094 0.224147
21724.41992 0.22354
21724.64062 0.222933
21724.85938 0.222327
21725.07031 0.22172
21725.28906 0.221113
21725.50977 0.220506
21725.72070 0.2199
21725.93945 0.219287
21726.16016 0.218549
21726.38086 0.217764
21726.58984 0.216979
21726.81055 0.216194
21727.02930 0.215409
21727.24023 0.214624
21727.46094 0.213839
21727.67969 0.213054
21727.89062 0.212269
21728.10938 0.211528
21728.33008 0.21084
21728.55078 0.210153
21728.75977 0.209465
21728.98047 0.208777
21729.19922 0.20809
21729.41016 0.207402
21729.63086 0.206714
21729.84961 0.206021
21730.07031 0.205232
21730.27930 0.204216
21730.50000 0.203201
21730.72070 0.202184
21730.92969 0.201169
21731.15039 0.200153
21731.36914 0.199136
21731.58984 0.198111
21731.80078 0.197095
21732.01953 0.196104
21732.24023 0.195362
21732.44922 0.19462
21732.66992 0.193878
21732.89062 0.193136
21733.10938 0.192387
21733.32031 0.191645
21733.53906 0.190903
21733.75977 0.190161
21733.97070 0.189418
21734.18945 0.188564
21734.41016 0.187692
21734.63086 0.186813
21734.83984 0.185942
21735.06055 0.185071
21735.27930 0.184199
21735.49023 0.183328
21735.71094 0.182457
21735.92969 0.181586
21736.14062 0.18058
21736.35938 0.17952
21736.58008 0.17846
21736.78906 0.1774
21737.00977 0.176339
21737.23047 0.175279
21737.44922 0.174209
21737.66016 0.173149
21737.88086 0.172088
21738.09961 0.171095
21738.31055 0.170183
21738.52930 0.169271
21738.75000 0.16835
21738.97070 0.167438
21739.17969 0.166526
21739.40039 0.165614
21739.61914 0.164702
21739.83008 0.16379
21740.05078 0.162849
21740.26953 0.161854
21740.49023 0.160858
21740.69922 0.159862
21740.91992 0.158866
21741.14062 0.15787
21741.35938 0.156865
21741.57031 0.155869
21741.78906 0.154873
21742.00977 0.153884
21742.22070 0.15312
21742.43945 0.152349
21742.66016 0.151586
21742.86914 0.150822
21743.08984 0.150058
21743.31055 0.149295
21743.52930 0.148524
21743.74023 0.14776
21743.96094 0.146997
21744.17969 0.145865
21744.39062 0.144653
21744.60938 0.143429
21744.83008 0.142217
21745.05078 0.141005
21745.25977 0.139792
21745.48047 0.13858
21745.69922 0.137356
21745.91992 0.136144
21746.13086 0.135173
21746.34961 0.134353
21746.57031 0.133534
21746.78906 0.132707
21747.00000 0.131888
21747.22070 0.131069
21747.43945 0.13025
21747.65039 0.12943
21747.86914 0.128604
21748.08984 0.12769
21748.30078 0.126639
21748.51953 0.125588
21748.74023 0.124537
21748.96094 0.123476
21749.16992 0.122425
21749.39062 0.121373
21749.60938 0.120322
21749.83008 0.119261
21750.03906 0.118255
21750.25977 0.11743
21750.48047 0.116605
21750.69922 0.115773
21750.91016 0.114949
21751.13086 0.114124
21751.34961 0.113299
21751.56055 0.112474
21751.77930 0.111642
21752.00000 0.110817
21752.21094 0.109764
21752.42969 0.108709
21752.65039 0.107644
21752.86914 0.106589
21753.08008 0.105533
21753.30078 0.104478
21753.51953 0.103413
21753.74023 0.102357
21753.94922 0.101302
21754.16992 0.1005
21754.39062 0.099762
21754.60938 0.09903
21754.82031 0.098298
21755.03906 0.097566
21755.25977 0.096828
21755.47070 0.096096
21755.68945 0.095364
21755.91016 0.094632
21756.13086 0.093891
21756.33984 0.093155
21756.56055 0.092419
21756.77930 0.091683
21757.00000 0.09094
21757.21094 0.090204
21757.42969 0.089468
21757.65039 0.088732
21757.86914 0.087989
21758.08008 0.087263
21758.30078 0.086552
21758.51953 0.085835
21758.73047 0.085125
21758.94922 0.084414
21759.16992 0.083704
21759.39062 0.082987
21759.59961 0.082276
21759.82031 0.081565
21760.03906 0.080837
21760.25977 0.080016
21760.47070 0.079202
21760.68945 0.078388
21760.91016 0.077567
21761.11914 0.076753
21761.33984 0.07594
21761.56055 0.075126
21761.77930 0.074305
21761.99023 0.073491
21762.21094 0.072965
21762.42969 0.072443
21762.65039 0.071925
21762.85938 0.071408
21763.08008 0.07089
21763.30078 0.070368
21763.51953 0.06985
21763.73047 0.069332
21763.94922 0.06881
21764.16992 0.068094
21764.38086 0.06732
21764.59961 0.066539
21764.82031 0.065765
21765.03906 0.064991
21765.25000 0.064217
21765.47070 0.063436
21765.68945 0.062661
21765.91016 0.061887
21766.13086 0.061282
21766.33984 0.060812
21766.56055 0.060342
21766.77930 0.059867
21766.99023 0.059398
21767.21094 0.058928
21767.42969 0.058453
21767.65039 0.057983
21767.85938 0.057513
21768.08008 0.057029
21768.30078 0.056514
21768.51953 0.056004
21768.73047 0.055493
21768.94922 0.054979
21769.16992 0.054469
21769.38086 0.053958
21769.59961 0.053444
21769.82031 0.052933
21770.03906 0.052419
21770.25977 0.051879
21770.47070 0.051344
21770.68945 0.050808
21770.91016 0.050268
21771.13086 0.049733
21771.33984 0.049198
21771.56055 0.048658
21771.77930 0.048122
21771.99023 0.047587
21772.21094 0.04717
21772.42969 0.04676
21772.65039 0.04635
21772.86914 0.045937
21773.08008 0.045527
21773.30078 0.045117
21773.51953 0.044704
21773.73047 0.044294
21773.94922 0.043884
21774.16992 0.043556
21774.39062 0.043255
21774.60938 0.042952
21774.82031 0.042651
21775.03906 0.042351
21775.25977 0.042047
21775.47070 0.041747
21775.68945 0.041446
21775.91016 0.041143
21776.13086 0.0408
21776.33984 0.040426
21776.56055 0.04005
21776.77930 0.039676
21777.00000 0.039303
21777.21094 0.038926
21777.42969 0.038553
21777.65039 0.038176
21777.86914 0.037803
21778.08008 0.037422
21778.30078 0.037027
21778.51953 0.036636
21778.74023 0.036245
21778.96094 0.03585
21779.16992 0.035459
21779.39062 0.035064
21779.60938 0.034673
21779.82031 0.034281
21780.03906 0.033915
21780.25977 0.033668
21780.48047 0.033421
21780.69922 0.033171
21780.91016 0.032924
21781.13086 0.032674
21781.34961 0.032427
21781.56055 0.032179
21781.77930 0.03193
21782.00000 0.031683
21782.22070 0.031312
21782.43945 0.030944
21782.65039 0.030577
21782.86914 0.030206
21783.08984 0.029839
21783.31055 0.029468
21783.51953 0.0291
21783.74023 0.028733
21783.96094 0.028362
21784.17969 0.028098
21784.39062 0.027857
21784.60938 0.027618
21784.83008 0.027379
21785.05078 0.027138
21785.25977 0.026898
21785.48047 0.026657
21785.69922 0.026418
21785.91992 0.026179
21786.13086 0.025864
21786.34961 0.025506
21786.57031 0.025145
21786.78906 0.024787
21787.00000 0.024429
21787.22070 0.024068
21787.43945 0.02371
21787.66016 0.023349
21787.86914 0.022991
21788.08984 0.022793
21788.31055 0.022811
21788.52930 0.022829
21788.75000 0.022847
21788.96094 0.022865
21789.17969 0.022883
21789.40039 0.022901
21789.61914 0.022919
21789.83008 0.022937
21790.05078 0.02285
21790.26953 0.022416
21790.49023 0.021986
21790.71094 0.021552
21790.91992 0.021122
21791.14062 0.020688
21791.35938 0.020258
21791.57031 0.019828
21791.78906 0.019394
21792.00977 0.018984
21792.23047 0.019013
21792.44922 0.019042
21792.66016 0.019071
21792.88086 0.0191
21793.09961 0.019128
21793.32031 0.019157
21793.52930 0.019186
21793.75000 0.019215
21793.97070 0.019243
21794.18945 0.019056
21794.40039 0.018835
21794.61914 0.018612
21794.83984 0.01839
21795.06055 0.018167
21795.27930 0.017946
21795.49023 0.017724
21795.71094 0.017501
21795.92969 0.01728
21796.15039 0.017062
21796.35938 0.01685
21796.58008 0.016636
21796.80078 0.016423
21797.01953 0.016209
21797.23047 0.015996
21797.44922 0.015782
21797.66992 0.01557
21797.89062 0.015355
21798.10938 0.015279
21798.32031 0.015348
21798.53906 0.015416
21798.75977 0.015484
21798.98047 0.015552
21799.18945 0.01562
21799.41016 0.015689
21799.63086 0.015756
21799.84961 0.015825
21800.06055 0.015812
21800.27930 0.015606
21800.50000 0.015402
21800.72070 0.015196
21800.93945 0.014992
21801.15039 0.014786
21801.36914 0.014582
21801.58984 0.014376
21801.81055 0.014172
21802.02930 0.013969
21802.24023 0.013786
21802.46094 0.013602
21802.67969 0.013419
21802.90039 0.013235
21803.10938 0.013052
21803.33008 0.012868
21803.55078 0.012685
21803.76953 0.012501
21803.98047 0.012318
21804.19922 0.012244
21804.41992 0.012179
21804.64062 0.012113
21804.85938 0.012048
21805.07031 0.011982
21805.28906 0.011917
21805.50977 0.011852
21805.73047 0.011786
21805.94922 0.011721
21806.16016 0.011646
21806.38086 0.011568
21806.59961 0.011491
21806.82031 0.011412
21807.02930 0.011335
21807.25000 0.011257
21807.47070 0.011179
21807.68945 0.011101
21807.90039 0.011023
21808.11914 0.010881
21808.33984 0.010689
21808.56055 0.010496
21808.77930 0.010303
21808.99023 0.010111
21809.21094 0.009918
21809.42969 0.009727
21809.65039 0.009534
21809.86914 0.009342
21810.08008 0.00923
21810.30078 0.009248
21810.51953 0.009266
21810.74023 0.009283
21810.96094 0.009301
21811.16992 0.009319
21811.39062 0.009337
21811.60938 0.009354
21811.83008 0.009372
21812.03906 0.00937
21812.25977 0.009291
21812.48047 0.009211
21812.69922 0.009131
21812.91992 0.009051
21813.13086 0.008972
21813.34961 0.008892
21813.57031 0.008813
21813.78906 0.008733
21814.00977 0.008653
21814.22070 0.008577
21814.43945 0.0085
21814.66016 0.008424
21814.88086 0.008347
21815.08984 0.008271
21815.31055 0.008194
21815.52930 0.008118
21815.75000 0.008042
21815.97070 0.007965
21816.17969 0.007801
21816.40039 0.00762
21816.61914 0.007441
21816.83984 0.00726
21817.05078 0.00708
21817.26953 0.006899
21817.49023 0.006718
21817.71094 0.006538
21817.92969 0.006357
21818.14062 0.006336
21818.35938 0.006395
21818.58008 0.006454
21818.80078 0.006513
21819.01953 0.006572
21819.23047 0.00663
21819.44922 0.006689
21819.66992 0.006747
21819.89062 0.006806
21820.10938 0.006754
21820.32031 0.006583
21820.53906 0.006413
21820.75977 0.006244
21820.98047 0.006073
21821.19922 0.005904
21821.41016 0.005733
21821.63086 0.005562
21821.84961 0.005393
21822.07031 0.005275
21822.28906 0.005274
21822.50000 0.005273
21822.72070 0.005272
21822.93945 0.005271
21823.16016 0.00527
21823.38086 0.005269
21823.58984 0.005267
21823.81055 0.005266
21824.02930 0.005258
21824.25000 0.0052
21824.46094 0.005144
21824.67969 0.005086
21824.90039 0.005029
21825.11914 0.004972
21825.33984 0.004915
21825.55078 0.004858
21825.76953 0.004801
21825.99023 0.004744
21826.21094 0.004761
21826.42969 0.004781
21826.65039 0.004801
21826.85938 0.00482
21827.08008 0.00484
21827.30078 0.00486
21827.51953 0.00488
21827.74023 0.0049
21827.94922 0.00492
21828.16992 0.00484
21828.39062 0.004733
21828.60938 0.004625
21828.83008 0.004517
21829.03906 0.00441
21829.25977 0.004303
21829.48047 0.004195
21829.69922 0.004088
21829.91992 0.00398
21830.13086 0.003925
21830.34961 0.003903
21830.57031 0.003881
21830.78906 0.003859
21831.00977 0.003836
21831.22070 0.003814
21831.43945 0.003792
21831.66016 0.00377
21831.88086 0.003748
21832.09961 0.003718
21832.31055 0.003679
21832.52930 0.00364
21832.75000 0.003602
21832.97070 0.003563
21833.18945 0.003524
21833.40039 0.003485
21833.61914 0.003446
21833.83984 0.003407
21834.06055 0.003393
21834.27930 0.003447
21834.49023 0.003499
21834.71094 0.003553
21834.92969 0.003606
21835.15039 0.003659
21835.36914 0.003712
21835.58984 0.003765
21835.80078 0.003818
21836.01953 0.003862
21836.24023 0.003823
21836.46094 0.003783
21836.67969 0.003743
21836.89062 0.003704
21837.10938 0.003664
21837.33008 0.003624
21837.55078 0.003585
21837.76953 0.003545
21837.98047 0.003505
21838.19922 0.003435
21838.41992 0.003363
21838.64062 0.003291
21838.85938 0.003219
21839.08008 0.003147
21839.28906 0.003075
21839.50977 0.003003
21839.73047 0.002931
21839.94922 0.002859
21840.16992 0.002826
21840.38086 0.002805
21840.59961 0.002785
21840.82031 0.002765
21841.03906 0.002744
21841.25977 0.002724
21841.47070 0.002703
21841.68945 0.002683
21841.91016 0.002662
21842.13086 0.0027
21842.34961 0.002779
21842.57031 0.002857
21842.77930 0.002935
21843.00000 0.003014
21843.22070 0.003092
21843.43945 0.00317
21843.66016 0.003249
21843.86914 0.003327
21844.08984 0.003345
21844.31055 0.003281
21844.52930 0.003217
21844.75000 0.003152
21844.96094 0.003088
21845.17969 0.003024
21845.40039 0.00296
21845.61914 0.002895
21845.83984 0.002832
21846.06055 0.002765
21846.27930 0.002691
21846.49023 0.002617
21846.71094 0.002543
21846.92969 0.002469
21847.15039 0.002395
21847.36914 0.002322
21847.58008 0.002248
21847.80078 0.002174
21848.01953 0.002111
21848.24023 0.00216
21848.46094 0.002209
21848.67969 0.002258
21848.89062 0.002307
21849.10938 0.002355
21849.33008 0.002404
21849.55078 0.002453
21849.76953 0.002502
21849.98047 0.002551
21850.19922 0.002572
21850.41992 0.002592
21850.64062 0.002611
21850.85938 0.002631
21851.08008 0.00265
21851.28906 0.00267
21851.50977 0.002689
21851.73047 0.002709
21851.94922 0.002728
21852.16992 0.002681
21852.38086 0.002612
21852.59961 0.002544
21852.82031 0.002475
21853.03906 0.002408
21853.25977 0.002339
21853.48047 0.002271
21853.69922 0.002202
21853.91016 0.002134
21854.13086 0.002062
21854.34961 0.001987
21854.57031 0.001912
21854.78906 0.001837
21855.00000 0.001763
21855.22070 0.001688
21855.43945 0.001613
21855.66016 0.001538
21855.88086 0.001463
21856.09961 0.001469
21856.31055 0.001577
21856.52930 0.001686
21856.75000 0.001794
21856.97070 0.001902
21857.18945 0.002011
21857.41016 0.00212
21857.63086 0.002228
21857.83984 0.002336
21858.06055 0.002395
21858.27930 0.002324
21858.50000 0.002253
21858.71094 0.002183
21858.92969 0.002112
21859.15039 0.002041
21859.36914 0.00197
21859.58984 0.001899
21859.81055 0.001829
21860.02930 0.001749
21860.24023 0.001604
21860.46094 0.001459
21860.67969 0.001313
21860.90039 0.001169
21861.11914 0.001024
21861.33984 0.000879
21861.55078 0.000733
21861.76953 0.000588
21861.99023 0.000444
21862.21094 0.000721
21862.42969 0.001018
21862.65039 0.001314
21862.86914 0.001611
21863.08008 0.001905
21863.30078 0.002202
21863.51953 0.002498
21863.74023 0.002795
21863.96094 0.003092
21864.16992 0.003033
21864.39062 0.002887
21864.60938 0.00274
21864.83008 0.002593
21865.05078 0.002446
21865.26953 0.0023
21865.48047 0.002154
21865.69922 0.002007
21865.91992 0.00186
21866.14062 0.001794
21866.35938 0.001774
21866.58008 0.001755
21866.78906 0.001735
21867.00977 0.001715
21867.23047 0.001694
21867.44922 0.001674
21867.66992 0.001655
21867.89062 0.001635
21868.10938 0.001556
21868.32031 0.001415
21868.53906 0.001273
21868.75977 0.001132
21868.98047 0.000992
21869.19922 0.000851
21869.41992 0.000709
21869.63086 0.000568
21869.84961 0.000427
24056.83398 0.0
