# %ECSV 0.9
# ---
# datatype:
# - {name: wavelength, unit: Angstrom, datatype: float32}
# - {name: response, datatype: float32}
# meta: !!omap
# - {band_name: POL120L}
# - {group_name: NICMOS2}
wavelength response
16500.09570 0.0
18333.43945 0.0004
18333.80078 0.000403
18334.16992 0.000405
18334.53906 0.000408
18334.91016 0.00041
18335.26953 0.000413
18335.64062 0.000414
18336.00977 0.000416
18336.36914 0.000418
18336.74023 0.00042
18337.10938 0.000422
18337.48047 0.000424
18337.84961 0.000426
18338.21094 0.000428
18338.58008 0.00043
18338.94922 0.000432
18339.32031 0.000434
18339.67969 0.000436
18340.05078 0.000438
18340.41992 0.000436
18340.78906 0.000434
18341.15039 0.000433
18341.51953 0.000431
18341.89062 0.000429
18342.25977 0.000428
18342.63086 0.000426
18342.99023 0.000424
18343.35938 0.000422
18343.73047 0.000421
18344.08984 0.000419
18344.46094 0.000417
18344.83008 0.000416
18345.19922 0.000415
18345.56055 0.000416
18345.92969 0.000416
18346.30078 0.000417
18346.66992 0.000418
18347.03906 0.000418
18347.40039 0.000419
18347.76953 0.000419
18348.14062 0.00042
18348.50977 0.00042
18348.88086 0.000421
18349.24023 0.000422
18349.60938 0.000422
18349.98047 0.000423
18350.34961 0.000421
18350.71094 0.000419
18351.08008 0.000417
18351.44922 0.000415
18351.82031 0.000413
18352.17969 0.000411
18352.55078 0.000409
18352.91992 0.000408
18353.28906 0.000406
18353.66016 0.000404
18354.01953 0.000402
18354.39062 0.0004
18354.75977 0.000398
18355.13086 0.000398
18355.49023 0.000404
18355.85938 0.000409
18356.23047 0.000414
18356.59961 0.000419
18356.97070 0.000424
18357.33008 0.00043
18357.69922 0.000435
18358.07031 0.00044
18358.43945 0.000445
18358.81055 0.00045
18359.16992 0.000455
18359.53906 0.000461
18359.91016 0.000466
18360.27930 0.000466
18360.65039 0.000464
18361.00977 0.000462
18361.38086 0.00046
18361.75000 0.000458
18362.11914 0.000457
18362.49023 0.000455
18362.84961 0.000453
18363.22070 0.000451
18363.58984 0.000449
18363.96094 0.000448
18364.33008 0.000446
18364.68945 0.000444
18365.06055 0.000442
18365.42969 0.000443
18365.80078 0.000444
18366.16992 0.000444
18366.53906 0.000445
18366.90039 0.000445
18367.26953 0.000446
18367.64062 0.000446
18368.00977 0.000447
18368.38086 0.000447
18368.74023 0.000448
18369.10938 0.000448
18369.48047 0.000449
18369.84961 0.000449
18370.21094 0.000452
18370.58008 0.000455
18370.94922 0.000459
18371.32031 0.000462
18371.68945 0.000466
18372.06055 0.000469
18372.41992 0.000473
18372.78906 0.000476
18373.16016 0.00048
18373.52930 0.000483
18373.90039 0.000487
18374.26953 0.00049
18374.63086 0.000494
18375.00000 0.000497
18375.36914 0.000497
18375.74023 0.000496
18376.10938 0.000495
18376.47070 0.000494
18376.83984 0.000493
18377.21094 0.000492
18377.58008 0.000491
18377.94922 0.000491
18378.32031 0.00049
18378.68945 0.000489
18379.05078 0.000488
18379.41992 0.000487
18379.78906 0.000486
18380.16016 0.000487
18380.52930 0.000491
18380.89062 0.000494
18381.25977 0.000497
18381.63086 0.000501
18382.00000 0.000504
18382.36914 0.000507
18382.74023 0.00051
18383.10938 0.000514
18383.47070 0.000517
18383.83984 0.00052
18384.21094 0.000524
18384.58008 0.000527
18384.94922 0.00053
18385.32031 0.000533
18385.68945 0.000536
18386.05078 0.000538
18386.41992 0.000541
18386.78906 0.000543
18387.16016 0.000546
18387.52930 0.000549
18387.90039 0.000551
18388.25977 0.000554
18388.63086 0.000556
18389.00000 0.000559
18389.36914 0.000562
18389.74023 0.000564
18390.10938 0.000566
18390.48047 0.000568
18390.83984 0.000569
18391.21094 0.00057
18391.58008 0.000572
18391.94922 0.000573
18392.32031 0.000574
18392.68945 0.000575
18393.06055 0.000577
18393.41992 0.000578
18393.78906 0.000579
18394.16016 0.00058
18394.52930 0.000582
18394.90039 0.000583
18395.26953 0.000584
18395.64062 0.000585
18396.00977 0.000586
18396.36914 0.000587
18396.74023 0.000588
18397.10938 0.000589
18397.48047 0.00059
18397.84961 0.000591
18398.22070 0.000592
18398.58984 0.000593
18398.96094 0.000594
18399.32031 0.000595
18399.68945 0.000596
18400.06055 0.000597
18400.42969 0.000595
18400.80078 0.000593
18401.16992 0.000591
18401.53906 0.000589
18401.90039 0.000587
18402.26953 0.000585
18402.64062 0.000583
18403.00977 0.000581
18403.38086 0.000579
18403.75000 0.000577
18404.11914 0.000575
18404.49023 0.000573
18404.85938 0.000571
18405.22070 0.000571
18405.58984 0.000571
18405.96094 0.000572
18406.33008 0.000573
18406.69922 0.000573
18407.07031 0.000574
18407.43945 0.000575
18407.81055 0.000576
18408.17969 0.000576
18408.53906 0.000577
18408.91016 0.000578
18409.27930 0.000578
18409.65039 0.000579
18410.01953 0.00058
18410.39062 0.000586
18410.75977 0.000592
18411.13086 0.000598
18411.50000 0.000604
18411.86914 0.00061
18412.23047 0.000616
18412.59961 0.000621
18412.97070 0.000627
18413.33984 0.000633
18413.71094 0.000639
18414.08008 0.000645
18414.44922 0.000651
18414.82031 0.000657
18415.18945 0.00066
18415.55078 0.000661
18415.91992 0.000661
18416.28906 0.000662
18416.66016 0.000662
18417.02930 0.000663
18417.40039 0.000663
18417.76953 0.000664
18418.14062 0.000664
18418.50977 0.000665
18418.88086 0.000665
18419.25000 0.000666
18419.61914 0.000666
18419.98047 0.000667
18420.34961 0.00067
18420.72070 0.000675
18421.08984 0.000679
18421.46094 0.000683
18421.83008 0.000687
18422.19922 0.000691
18422.57031 0.000695
18422.93945 0.000699
18423.31055 0.000703
18423.67969 0.000707
18424.05078 0.000711
18424.41992 0.000715
18424.78906 0.000719
18425.15039 0.000721
18425.51953 0.000722
18425.89062 0.000723
18426.25977 0.000724
18426.63086 0.000724
18427.00000 0.000725
18427.36914 0.000726
18427.74023 0.000727
18428.10938 0.000727
18428.48047 0.000728
18428.84961 0.000729
18429.22070 0.00073
18429.58984 0.00073
18429.96094 0.000731
18430.32031 0.000731
18430.68945 0.000731
18431.06055 0.000731
18431.42969 0.000731
18431.80078 0.000731
18432.16992 0.000731
18432.53906 0.000731
18432.91016 0.000731
18433.27930 0.000731
18433.65039 0.000731
18434.01953 0.000731
18434.39062 0.000731
18434.75977 0.000731
18435.13086 0.000731
18435.50000 0.000734
18435.86914 0.000736
18436.23047 0.000739
18436.59961 0.000741
18436.97070 0.000744
18437.33984 0.000746
18437.71094 0.000749
18438.08008 0.000751
18438.44922 0.000754
18438.82031 0.000756
18439.18945 0.000759
18439.56055 0.000761
18439.92969 0.000764
18440.30078 0.000769
18440.66992 0.000775
18441.03906 0.00078
18441.41016 0.000786
18441.77930 0.000792
18442.15039 0.000798
18442.51953 0.000804
18442.89062 0.000809
18443.25977 0.000815
18443.63086 0.000821
18444.00000 0.000827
18444.36914 0.000832
18444.73047 0.000838
18445.10938 0.000842
18445.47070 0.000841
18445.83984 0.00084
18446.21094 0.00084
18446.58008 0.000839
18446.94922 0.000838
18447.32031 0.000837
18447.68945 0.000836
18448.06055 0.000836
18448.42969 0.000835
18448.80078 0.000834
18449.16992 0.000833
18449.53906 0.000832
18449.91016 0.000831
18450.27930 0.000833
18450.65039 0.000835
18451.01953 0.000837
18451.39062 0.000839
18451.75977 0.000841
18452.13086 0.000843
18452.50000 0.000845
18452.86914 0.000847
18453.24023 0.000849
18453.60938 0.000852
18453.98047 0.000854
18454.34961 0.000856
18454.72070 0.000858
18455.08984 0.00086
18455.46094 0.000862
18455.83008 0.000864
18456.19922 0.000866
18456.57031 0.000868
18456.93945 0.00087
18457.31055 0.000872
18457.67969 0.000874
18458.05078 0.000876
18458.41992 0.000877
18458.78906 0.000879
18459.16016 0.000881
18459.52930 0.000883
18459.90039 0.000885
18460.26953 0.000888
18460.64062 0.00089
18461.00977 0.000892
18461.38086 0.000894
18461.75000 0.000897
18462.11914 0.000899
18462.49023 0.000901
18462.85938 0.000904
18463.23047 0.000906
18463.59961 0.000908
18463.97070 0.00091
18464.33984 0.000913
18464.71094 0.000915
18465.08008 0.000917
18465.44922 0.000918
18465.82031 0.00092
18466.18945 0.000921
18466.56055 0.000922
18466.92969 0.000923
18467.30078 0.000925
18467.66992 0.000926
18468.03906 0.000927
18468.41016 0.000929
18468.77930 0.00093
18469.15039 0.000931
18469.51953 0.000933
18469.89062 0.000934
18470.25977 0.000938
18470.63086 0.000943
18471.00000 0.000948
18471.36914 0.000953
18471.74023 0.000959
18472.10938 0.000964
18472.48047 0.000969
18472.84961 0.000974
18473.22070 0.000979
18473.58984 0.000985
18473.96094 0.00099
18474.33008 0.000995
18474.69922 0.001
18475.07031 0.001004
18475.43945 0.001005
18475.81055 0.001006
18476.17969 0.001007
18476.55078 0.001008
18476.91992 0.001009
18477.28906 0.00101
18477.66016 0.001011
18478.03906 0.001012
18478.40039 0.001012
18478.77930 0.001013
18479.14062 0.001014
18479.51953 0.001015
18479.89062 0.001016
18480.25977 0.001018
18480.63086 0.00102
18481.00000 0.001022
18481.36914 0.001025
18481.74023 0.001027
18482.10938 0.001029
18482.48047 0.001032
18482.84961 0.001034
18483.22070 0.001036
18483.58984 0.001039
18483.96094 0.001041
18484.33008 0.001043
18484.69922 0.001046
18485.07031 0.001049
18485.43945 0.001055
18485.81055 0.001062
18486.17969 0.001068
18486.55078 0.001074
18486.91992 0.001081
18487.28906 0.001087
18487.66992 0.001094
18488.03906 0.0011
18488.41016 0.001107
18488.77930 0.001113
18489.15039 0.001119
18489.51953 0.001126
18489.89062 0.001132
18490.25977 0.001136
18490.63086 0.001137
18491.00000 0.001139
18491.36914 0.001141
18491.74023 0.001143
18492.10938 0.001145
18492.48047 0.001146
18492.84961 0.001148
18493.22070 0.00115
18493.58984 0.001152
18493.96094 0.001154
18494.33984 0.001156
18494.71094 0.001157
18495.08008 0.001159
18495.44922 0.001159
18495.82031 0.001159
18496.18945 0.001159
18496.56055 0.001159
18496.92969 0.001159
18497.30078 0.001159
18497.66992 0.001159
18498.03906 0.00116
18498.41016 0.00116
18498.77930 0.00116
18499.15039 0.00116
18499.52930 0.00116
18499.90039 0.00116
18500.26953 0.001161
18500.64062 0.001162
18501.00977 0.001164
18501.38086 0.001165
18501.75000 0.001167
18502.11914 0.001168
18502.49023 0.001169
18502.85938 0.001171
18503.23047 0.001172
18503.59961 0.001173
18503.97070 0.001175
18504.34961 0.001176
18504.72070 0.001177
18505.08984 0.00118
18505.46094 0.001187
18505.83008 0.001193
18506.19922 0.0012
18506.57031 0.001206
18506.93945 0.001213
18507.31055 0.001219
18507.67969 0.001226
18508.05078 0.001232
18508.42969 0.001239
18508.80078 0.001245
18509.16992 0.001252
18509.53906 0.001258
18509.91016 0.001265
18510.27930 0.001269
18510.65039 0.001273
18511.01953 0.001277
18511.39062 0.001281
18511.75977 0.001285
18512.13086 0.001288
18512.50977 0.001292
18512.88086 0.001296
18513.25000 0.0013
18513.61914 0.001304
18513.99023 0.001307
18514.35938 0.001311
18514.73047 0.001315
18515.09961 0.001318
18515.47070 0.001321
18515.84961 0.001323
18516.22070 0.001325
18516.58984 0.001327
18516.96094 0.001329
18517.33008 0.001332
18517.69922 0.001334
18518.07031 0.001336
18518.43945 0.001338
18518.81055 0.001341
18519.18945 0.001343
18519.56055 0.001345
18519.92969 0.001347
18520.30078 0.001354
18520.66992 0.001361
18521.03906 0.001369
18521.41016 0.001377
18521.77930 0.001384
18522.15039 0.001392
18522.52930 0.0014
18522.90039 0.001407
18523.26953 0.001415
18523.64062 0.001423
18524.00977 0.00143
18524.38086 0.001438
18524.75000 0.001446
18525.13086 0.001451
18525.50000 0.001452
18525.86914 0.001454
18526.24023 0.001455
18526.60938 0.001457
18526.98047 0.001458
18527.34961 0.001459
18527.72070 0.001461
18528.09961 0.001462
18528.47070 0.001463
18528.83984 0.001465
18529.21094 0.001466
18529.58008 0.001467
18529.94922 0.001469
18530.32031 0.001471
18530.69922 0.001473
18531.07031 0.001476
18531.43945 0.001478
18531.81055 0.00148
18532.17969 0.001483
18532.55078 0.001485
18532.91992 0.001487
18533.28906 0.001489
18533.66992 0.001492
18534.03906 0.001494
18534.41016 0.001496
18534.77930 0.001499
18535.15039 0.001503
18535.51953 0.001511
18535.89062 0.001519
18536.26953 0.001527
18536.64062 0.001534
18537.00977 0.001542
18537.38086 0.00155
18537.75000 0.001558
18538.11914 0.001565
18538.50000 0.001573
18538.86914 0.001581
18539.24023 0.001589
18539.60938 0.001597
18539.98047 0.001604
18540.34961 0.00161
18540.72070 0.001616
18541.09961 0.001622
18541.47070 0.001628
18541.83984 0.001634
18542.21094 0.00164
18542.58008 0.001646
18542.96094 0.001652
18543.33008 0.001658
18543.69922 0.001663
18544.07031 0.001669
18544.43945 0.001675
18544.81055 0.001681
18545.17969 0.001686
18545.56055 0.00169
18545.92969 0.001694
18546.30078 0.001698
18546.66992 0.001702
18547.03906 0.001706
18547.41016 0.00171
18547.78906 0.001714
18548.16016 0.001718
18548.52930 0.001722
18548.90039 0.001726
18549.26953 0.00173
18549.64062 0.001734
18550.01953 0.001738
18550.39062 0.001745
18550.75977 0.001753
18551.13086 0.001761
18551.50000 0.001768
18551.88086 0.001776
18552.25000 0.001783
18552.61914 0.001791
18552.99023 0.001799
18553.35938 0.001806
18553.73047 0.001814
18554.10938 0.001821
18554.48047 0.001829
18554.84961 0.001837
18555.22070 0.00184
18555.58984 0.00184
18555.97070 0.00184
18556.33984 0.001841
18556.71094 0.001841
18557.08008 0.001841
18557.44922 0.001842
18557.83008 0.001842
18558.19922 0.001842
18558.57031 0.001842
18558.93945 0.001843
18559.31055 0.001843
18559.68945 0.001843
18560.06055 0.001844
18560.42969 0.001848
18560.80078 0.001853
18561.16992 0.001857
18561.53906 0.001861
18561.91992 0.001865
18562.28906 0.001869
18562.66016 0.001873
18563.02930 0.001878
18563.40039 0.001882
18563.77930 0.001886
18564.15039 0.00189
18564.51953 0.001894
18564.89062 0.001899
18565.26953 0.001906
18565.64062 0.001914
18566.00977 0.001923
18566.38086 0.001932
18566.75000 0.00194
18567.13086 0.001949
18567.50000 0.001957
18567.86914 0.001966
18568.24023 0.001975
18568.61914 0.001983
18568.99023 0.001992
18569.35938 0.002
18569.73047 0.002009
18570.09961 0.002017
18570.47070 0.002024
18570.84961 0.002032
18571.22070 0.002039
18571.58984 0.002046
18571.96094 0.002054
18572.33984 0.002061
18572.71094 0.002068
18573.08008 0.002076
18573.44922 0.002083
18573.82031 0.00209
18574.19922 0.002098
18574.57031 0.002105
18574.93945 0.002112
18575.31055 0.002117
18575.68945 0.002121
18576.06055 0.002126
18576.42969 0.00213
18576.80078 0.002134
18577.17969 0.002139
18577.55078 0.002143
18577.91992 0.002148
18578.28906 0.002152
18578.66016 0.002156
18579.03906 0.002161
18579.41016 0.002165
18579.77930 0.002169
18580.15039 0.002174
18580.52930 0.002181
18580.90039 0.002187
18581.26953 0.002194
18581.64062 0.0022
18582.01953 0.002207
18582.39062 0.002213
18582.75977 0.00222
18583.13086 0.002226
18583.50977 0.002232
18583.88086 0.002239
18584.25000 0.002245
18584.61914 0.002252
18585.00000 0.002258
18585.36914 0.002267
18585.74023 0.002275
18586.10938 0.002284
18586.49023 0.002292
18586.85938 0.0023
18587.23047 0.002309
18587.59961 0.002317
18587.98047 0.002326
18588.34961 0.002334
18588.72070 0.002343
18589.08984 0.002351
18589.47070 0.00236
18589.83984 0.002368
18590.21094 0.002377
18590.58008 0.002386
18590.96094 0.002395
18591.33008 0.002404
18591.69922 0.002413
18592.07031 0.002422
18592.44922 0.002431
18592.82031 0.00244
18593.18945 0.00245
18593.56055 0.002459
18593.93945 0.002468
18594.31055 0.002477
18594.67969 0.002486
18595.05078 0.002495
18595.42969 0.002502
18595.80078 0.00251
18596.16992 0.002518
18596.53906 0.002525
18596.91992 0.002533
18597.28906 0.002541
18597.66016 0.002548
18598.03906 0.002556
18598.41016 0.002564
18598.77930 0.002571
18599.15039 0.002579
18599.52930 0.002586
18599.90039 0.002594
18600.26953 0.002601
18600.65039 0.002607
18601.01953 0.002613
18601.39062 0.002619
18601.75977 0.002625
18602.14062 0.002631
18602.50977 0.002637
18602.88086 0.002643
18603.25977 0.002649
18603.63086 0.002655
18604.00000 0.002661
18604.36914 0.002667
18604.75000 0.002673
18605.11914 0.002682
18605.49023 0.002696
18605.86914 0.00271
18606.24023 0.002724
18606.60938 0.002738
18606.98047 0.002752
18607.35938 0.002766
18607.73047 0.00278
18608.09961 0.002794
18608.48047 0.002808
18608.84961 0.002822
18609.22070 0.002836
18609.59961 0.00285
18609.97070 0.002864
18610.33984 0.002872
18610.71094 0.002879
18611.08984 0.002886
18611.46094 0.002893
18611.83008 0.0029
18612.21094 0.002908
18612.58008 0.002915
18612.94922 0.002922
18613.32031 0.002929
18613.69922 0.002937
18614.07031 0.002944
18614.43945 0.002951
18614.82031 0.002958
18615.18945 0.002969
18615.56055 0.002983
18615.93945 0.002996
18616.31055 0.00301
18616.67969 0.003024
18617.05078 0.003038
18617.42969 0.003051
18617.80078 0.003065
18618.17969 0.003079
18618.55078 0.003093
18618.91992 0.003106
18619.28906 0.00312
18619.66992 0.003134
18620.03906 0.003147
18620.41016 0.003152
18620.78906 0.003158
18621.16016 0.003163
18621.52930 0.003169
18621.91016 0.003174
18622.27930 0.003179
18622.65039 0.003185
18623.02930 0.00319
18623.40039 0.003196
18623.76953 0.003201
18624.15039 0.003207
18624.51953 0.003212
18624.89062 0.003217
18625.26953 0.003225
18625.64062 0.003234
18626.00977 0.003243
18626.38086 0.003252
18626.75977 0.003261
18627.13086 0.00327
18627.50977 0.003279
18627.88086 0.003288
18628.25000 0.003296
18628.61914 0.003305
18629.00000 0.003314
18629.36914 0.003323
18629.75000 0.003332
18630.11914 0.003341
18630.49023 0.003349
18630.86914 0.003357
18631.24023 0.003365
18631.60938 0.003373
18631.99023 0.003381
18632.35938 0.003389
18632.73047 0.003397
18633.10938 0.003405
18633.48047 0.003413
18633.84961 0.003421
18634.23047 0.003429
18634.59961 0.003437
18634.97070 0.003445
18635.34961 0.003462
18635.72070 0.00348
18636.08984 0.003498
18636.47070 0.003515
18636.83984 0.003533
18637.21094 0.003551
18637.58984 0.003568
18637.96094 0.003586
18638.33008 0.003603
18638.71094 0.003621
18639.08008 0.003639
18639.46094 0.003656
18639.83008 0.003674
18640.19922 0.003689
18640.58008 0.003701
18640.94922 0.003713
18641.32031 0.003725
18641.69922 0.003738
18642.07031 0.00375
18642.43945 0.003762
18642.82031 0.003774
18643.18945 0.003787
18643.56055 0.003799
18643.93945 0.003811
18644.31055 0.003823
18644.68945 0.003836
18645.06055 0.003847
18645.42969 0.003857
18645.81055 0.003867
18646.17969 0.003877
18646.55078 0.003887
18646.92969 0.003897
18647.30078 0.003907
18647.67969 0.003917
18648.05078 0.003927
18648.41992 0.003937
18648.80078 0.003947
18649.16992 0.003957
18649.53906 0.003967
18649.91992 0.003977
18650.28906 0.003991
18650.66992 0.004007
18651.03906 0.004023
18651.41016 0.004039
18651.78906 0.004055
18652.16016 0.004071
18652.53906 0.004087
18652.91016 0.004103
18653.27930 0.004119
18653.66016 0.004135
18654.02930 0.004151
18654.40039 0.004167
18654.77930 0.004182
18655.15039 0.004196
18655.52930 0.004207
18655.90039 0.004218
18656.26953 0.00423
18656.65039 0.004241
18657.01953 0.004252
18657.39062 0.004263
18657.76953 0.004274
18658.14062 0.004285
18658.51953 0.004296
18658.89062 0.004307
18659.26953 0.004318
18659.64062 0.004329
18660.00977 0.00434
18660.39062 0.004357
18660.75977 0.004374
18661.13086 0.004392
18661.50977 0.004409
18661.88086 0.004426
18662.25977 0.004443
18662.63086 0.004461
18663.00000 0.004478
18663.38086 0.004495
18663.75000 0.004512
18664.13086 0.004529
18664.50000 0.004546
18664.88086 0.004564
18665.25000 0.004578
18665.61914 0.004592
18666.00000 0.004605
18666.36914 0.004618
18666.75000 0.004632
18667.11914 0.004645
18667.49023 0.004658
18667.86914 0.004672
18668.24023 0.004685
18668.61914 0.004698
18668.99023 0.004712
18669.35938 0.004725
18669.74023 0.004738
18670.10938 0.004752
18670.49023 0.004768
18670.85938 0.004783
18671.23047 0.004798
18671.60938 0.004813
18671.98047 0.004829
18672.35938 0.004844
18672.73047 0.004859
18673.10938 0.004875
18673.48047 0.00489
18673.85938 0.004905
18674.23047 0.00492
18674.59961 0.004936
18674.98047 0.004951
18675.34961 0.004976
18675.73047 0.005001
18676.09961 0.005026
18676.47070 0.005051
18676.84961 0.005077
18677.22070 0.005102
18677.59961 0.005127
18677.97070 0.005152
18678.34961 0.005177
18678.72070 0.005203
18679.09961 0.005228
18679.47070 0.005253
18679.83984 0.005278
18680.22070 0.005298
18680.58984 0.005315
18680.97070 0.005332
18681.33984 0.005349
18681.71094 0.005365
18682.08984 0.005382
18682.46094 0.005399
18682.83984 0.005415
18683.21094 0.005432
18683.58984 0.005449
18683.96094 0.005465
18684.33984 0.005482
18684.71094 0.005499
18685.08984 0.005516
18685.46094 0.005535
18685.83008 0.005554
18686.21094 0.005574
18686.58008 0.005593
18686.96094 0.005612
18687.33008 0.005631
18687.71094 0.005651
18688.08008 0.00567
18688.46094 0.005689
18688.83008 0.005708
18689.21094 0.005728
18689.58008 0.005747
18689.96094 0.005766
18690.33008 0.005786
18690.69922 0.005806
18691.08008 0.005827
18691.44922 0.005847
18691.83008 0.005867
18692.19922 0.005887
18692.58008 0.005907
18692.94922 0.005927
18693.33008 0.005948
18693.69922 0.005968
18694.07031 0.005988
18694.44922 0.006008
18694.82031 0.006028
18695.19922 0.006049
18695.57031 0.006069
18695.94922 0.006089
18696.32031 0.00611
18696.69922 0.00613
18697.07031 0.006151
18697.44922 0.006171
18697.82031 0.006192
18698.19922 0.006212
18698.57031 0.006232
18698.94922 0.006253
18699.32031 0.006273
18699.69922 0.006294
18700.07031 0.006315
18700.44922 0.006341
18700.82031 0.006367
18701.19922 0.006393
18701.57031 0.006419
18701.93945 0.006445
18702.32031 0.006471
18702.68945 0.006497
18703.07031 0.006522
18703.43945 0.006548
18703.82031 0.006574
18704.18945 0.0066
18704.57031 0.006626
18704.93945 0.006652
18705.32031 0.006679
18705.68945 0.006706
18706.07031 0.006732
18706.43945 0.006759
18706.82031 0.006786
18707.18945 0.006813
18707.57031 0.006839
18707.93945 0.006866
18708.32031 0.006893
18708.68945 0.006919
18709.07031 0.006946
18709.43945 0.006973
18709.82031 0.007
18710.18945 0.007026
18710.57031 0.007051
18710.93945 0.007076
18711.32031 0.007101
18711.68945 0.007126
18712.07031 0.007151
18712.43945 0.007176
18712.82031 0.007201
18713.18945 0.007226
18713.57031 0.007251
18713.93945 0.007276
18714.32031 0.007301
18714.68945 0.007326
18715.07031 0.007351
18715.43945 0.007376
18715.82031 0.007402
18716.18945 0.007427
18716.57031 0.007453
18716.93945 0.007478
18717.32031 0.007503
18717.68945 0.007529
18718.07031 0.007554
18718.43945 0.00758
18718.82031 0.007605
18719.18945 0.00763
18719.57031 0.007656
18719.93945 0.007681
18720.32031 0.00771
18720.68945 0.007739
18721.07031 0.007769
18721.44922 0.007798
18721.82031 0.007827
18722.19922 0.007857
18722.57031 0.007886
18722.94922 0.007915
18723.32031 0.007945
18723.69922 0.007974
18724.07031 0.008003
18724.44922 0.008033
18724.82031 0.008062
18725.19922 0.008093
18725.57031 0.008126
18725.94922 0.008158
18726.32031 0.008191
18726.69922 0.008223
18727.07031 0.008256
18727.44922 0.008288
18727.82031 0.008321
18728.19922 0.008353
18728.57031 0.008386
18728.94922 0.008418
18729.33008 0.008451
18729.69922 0.008483
18730.08008 0.008517
18730.44922 0.008556
18730.83008 0.008596
18731.19922 0.008635
18731.58008 0.008674
18731.94922 0.008713
18732.33008 0.008752
18732.69922 0.008791
18733.08008 0.008831
18733.46094 0.00887
18733.83008 0.008909
18734.21094 0.008948
18734.58008 0.008988
18734.96094 0.009027
18735.33008 0.009063
18735.71094 0.009099
18736.08008 0.009136
18736.46094 0.009172
18736.83008 0.009208
18737.21094 0.009244
18737.58984 0.00928
18737.96094 0.009316
18738.33984 0.009353
18738.71094 0.009389
18739.08984 0.009425
18739.46094 0.009461
18739.83984 0.009497
18740.21094 0.009531
18740.58984 0.009563
18740.96094 0.009594
18741.33984 0.009626
18741.72070 0.009658
18742.08984 0.00969
18742.47070 0.009721
18742.83984 0.009753
18743.22070 0.009785
18743.58984 0.009817
18743.97070 0.009848
18744.34961 0.00988
18744.72070 0.009912
18745.09961 0.009944
18745.47070 0.009976
18745.84961 0.010008
18746.22070 0.01004
18746.59961 0.010072
18746.98047 0.010104
18747.34961 0.010136
18747.73047 0.010168
18748.09961 0.0102
18748.48047 0.010232
18748.84961 0.010263
18749.23047 0.010296
18749.60938 0.010327
18749.98047 0.01036
18750.35938 0.010398
18750.73047 0.010438
18751.10938 0.010477
18751.48047 0.010516
18751.85938 0.010556
18752.24023 0.010595
18752.60938 0.010634
18752.99023 0.010673
18753.35938 0.010713
18753.74023 0.010752
18754.11914 0.010791
18754.49023 0.01083
18754.86914 0.01087
18755.24023 0.010912
18755.61914 0.010956
18755.99023 0.011
18756.36914 0.011044
18756.75000 0.011087
18757.11914 0.011132
18757.50000 0.011175
18757.86914 0.011219
18758.25000 0.011263
18758.63086 0.011307
18759.00000 0.011351
18759.38086 0.011395
18759.75000 0.011439
18760.13086 0.011485
18760.50977 0.011535
18760.88086 0.011586
18761.25977 0.011636
18761.63086 0.011687
18762.00977 0.011738
18762.39062 0.011788
18762.75977 0.011839
18763.14062 0.011889
18763.50977 0.01194
18763.89062 0.01199
18764.26953 0.012041
18764.64062 0.012091
18765.01953 0.012142
18765.39062 0.012195
18765.76953 0.012249
18766.15039 0.012302
18766.51953 0.012355
18766.90039 0.012408
18767.27930 0.012462
18767.65039 0.012515
18768.02930 0.012569
18768.40039 0.012622
18768.77930 0.012675
18769.16016 0.012729
18769.52930 0.012782
18769.91016 0.012835
18770.28906 0.012886
18770.66016 0.012935
18771.03906 0.012985
18771.41016 0.013035
18771.78906 0.013084
18772.16992 0.013134
18772.53906 0.013184
18772.91992 0.013233
18773.28906 0.013283
18773.66992 0.013333
18774.05078 0.013382
18774.41992 0.013432
18774.80078 0.013482
18775.17969 0.013532
18775.55078 0.013583
18775.92969 0.013634
18776.30078 0.013685
18776.67969 0.013736
18777.06055 0.013787
18777.42969 0.013838
18777.81055 0.01389
18778.18945 0.01394
18778.56055 0.013992
18778.93945 0.014043
18779.31055 0.014094
18779.68945 0.014145
18780.07031 0.014197
18780.43945 0.014253
18780.82031 0.014309
18781.19922 0.014365
18781.57031 0.014422
18781.94922 0.014477
18782.33008 0.014534
18782.69922 0.01459
18783.08008 0.014646
18783.46094 0.014702
18783.83008 0.014758
18784.21094 0.014815
18784.58008 0.01487
18784.96094 0.014927
18785.33984 0.014979
18785.71094 0.015031
18786.08984 0.015083
18786.47070 0.015134
18786.83984 0.015186
18787.22070 0.015238
18787.59961 0.01529
18787.97070 0.015342
18788.34961 0.015394
18788.73047 0.015445
18789.09961 0.015497
18789.48047 0.015549
18789.85938 0.015601
18790.23047 0.015659
18790.60938 0.015722
18790.99023 0.015785
18791.35938 0.015847
18791.74023 0.015909
18792.11914 0.015972
18792.49023 0.016035
18792.86914 0.016097
18793.25000 0.01616
18793.61914 0.016222
18794.00000 0.016285
18794.36914 0.016347
18794.75000 0.01641
18795.13086 0.016475
18795.50977 0.016546
18795.88086 0.016617
18796.25977 0.016688
18796.63086 0.016758
18797.00977 0.016829
18797.39062 0.0169
18797.76953 0.016971
18798.14062 0.017042
18798.51953 0.017113
18798.90039 0.017184
18799.26953 0.017255
18799.65039 0.017326
18800.02930 0.017396
18800.40039 0.017468
18800.77930 0.01754
18801.16016 0.017613
18801.52930 0.017685
18801.91016 0.017757
18802.28906 0.017829
18802.66016 0.017901
18803.03906 0.017973
18803.41992 0.018045
18803.78906 0.018118
18804.16992 0.01819
18804.55078 0.018262
18804.92969 0.018334
18805.30078 0.018409
18805.67969 0.018485
18806.05078 0.018561
18806.42969 0.018637
18806.81055 0.018713
18807.18945 0.018789
18807.56055 0.018865
18807.93945 0.018941
18808.32031 0.019017
18808.68945 0.019093
18809.07031 0.019169
18809.44922 0.019245
18809.82031 0.019321
18810.19922 0.019395
18810.58008 0.019467
18810.96094 0.01954
18811.33008 0.019612
18811.71094 0.019685
18812.08984 0.019757
18812.46094 0.01983
18812.83984 0.019902
18813.22070 0.019975
18813.59961 0.020047
18813.97070 0.02012
18814.34961 0.020192
18814.73047 0.020265
18815.09961 0.020338
18815.48047 0.020416
18815.85938 0.020494
18816.23047 0.020572
18816.60938 0.02065
18816.99023 0.020727
18817.36914 0.020805
18817.74023 0.020883
18818.11914 0.020961
18818.50000 0.021039
18818.86914 0.021117
18819.25000 0.021195
18819.63086 0.021272
18820.00977 0.02135
18820.38086 0.021437
18820.75977 0.021524
18821.14062 0.021611
18821.51953 0.021699
18821.89062 0.021786
18822.26953 0.021873
18822.65039 0.02196
18823.01953 0.022046
18823.40039 0.022133
18823.77930 0.02222
18824.16016 0.022308
18824.52930 0.022395
18824.91016 0.022482
18825.28906 0.022575
18825.66016 0.022669
18826.03906 0.022764
18826.41992 0.022859
18826.80078 0.022954
18827.16992 0.023049
18827.55078 0.023144
18827.92969 0.023238
18828.31055 0.023334
18828.67969 0.023428
18829.06055 0.023523
18829.43945 0.023618
18829.81055 0.023713
18830.18945 0.023816
18830.57031 0.023925
18830.94922 0.024035
18831.32031 0.024145
18831.69922 0.024254
18832.08008 0.024365
18832.46094 0.024474
18832.83008 0.024584
18833.21094 0.024694
18833.58984 0.024804
18833.97070 0.024914
18834.33984 0.025024
18834.72070 0.025133
18835.09961 0.025244
18835.48047 0.025357
18835.84961 0.025469
18836.23047 0.025582
18836.60938 0.025694
18836.99023 0.025806
18837.35938 0.025918
18837.74023 0.026031
18838.11914 0.026143
18838.50000 0.026255
18838.88086 0.026368
18839.25000 0.026481
18839.63086 0.026593
18840.00977 0.026705
18840.38086 0.026811
18840.75977 0.026916
18841.14062 0.027022
18841.51953 0.027127
18841.89062 0.027232
18842.26953 0.027338
18842.65039 0.027443
18843.02930 0.027549
18843.41016 0.027654
18843.77930 0.02776
18844.16016 0.027865
18844.53906 0.027971
18844.91992 0.028076
18845.28906 0.028187
18845.66992 0.0283
18846.05078 0.028413
18846.42969 0.028526
18846.80078 0.028639
18847.17969 0.028752
18847.56055 0.028865
18847.93945 0.028978
18848.32031 0.029091
18848.68945 0.029204
18849.07031 0.029316
18849.44922 0.029429
18849.83008 0.029542
18850.21094 0.029657
18850.58008 0.029771
18850.96094 0.029886
18851.33984 0.030002
18851.71094 0.030117
18852.08984 0.030232
18852.47070 0.030347
18852.84961 0.030463
18853.23047 0.030577
18853.60938 0.030693
18853.98047 0.030808
18854.35938 0.030923
18854.74023 0.031038
18855.11914 0.031158
18855.49023 0.031291
18855.86914 0.031422
18856.25000 0.031555
18856.63086 0.031686
18857.00977 0.031819
18857.38086 0.03195
18857.75977 0.032083
18858.14062 0.032214
18858.51953 0.032346
18858.89062 0.032478
18859.26953 0.03261
18859.65039 0.032742
18860.02930 0.032875
18860.41016 0.033013
18860.78906 0.03315
18861.16016 0.033287
18861.53906 0.033424
18861.91992 0.033562
18862.30078 0.033699
18862.67969 0.033837
18863.05078 0.033974
18863.42969 0.034112
18863.81055 0.034249
18864.18945 0.034386
18864.57031 0.034524
18864.93945 0.034661
18865.32031 0.034805
18865.69922 0.03495
18866.08008 0.035096
18866.46094 0.03524
18866.83008 0.035386
18867.21094 0.035531
18867.58984 0.035676
18867.97070 0.035821
18868.34961 0.035966
18868.72070 0.036111
18869.09961 0.036256
18869.48047 0.036401
18869.85938 0.036547
18870.24023 0.036684
18870.61914 0.036817
18870.99023 0.036951
18871.36914 0.037084
18871.75000 0.037217
18872.13086 0.037351
18872.50977 0.037484
18872.88086 0.037617
18873.25977 0.037751
18873.64062 0.037884
18874.01953 0.038017
18874.40039 0.038151
18874.77930 0.038283
18875.15039 0.038419
18875.52930 0.038557
18875.91016 0.038694
18876.28906 0.038832
18876.66992 0.03897
18877.05078 0.039108
18877.41992 0.039245
18877.80078 0.039383
18878.17969 0.039521
18878.56055 0.039658
18878.93945 0.039796
18879.32031 0.039934
18879.69922 0.040072
18880.07031 0.040211
18880.44922 0.040359
18880.83008 0.040507
18881.21094 0.040655
18881.58984 0.040803
18881.96094 0.040951
18882.33984 0.041099
18882.72070 0.041246
18883.09961 0.041394
18883.48047 0.041542
18883.85938 0.04169
18884.24023 0.041838
18884.60938 0.041986
18884.99023 0.042134
18885.36914 0.042294
18885.75000 0.042454
18886.13086 0.042614
18886.50977 0.042775
18886.88086 0.042935
18887.25977 0.043095
18887.64062 0.043256
18888.01953 0.043415
18888.40039 0.043576
18888.77930 0.043736
18889.16016 0.043897
18889.53906 0.044057
18889.91016 0.044218
18890.28906 0.044395
18890.66992 0.044579
18891.05078 0.044763
18891.42969 0.044947
18891.81055 0.04513
18892.18945 0.045314
18892.56055 0.045498
18892.93945 0.045681
18893.32031 0.045865
18893.69922 0.046048
18894.08008 0.046232
18894.46094 0.046416
18894.83984 0.0466
18895.21094 0.046791
18895.58984 0.046987
18895.97070 0.047183
18896.34961 0.047379
18896.73047 0.047576
18897.10938 0.047772
18897.49023 0.047969
18897.86914 0.048166
18898.24023 0.048362
18898.61914 0.048559
18899.00000 0.048755
18899.38086 0.048952
18899.75977 0.049148
18900.14062 0.049339
18900.51953 0.049523
18900.89062 0.049706
18901.26953 0.04989
18901.65039 0.050074
18902.02930 0.050257
18902.41016 0.050441
18902.78906 0.050625
18903.16992 0.050808
18903.55078 0.050992
18903.92969 0.051175
18904.30078 0.051359
18904.67969 0.051543
18905.06055 0.051727
18905.43945 0.051916
18905.82031 0.052104
18906.19922 0.052293
18906.58008 0.052481
18906.96094 0.05267
18907.33984 0.052859
18907.71094 0.053047
18908.08984 0.053236
18908.47070 0.053424
18908.84961 0.053613
18909.23047 0.053802
18909.60938 0.05399
18909.99023 0.054179
18910.36914 0.054369
18910.75000 0.05456
18911.11914 0.05475
18911.50000 0.05494
18911.88086 0.055131
18912.25977 0.055321
18912.64062 0.055512
18913.01953 0.055703
18913.40039 0.055893
18913.77930 0.056083
18914.16016 0.056274
18914.53906 0.056464
18914.91992 0.056654
18915.28906 0.056845
18915.66992 0.057036
18916.05078 0.057227
18916.42969 0.057418
18916.81055 0.057609
18917.18945 0.057801
18917.57031 0.057992
18917.94922 0.058183
18918.33008 0.058373
18918.71094 0.058564
18919.08984 0.058755
18919.46094 0.058946
18919.83984 0.059137
18920.22070 0.059343
18920.59961 0.059556
18920.98047 0.05977
18921.35938 0.059984
18921.74023 0.060198
18922.11914 0.060412
18922.50000 0.060627
18922.88086 0.06084
18923.25977 0.061054
18923.64062 0.061268
18924.01953 0.061482
18924.39062 0.061696
18924.77930 0.061911
18925.15039 0.062127
18925.52930 0.062347
18925.91016 0.062567
18926.28906 0.062786
18926.66992 0.063007
18927.05078 0.063227
18927.42969 0.063447
18927.81055 0.063667
18928.18945 0.063887
18928.57031 0.064108
18928.94922 0.064328
18929.33008 0.064548
18929.71094 0.064768
18930.08984 0.064987
18930.46094 0.0652
18930.83984 0.065413
18931.22070 0.065626
18931.59961 0.065841
18931.98047 0.066054
18932.35938 0.066267
18932.74023 0.06648
18933.11914 0.066694
18933.50000 0.066907
18933.88086 0.06712
18934.25977 0.067335
18934.64062 0.067548
18935.01953 0.06776
18935.40039 0.06796
18935.77930 0.06816
18936.16016 0.06836
18936.53906 0.06856
18936.91992 0.06876
18937.28906 0.06896
18937.66992 0.069159
18938.05078 0.06936
18938.42969 0.069559
18938.81055 0.069759
18939.18945 0.06996
18939.57031 0.070159
18939.94922 0.070359
18940.33008 0.070563
18940.71094 0.070768
18941.08984 0.070972
18941.47070 0.071178
18941.84961 0.071382
18942.23047 0.071586
18942.60938 0.071792
18942.99023 0.071996
18943.36914 0.072202
18943.75000 0.072406
18944.13086 0.07261
18944.50977 0.072816
18944.89062 0.07302
18945.26953 0.073221
18945.65039 0.073421
18946.02930 0.073621
18946.41016 0.073821
18946.78906 0.074021
18947.16992 0.074221
18947.53906 0.07442
18947.91992 0.07462
18948.30078 0.07482
18948.67969 0.07502
18949.06055 0.07522
18949.43945 0.07542
18949.82031 0.07562
18950.19922 0.075822
18950.58008 0.076027
18950.96094 0.076233
18951.33984 0.076438
18951.72070 0.076644
18952.09961 0.076849
18952.48047 0.077054
18952.85938 0.077259
18953.24023 0.077465
18953.61914 0.07767
18954.00000 0.077876
18954.38086 0.078081
18954.75977 0.078287
18955.14062 0.078496
18955.51953 0.078714
18955.90039 0.078932
18956.27930 0.07915
18956.66016 0.079367
18957.03906 0.079585
18957.41992 0.079803
18957.80078 0.080021
18958.17969 0.080238
18958.56055 0.080456
18958.93945 0.080674
18959.32031 0.080892
18959.69922 0.08111
18960.08008 0.081324
18960.46094 0.081527
18960.83984 0.081728
18961.22070 0.08193
18961.59961 0.082132
18961.98047 0.082334
18962.35938 0.082536
18962.74023 0.082738
18963.11914 0.082941
18963.50000 0.083142
18963.88086 0.083344
18964.25977 0.083546
18964.64062 0.083748
18965.01953 0.08395
18965.40039 0.084135
18965.77930 0.084321
18966.16016 0.084507
18966.53906 0.084693
18966.91992 0.084879
18967.30078 0.085064
18967.67969 0.085251
18968.06055 0.085437
18968.43945 0.085622
18968.82031 0.085808
18969.19922 0.085994
18969.58008 0.08618
18969.96094 0.086366
18970.33984 0.086565
18970.72070 0.086766
18971.09961 0.086967
18971.48047 0.087167
18971.85938 0.087369
18972.24023 0.08757
18972.61914 0.08777
18973.00000 0.087971
18973.38086 0.088172
18973.75977 0.088372
18974.14062 0.088573
18974.52930 0.088775
18974.91016 0.088976
18975.28906 0.089167
18975.66992 0.089356
18976.05078 0.089545
18976.42969 0.089733
18976.81055 0.089923
18977.18945 0.090112
18977.57031 0.090301
18977.94922 0.090489
18978.33008 0.090678
18978.71094 0.090867
18979.08984 0.091056
18979.47070 0.091245
18979.84961 0.091434
18980.23047 0.091628
18980.60938 0.091826
18980.99023 0.092023
18981.36914 0.092221
18981.75000 0.092419
18982.13086 0.092617
18982.50977 0.092813
18982.89062 0.093011
18983.26953 0.093209
18983.65039 0.093407
18984.03906 0.093605
18984.41016 0.093802
18984.78906 0.094
18985.17969 0.094201
18985.56055 0.094406
18985.93945 0.094611
18986.32031 0.094816
18986.69922 0.095021
18987.08008 0.095226
18987.46094 0.095431
18987.83984 0.095636
18988.22070 0.095842
18988.59961 0.096046
18988.98047 0.096251
18989.35938 0.096456
18989.74023 0.096661
18990.11914 0.096866
18990.50000 0.097069
18990.88086 0.097272
18991.25977 0.097474
18991.64062 0.097677
18992.02930 0.09788
18992.41016 0.098083
18992.78906 0.098286
18993.16992 0.098489
18993.55078 0.098692
18993.92969 0.098895
18994.31055 0.099098
18994.68945 0.0993
18995.07031 0.099497
18995.44922 0.099667
18995.83008 0.099836
18996.21094 0.100006
18996.58984 0.100175
18996.97070 0.100345
18997.35938 0.100514
18997.74023 0.100684
18998.11914 0.100853
18998.50000 0.101023
18998.88086 0.101192
18999.25977 0.101362
18999.64062 0.101531
19000.01953 0.1017
19000.40039 0.101854
19000.77930 0.102008
19001.16016 0.102162
19001.53906 0.102317
19001.91992 0.102471
19002.30078 0.102626
19002.68945 0.10278
19003.07031 0.102934
19003.44922 0.103089
19003.83008 0.103243
19004.21094 0.103398
19004.58984 0.103552
19004.97070 0.103707
19005.34961 0.10384
19005.73047 0.103972
19006.10938 0.104104
19006.49023 0.104236
19006.88086 0.104368
19007.25977 0.1045
19007.64062 0.104633
19008.01953 0.104765
19008.40039 0.104897
19008.77930 0.105029
19009.16016 0.105161
19009.53906 0.105293
19009.91992 0.105425
19010.30078 0.105562
19010.68945 0.105699
19011.07031 0.105837
19011.44922 0.105975
19011.83008 0.106112
19012.21094 0.10625
19012.58984 0.106388
19012.97070 0.106525
19013.34961 0.106664
19013.73047 0.106802
19014.11914 0.106939
19014.50000 0.107077
19014.88086 0.107215
19015.25977 0.107346
19015.64062 0.107475
19016.01953 0.107603
19016.40039 0.107732
19016.77930 0.107861
19017.16016 0.10799
19017.53906 0.108118
19017.92969 0.108246
19018.31055 0.108375
19018.68945 0.108504
19019.07031 0.108632
19019.44922 0.108761
19019.83008 0.10889
19020.21094 0.109013
19020.58984 0.109133
19020.97070 0.109252
19021.35938 0.109372
19021.74023 0.109491
19022.11914 0.109611
19022.50000 0.10973
19022.88086 0.10985
19023.25977 0.109969
19023.64062 0.110089
19024.02930 0.110208
19024.41016 0.110327
19024.78906 0.110447
19025.16992 0.110565
19025.55078 0.110679
19025.92969 0.110793
19026.31055 0.110907
19026.68945 0.111021
19027.08008 0.111136
19027.46094 0.11125
19027.83984 0.111364
19028.22070 0.111478
19028.59961 0.111593
19028.98047 0.111707
19029.35938 0.111821
19029.74023 0.111935
19030.13086 0.112043
19030.50977 0.112136
19030.89062 0.11223
19031.26953 0.112324
19031.65039 0.112418
19032.02930 0.112511
19032.41016 0.112605
19032.80078 0.112699
19033.17969 0.112792
19033.56055 0.112886
19033.93945 0.11298
19034.32031 0.113074
19034.69922 0.113167
19035.08984 0.11326
19035.47070 0.11335
19035.84961 0.11344
19036.23047 0.11353
19036.60938 0.113619
19036.99023 0.113709
19037.38086 0.113799
19037.75977 0.113889
19038.14062 0.113978
19038.51953 0.114068
19038.90039 0.114158
19039.27930 0.114248
19039.66016 0.114338
19040.03906 0.114426
19040.42969 0.114501
19040.81055 0.114577
19041.18945 0.114653
19041.57031 0.114729
19041.94922 0.114805
19042.33008 0.11488
19042.72070 0.114956
19043.09961 0.115032
19043.48047 0.115108
19043.85938 0.115184
19044.24023 0.11526
19044.63086 0.115336
19045.00977 0.115411
19045.39062 0.115488
19045.76953 0.115563
19046.15039 0.11564
19046.52930 0.115716
19046.91016 0.115792
19047.30078 0.115868
19047.67969 0.115944
19048.06055 0.11602
19048.43945 0.116096
19048.82031 0.116173
19049.21094 0.116249
19049.58984 0.116325
19049.97070 0.116401
19050.34961 0.116472
19050.73047 0.116543
19051.11914 0.116614
19051.50000 0.116684
19051.88086 0.116755
19052.25977 0.116826
19052.64062 0.116897
19053.01953 0.116967
19053.40039 0.117038
19053.78906 0.117109
19054.16992 0.11718
19054.55078 0.11725
19054.92969 0.117321
19055.31055 0.117382
19055.69922 0.117442
19056.08008 0.1175
19056.46094 0.11756
19056.83984 0.117619
19057.22070 0.117678
19057.60938 0.117737
19057.99023 0.117796
19058.36914 0.117855
19058.75000 0.117914
19059.13086 0.117973
19059.51953 0.118032
19059.90039 0.118091
19060.27930 0.118142
19060.66016 0.11819
19061.03906 0.118238
19061.42969 0.118286
19061.81055 0.118333
19062.18945 0.118381
19062.57031 0.118429
19062.94922 0.118476
19063.33984 0.118524
19063.72070 0.118572
19064.09961 0.11862
19064.48047 0.118668
19064.86914 0.118716
19065.25000 0.118757
19065.63086 0.118795
19066.00977 0.118833
19066.39062 0.118871
19066.77930 0.118909
19067.16016 0.118947
19067.53906 0.118985
19067.91992 0.119023
19068.30078 0.119061
19068.68945 0.119099
19069.07031 0.119137
19069.44922 0.119175
19069.83008 0.119212
19070.21094 0.119244
19070.59961 0.119271
19070.98047 0.119299
19071.35938 0.119326
19071.74023 0.119353
19072.13086 0.11938
19072.50977 0.119407
19072.89062 0.119434
19073.26953 0.119461
19073.65039 0.119488
19074.03906 0.119515
19074.41992 0.119542
19074.80078 0.119569
19075.17969 0.11959
19075.57031 0.119605
19075.94922 0.119619
19076.33008 0.119634
19076.71094 0.119648
19077.09961 0.119663
19077.48047 0.119678
19077.85938 0.119692
19078.24023 0.119707
19078.61914 0.119721
19079.00977 0.119736
19079.39062 0.11975
19079.76953 0.119765
19080.15039 0.119782
19080.53906 0.119802
19080.91992 0.119822
19081.30078 0.119842
19081.67969 0.119862
19082.07031 0.119882
19082.44922 0.119902
19082.83008 0.119922
19083.21094 0.119942
19083.59961 0.119962
19083.98047 0.119982
19084.35938 0.120002
19084.74023 0.120022
19085.11914 0.120039
19085.50977 0.120048
19085.89062 0.120057
19086.26953 0.120067
19086.66016 0.120076
19087.03906 0.120085
19087.41992 0.120095
19087.80078 0.120104
19088.18945 0.120113
19088.57031 0.120123
19088.94922 0.120132
19089.33008 0.120141
19089.72070 0.120151
19090.09961 0.12016
19090.48047 0.120168
19090.85938 0.120176
19091.25000 0.120184
19091.63086 0.120192
19092.00977 0.1202
19092.39062 0.120208
19092.77930 0.120216
19093.16016 0.120224
19093.53906 0.120232
19093.92969 0.12024
19094.31055 0.120248
19094.68945 0.120256
19095.07031 0.120263
19095.46094 0.120266
19095.83984 0.120269
19096.22070 0.120272
19096.59961 0.120275
19096.99023 0.120278
19097.36914 0.120281
19097.75000 0.120284
19098.13086 0.120287
19098.51953 0.120289
19098.90039 0.120292
19099.27930 0.120295
19099.66992 0.120298
19100.05078 0.1203
19100.42969 0.120297
19100.81055 0.120294
19101.19922 0.120291
19101.58008 0.120287
19101.96094 0.120284
19102.34961 0.120281
19102.73047 0.120278
19103.10938 0.120274
19103.49023 0.120271
19103.88086 0.120268
19104.25977 0.120265
19104.64062 0.120261
19105.02930 0.120258
19105.41016 0.12025
19105.78906 0.120243
19106.16992 0.120235
19106.56055 0.120228
19106.93945 0.12022
19107.32031 0.120213
19107.71094 0.120206
19108.08984 0.120198
19108.47070 0.120191
19108.85938 0.120183
19109.24023 0.120176
19109.61914 0.120168
19110.00000 0.120161
19110.39062 0.120164
19110.76953 0.120166
19111.15039 0.120169
19111.53906 0.120172
19111.91992 0.120175
19112.30078 0.120177
19112.68945 0.12018
19113.07031 0.120183
19113.44922 0.120186
19113.83008 0.120188
19114.22070 0.120191
19114.59961 0.120194
19114.98047 0.120197
19115.36914 0.120179
19115.75000 0.12016
19116.13086 0.120141
19116.51953 0.120123
19116.90039 0.120104
19117.27930 0.120085
19117.66016 0.120067
19118.05078 0.120048
19118.42969 0.120029
19118.81055 0.12001
19119.19922 0.119992
19119.58008 0.119973
19119.96094 0.119954
19120.34961 0.119941
19120.73047 0.119928
19121.10938 0.119915
19121.50000 0.119902
19121.88086 0.119889
19122.25977 0.119876
19122.65039 0.119863
19123.02930 0.119851
19123.41016 0.119838
19123.80078 0.119825
19124.17969 0.119812
19124.56055 0.119799
19124.94922 0.119786
19125.33008 0.119778
19125.71094 0.11977
19126.09961 0.119763
19126.48047 0.119755
19126.85938 0.119747
19127.25000 0.11974
19127.63086 0.119732
19128.00977 0.119725
19128.40039 0.119717
19128.77930 0.119709
19129.16016 0.119702
19129.55078 0.119694
19129.92969 0.119686
19130.31055 0.119671
19130.69922 0.119655
19131.08008 0.119638
19131.46094 0.119622
19131.84961 0.119605
19132.23047 0.119589
19132.60938 0.119572
19133.00000 0.119555
19133.38086 0.119539
19133.75977 0.119522
19134.15039 0.119506
19134.52930 0.119489
19134.91016 0.119472
19135.30078 0.119456
19135.67969 0.11944
19136.06055 0.119424
19136.44922 0.119408
19136.83008 0.119391
19137.21094 0.119375
19137.59961 0.119359
19137.98047 0.119343
19138.36914 0.119327
19138.75000 0.11931
19139.13086 0.119294
19139.51953 0.119278
19139.90039 0.119262
19140.27930 0.119244
19140.66992 0.119225
19141.05078 0.119207
19141.42969 0.119188
19141.82031 0.119169
19142.19922 0.119151
19142.58984 0.119132
19142.97070 0.119113
19143.34961 0.119095
19143.74023 0.119076
19144.11914 0.119057
19144.50000 0.119038
19144.89062 0.11902
19145.26953 0.119001
19145.65039 0.118984
19146.03906 0.118965
19146.41992 0.118947
19146.81055 0.118929
19147.18945 0.118911
19147.57031 0.118893
19147.96094 0.118875
19148.33984 0.118857
19148.72070 0.118839
19149.10938 0.118821
19149.49023 0.118803
19149.88086 0.118785
19150.25977 0.118766
19150.64062 0.118746
19151.02930 0.118727
19151.41016 0.118707
19151.78906 0.118688
19152.17969 0.118668
19152.56055 0.118648
19152.94922 0.118628
19153.33008 0.118609
19153.71094 0.118589
19154.09961 0.11857
19154.48047 0.11855
19154.86914 0.11853
19155.25000 0.118514
19155.63086 0.1185
19156.01953 0.118485
19156.40039 0.118471
19156.78906 0.118456
19157.16992 0.118442
19157.55078 0.118428
19157.93945 0.118413
19158.32031 0.118399
19158.71094 0.118384
19159.08984 0.11837
19159.47070 0.118355
19159.85938 0.118341
19160.24023 0.11832
19160.63086 0.118295
19161.00977 0.11827
19161.39062 0.118245
19161.77930 0.11822
19162.16016 0.118195
19162.53906 0.11817
19162.92969 0.118145
19163.31055 0.11812
19163.69922 0.118095
19164.08008 0.11807
19164.46094 0.118045
19164.84961 0.118019
19165.23047 0.118001
19165.61914 0.117986
19166.00000 0.117971
19166.39062 0.117957
19166.76953 0.117942
19167.15039 0.117927
19167.53906 0.117912
19167.91992 0.117898
19168.31055 0.117883
19168.68945 0.117868
19169.07031 0.117853
19169.46094 0.117838
19169.83984 0.117824
19170.23047 0.117808
19170.60938 0.117791
19171.00000 0.117774
19171.38086 0.117757
19171.75977 0.11774
19172.15039 0.117723
19172.52930 0.117707
19172.91992 0.11769
19173.30078 0.117673
19173.68945 0.117656
19174.07031 0.117639
19174.46094 0.117622
19174.83984 0.117606
19175.22070 0.117586
19175.60938 0.117564
19175.99023 0.117542
19176.38086 0.11752
19176.75977 0.117498
19177.14062 0.117476
19177.52930 0.117455
19177.91016 0.117433
19178.30078 0.117411
19178.67969 0.117389
19179.07031 0.117367
19179.44922 0.117345
19179.83008 0.117323
19180.22070 0.117301
19180.59961 0.117279
19180.99023 0.117257
19181.36914 0.117236
19181.75977 0.117213
19182.14062 0.117192
19182.52930 0.11717
19182.91016 0.117148
19183.28906 0.117126
19183.67969 0.117104
19184.06055 0.117082
19184.44922 0.11706
19184.83008 0.117038
19185.22070 0.117022
19185.59961 0.117011
19185.99023 0.117
19186.36914 0.116988
19186.75977 0.116977
19187.14062 0.116966
19187.51953 0.116955
19187.91016 0.116944
19188.28906 0.116932
19188.67969 0.116921
19189.06055 0.11691
19189.44922 0.116899
19189.83008 0.116888
19190.22070 0.116868
19190.59961 0.116843
19190.99023 0.116818
19191.36914 0.116792
19191.75000 0.116767
19192.14062 0.116741
19192.51953 0.116716
19192.91016 0.116691
19193.28906 0.116665
19193.67969 0.11664
19194.06055 0.116614
19194.44922 0.116589
19194.83008 0.116563
19195.22070 0.116545
19195.59961 0.116533
19195.99023 0.11652
19196.36914 0.116508
19196.75977 0.116496
19197.14062 0.116483
19197.52930 0.116471
19197.91016 0.116458
19198.28906 0.116446
19198.67969 0.116433
19199.06055 0.116421
19199.44922 0.116408
19199.83008 0.116396
19200.22070 0.11638
19200.59961 0.116361
19200.99023 0.116343
19201.36914 0.116324
19201.75977 0.116305
19202.14062 0.116287
19202.52930 0.116268
19202.91016 0.116249
19203.30078 0.116231
19203.67969 0.116212
19204.07031 0.116193
19204.44922 0.116174
19204.83984 0.116156
19205.22070 0.116138
19205.60938 0.11612
19205.99023 0.116102
19206.38086 0.116084
19206.75977 0.116066
19207.15039 0.116048
19207.52930 0.11603
19207.91992 0.116012
19208.30078 0.115994
19208.68945 0.115976
19209.07031 0.115958
19209.46094 0.115941
19209.83984 0.115923
19210.23047 0.115906
19210.60938 0.115891
19211.00000 0.115877
19211.38086 0.115862
19211.76953 0.115847
19212.15039 0.115832
19212.53906 0.115817
19212.91992 0.115803
19213.31055 0.115788
19213.68945 0.115773
19214.08008 0.115758
19214.46094 0.115743
19214.84961 0.115728
19215.23047 0.115715
19215.61914 0.115702
19216.00000 0.115689
19216.39062 0.115676
19216.76953 0.115663
19217.16016 0.115651
19217.53906 0.115638
19217.92969 0.115625
19218.31055 0.115612
19218.69922 0.115599
19219.08008 0.115587
19219.47070 0.115574
19219.84961 0.115561
19220.24023 0.115547
19220.61914 0.115534
19221.00977 0.11552
19221.39062 0.115506
19221.77930 0.115492
19222.16016 0.115478
19222.55078 0.115464
19222.93945 0.115451
19223.32031 0.115437
19223.71094 0.115423
19224.08984 0.115409
19224.48047 0.115395
19224.85938 0.115381
19225.25000 0.115366
19225.63086 0.115351
19226.01953 0.115335
19226.40039 0.115319
19226.78906 0.115303
19227.16992 0.115288
19227.56055 0.115272
19227.93945 0.115256
19228.33008 0.11524
19228.71094 0.115224
19229.09961 0.115209
19229.48047 0.115193
19229.86914 0.115177
19230.25977 0.115163
19230.64062 0.11515
19231.02930 0.115137
19231.41016 0.115124
19231.80078 0.115112
19232.17969 0.115099
19232.57031 0.115086
19232.94922 0.115073
19233.33984 0.11506
19233.72070 0.115047
19234.10938 0.115034
19234.50000 0.115021
19234.88086 0.115008
19235.26953 0.114997
19235.65039 0.114986
19236.03906 0.114976
19236.41992 0.114965
19236.81055 0.114955
19237.19922 0.114944
19237.58008 0.114934
19237.96094 0.114923
19238.34961 0.114913
19238.74023 0.114902
19239.11914 0.114892
19239.50977 0.114881
19239.89062 0.114871
19240.27930 0.114863
19240.66016 0.114857
19241.05078 0.114851
19241.43945 0.114846
19241.82031 0.114839
19242.21094 0.114834
19242.58984 0.114828
19242.98047 0.114822
19243.35938 0.114816
19243.75000 0.11481
19244.13086 0.114804
19244.51953 0.114798
19244.91016 0.114792
19245.28906 0.114781
19245.67969 0.114769
19246.06055 0.114757
19246.44922 0.114745
19246.83984 0.114733
19247.22070 0.114721
19247.60938 0.114709
19247.99023 0.114697
19248.38086 0.114684
19248.75977 0.114672
19249.15039 0.11466
19249.53906 0.114648
19249.91992 0.114636
19250.31055 0.114627
19250.68945 0.114618
19251.08008 0.11461
19251.46094 0.114601
19251.84961 0.114593
19252.24023 0.114584
19252.61914 0.114576
19253.00977 0.114567
19253.39062 0.114559
19253.77930 0.11455
19254.16992 0.114542
19254.55078 0.114534
19254.93945 0.114525
19255.32031 0.114519
19255.71094 0.114513
19256.09961 0.114507
19256.48047 0.114502
19256.86914 0.114496
19257.25000 0.11449
19257.64062 0.114484
19258.02930 0.114478
19258.41016 0.114473
19258.80078 0.114467
19259.17969 0.114461
19259.57031 0.114455
19259.96094 0.114449
19260.33984 0.11444
19260.73047 0.11443
19261.10938 0.11442
19261.50000 0.11441
19261.88086 0.1144
19262.26953 0.11439
19262.66016 0.11438
19263.03906 0.11437
19263.42969 0.114361
19263.81055 0.114351
19264.19922 0.114341
19264.58984 0.114331
19264.97070 0.114321
19265.35938 0.114325
19265.75000 0.114329
19266.13086 0.114334
19266.51953 0.114339
19266.90039 0.114343
19267.28906 0.114348
19267.67969 0.114353
19268.06055 0.114358
19268.44922 0.114362
19268.83008 0.114367
19269.22070 0.114372
19269.60938 0.114376
19269.99023 0.114381
19270.38086 0.114371
19270.76953 0.114361
19271.15039 0.11435
19271.53906 0.11434
19271.91992 0.11433
19272.31055 0.114319
19272.69922 0.114309
19273.08008 0.114299
19273.47070 0.114288
19273.85938 0.114278
19274.24023 0.114268
19274.63086 0.114257
19275.00977 0.114247
19275.40039 0.11425
19275.78906 0.114252
19276.16992 0.114254
19276.56055 0.114256
19276.94922 0.114259
19277.33008 0.114261
19277.72070 0.114263
19278.10938 0.114266
19278.49023 0.114268
19278.88086 0.11427
19279.25977 0.114272
19279.65039 0.114275
19280.03906 0.114276
19280.41992 0.114268
19280.81055 0.114261
19281.19922 0.114253
19281.58008 0.114246
19281.97070 0.114239
19282.35938 0.114231
19282.74023 0.114224
19283.13086 0.114216
19283.50977 0.114209
19283.90039 0.114201
19284.28906 0.114194
19284.66992 0.114186
19285.06055 0.114179
19285.44922 0.114173
19285.83008 0.114167
19286.22070 0.114161
19286.60938 0.114155
19286.99023 0.114148
19287.38086 0.114142
19287.76953 0.114136
19288.15039 0.11413
19288.53906 0.114124
19288.92969 0.114118
19289.31055 0.114112
19289.69922 0.114106
19290.08984 0.114103
19290.47070 0.11411
19290.85938 0.114117
19291.25000 0.114124
19291.63086 0.11413
19292.01953 0.114138
19292.41016 0.114144
19292.78906 0.114152
19293.17969 0.114158
19293.56055 0.114165
19293.94922 0.114172
19294.33984 0.114179
19294.72070 0.114186
19295.10938 0.11419
19295.50000 0.114187
19295.88086 0.114184
19296.26953 0.114181
19296.66016 0.114178
19297.03906 0.114174
19297.42969 0.114171
19297.82031 0.114168
19298.21094 0.114165
19298.58984 0.114162
19298.98047 0.114158
19299.36914 0.114155
19299.75000 0.114152
19300.14062 0.114152
19300.52930 0.114157
19300.91016 0.114161
19301.30078 0.114166
19301.68945 0.114171
19302.07031 0.114176
19302.46094 0.114181
19302.84961 0.114185
19303.23047 0.11419
19303.61914 0.114195
19304.00977 0.1142
19304.39062 0.114205
19304.77930 0.11421
19305.16992 0.11421
19305.56055 0.114204
19305.93945 0.114198
19306.33008 0.114192
19306.72070 0.114187
19307.09961 0.114181
19307.49023 0.114175
19307.88086 0.114169
19308.25977 0.114163
19308.65039 0.114158
19309.03906 0.114152
19309.42969 0.114146
19309.81055 0.11414
19310.19922 0.114141
19310.58984 0.114147
19310.97070 0.114154
19311.35938 0.114161
19311.75000 0.114168
19312.13086 0.114174
19312.51953 0.114181
19312.91016 0.114188
19313.28906 0.114194
19313.67969 0.114201
19314.07031 0.114208
19314.46094 0.114215
19314.83984 0.114221
19315.23047 0.114225
19315.61914 0.114227
19316.00977 0.11423
19316.39062 0.114232
19316.77930 0.114234
19317.16992 0.114236
19317.55078 0.114239
19317.93945 0.114241
19318.33008 0.114243
19318.71094 0.114245
19319.09961 0.114248
19319.49023 0.11425
19319.88086 0.114252
19320.25977 0.114254
19320.65039 0.114256
19321.03906 0.114258
19321.42969 0.11426
19321.81055 0.114262
19322.19922 0.114264
19322.58984 0.114266
19322.97070 0.114268
19323.35938 0.11427
19323.75000 0.114272
19324.14062 0.114275
19324.51953 0.114277
19324.91016 0.114279
19325.30078 0.11428
19325.68945 0.114281
19326.07031 0.114282
19326.46094 0.114283
19326.84961 0.114284
19327.23047 0.114285
19327.61914 0.114286
19328.00977 0.114287
19328.40039 0.114288
19328.78906 0.114289
19329.16992 0.11429
19329.56055 0.114291
19329.94922 0.114292
19330.33008 0.114296
19330.72070 0.1143
19331.10938 0.114305
19331.50000 0.114309
19331.88086 0.114313
19332.26953 0.114318
19332.66016 0.114322
19333.03906 0.114326
19333.42969 0.114331
19333.82031 0.114335
19334.21094 0.114339
19334.59961 0.114344
19334.98047 0.114348
19335.36914 0.114349
19335.75977 0.11435
19336.15039 0.114351
19336.52930 0.114352
19336.91992 0.114353
19337.31055 0.114354
19337.69922 0.114355
19338.08008 0.114356
19338.47070 0.114357
19338.85938 0.114358
19339.25000 0.114359
19339.63086 0.11436
19340.01953 0.114361
19340.41016 0.114372
19340.80078 0.114382
19341.17969 0.114392
19341.57031 0.114402
19341.96094 0.114413
19342.34961 0.114423
19342.73047 0.114433
19343.11914 0.114444
19343.50977 0.114454
19343.90039 0.114464
19344.28906 0.114474
19344.66992 0.114485
19345.06055 0.114493
19345.44922 0.114495
19345.83984 0.114496
19346.22070 0.114498
19346.60938 0.114499
19347.00000 0.1145
19347.39062 0.114502
19347.77930 0.114503
19348.16016 0.114505
19348.55078 0.114506
19348.93945 0.114507
19349.33008 0.114509
19349.71094 0.11451
19350.09961 0.114512
19350.49023 0.114517
19350.88086 0.114521
19351.26953 0.114526
19351.65039 0.11453
19352.03906 0.114534
19352.42969 0.114539
19352.82031 0.114543
19353.21094 0.114547
19353.58984 0.114552
19353.98047 0.114556
19354.36914 0.114561
19354.75977 0.114565
19355.14062 0.114572
19355.52930 0.114585
19355.91992 0.114598
19356.31055 0.11461
19356.69922 0.114623
19357.08008 0.114636
19357.47070 0.114648
19357.85938 0.114661
19358.25000 0.114673
19358.63086 0.114686
19359.01953 0.114699
19359.41016 0.114711
19359.80078 0.114724
19360.18945 0.11473
19360.57031 0.114729
19360.96094 0.114729
19361.34961 0.114728
19361.74023 0.114727
19362.13086 0.114727
19362.51953 0.114726
19362.90039 0.114725
19363.28906 0.114724
19363.67969 0.114724
19364.07031 0.114723
19364.46094 0.114722
19364.83984 0.114722
19365.23047 0.114729
19365.61914 0.114742
19366.00977 0.114755
19366.40039 0.114768
19366.77930 0.114781
19367.16992 0.114794
19367.56055 0.114807
19367.94922 0.114819
19368.33984 0.114832
19368.72070 0.114845
19369.10938 0.114858
19369.50000 0.114871
19369.89062 0.114884
19370.27930 0.114889
19370.66992 0.11489
19371.05078 0.114891
19371.43945 0.114893
19371.83008 0.114894
19372.22070 0.114896
19372.60938 0.114897
19373.00000 0.114899
19373.38086 0.1149
19373.76953 0.114901
19374.16016 0.114903
19374.55078 0.114904
19374.93945 0.114905
19375.32031 0.114915
19375.71094 0.114926
19376.09961 0.114937
19376.49023 0.114948
19376.88086 0.114959
19377.26953 0.114969
19377.65039 0.11498
19378.03906 0.114991
19378.42969 0.115002
19378.82031 0.115013
19379.21094 0.115024
19379.59961 0.115035
19379.98047 0.115046
19380.36914 0.115048
19380.75977 0.115051
19381.15039 0.115053
19381.53906 0.115055
19381.92969 0.115057
19382.32031 0.115059
19382.71094 0.115062
19383.08984 0.115064
19383.48047 0.115066
19383.86914 0.115068
19384.25977 0.115071
19384.65039 0.115073
19385.03906 0.115076
19385.41992 0.11509
19385.81055 0.115104
19386.19922 0.115118
19386.58984 0.115132
19386.98047 0.115146
19387.36914 0.11516
19387.75000 0.115174
19388.14062 0.115188
19388.52930 0.115202
19388.91992 0.115216
19389.31055 0.11523
19389.69922 0.115244
19390.08984 0.115255
19390.47070 0.115256
19390.85938 0.115257
19391.25000 0.115258
19391.64062 0.115259
19392.02930 0.11526
19392.41992 0.115261
19392.81055 0.115262
19393.19922 0.115264
19393.58008 0.115265
19393.97070 0.115266
19394.35938 0.115267
19394.75000 0.115268
19395.14062 0.115273
19395.52930 0.115286
19395.91992 0.115299
19396.30078 0.115312
19396.68945 0.115325
19397.08008 0.115338
19397.47070 0.115351
19397.85938 0.115364
19398.25000 0.115377
19398.64062 0.11539
19399.02930 0.115403
19399.41016 0.115416
19399.80078 0.115429
19400.18945 0.115439
19400.58008 0.115445
19400.97070 0.11545
19401.35938 0.115456
19401.75000 0.115462
19402.14062 0.115468
19402.52930 0.115474
19402.91016 0.11548
19403.30078 0.115486
19403.68945 0.115491
19404.08008 0.115497
19404.47070 0.115503
19404.85938 0.115509
19405.25000 0.115515
19405.64062 0.115521
19406.02930 0.115527
19406.41016 0.115533
19406.80078 0.11554
19407.18945 0.115546
19407.58008 0.115552
19407.97070 0.115558
19408.35938 0.115564
19408.75000 0.11557
19409.14062 0.115576
19409.52930 0.115582
19409.91992 0.115588
19410.30078 0.115601
19410.68945 0.115616
19411.08008 0.115631
19411.47070 0.115646
19411.85938 0.115662
19412.25000 0.115677
19412.64062 0.115692
19413.02930 0.115707
19413.41992 0.115722
19413.80078 0.115737
19414.19922 0.115752
19414.58008 0.115767
19414.97070 0.115782
19415.35938 0.115789
19415.75000 0.115796
19416.14062 0.115802
19416.52930 0.115809
19416.91992 0.115815
19417.31055 0.115822
19417.69922 0.115829
19418.08984 0.115835
19418.47070 0.115842
19418.85938 0.115848
19419.25000 0.115855
19419.64062 0.115862
19420.02930 0.115868
19420.41992 0.115878
19420.81055 0.115888
19421.19922 0.115897
19421.58984 0.115907
19421.98047 0.115916
19422.36914 0.115926
19422.75977 0.115936
19423.15039 0.115945
19423.53906 0.115955
19423.91992 0.115964
19424.31055 0.115974
19424.69922 0.115984
19425.08984 0.115993
19425.48047 0.116003
19425.86914 0.116013
19426.25977 0.116023
19426.65039 0.116033
19427.03906 0.116044
19427.42969 0.116054
19427.82031 0.116064
19428.21094 0.116074
19428.59961 0.116084
19428.99023 0.116094
19429.36914 0.116104
19429.75977 0.116114
19430.15039 0.116123
19430.53906 0.11613
19430.92969 0.116137
19431.32031 0.116144
19431.71094 0.116151
19432.09961 0.116159
19432.49023 0.116166
19432.88086 0.116173
19433.26953 0.11618
19433.66016 0.116187
19434.05078 0.116194
19434.43945 0.116201
19434.83008 0.116208
19435.22070 0.116213
19435.60938 0.116215
19436.00000 0.116218
19436.38086 0.11622
19436.77930 0.116223
19437.16016 0.116225
19437.55078 0.116228
19437.93945 0.11623
19438.33008 0.116233
19438.72070 0.116235
19439.10938 0.116238
19439.50000 0.11624
19439.89062 0.116243
19440.27930 0.116249
19440.66992 0.116257
19441.06055 0.116265
19441.44922 0.116272
19441.83984 0.11628
19442.23047 0.116288
19442.61914 0.116296
19443.00977 0.116304
19443.40039 0.116311
19443.78906 0.116319
19444.17969 0.116327
19444.57031 0.116335
19444.96094 0.116343
19445.34961 0.116351
19445.74023 0.116359
19446.13086 0.116367
19446.51953 0.116375
19446.90039 0.116383
19447.28906 0.116391
19447.68945 0.116399
19448.07031 0.116407
19448.46094 0.116415
19448.84961 0.116422
19449.24023 0.116431
19449.63086 0.116438
19450.01953 0.116446
19450.41016 0.116456
19450.80078 0.116465
19451.18945 0.116474
19451.58008 0.116484
19451.97070 0.116493
19452.35938 0.116502
19452.75000 0.116511
19453.14062 0.116521
19453.52930 0.11653
19453.91992 0.116539
19454.31055 0.116548
19454.69922 0.116558
19455.08984 0.116565
19455.48047 0.116568
19455.86914 0.11657
19456.25977 0.116572
19456.65039 0.116575
19457.03906 0.116577
19457.42969 0.116579
19457.82031 0.116582
19458.21094 0.116584
19458.59961 0.116586
19458.99023 0.116589
19459.38086 0.116591
19459.76953 0.116593
19460.16016 0.116598
19460.55078 0.116606
19460.93945 0.116613
19461.33008 0.116621
19461.72070 0.116628
19462.10938 0.116636
19462.50000 0.116643
19462.89062 0.116651
19463.27930 0.116659
19463.66992 0.116666
19464.06055 0.116674
19464.44922 0.116681
19464.83984 0.116689
19465.23047 0.116696
19465.61914 0.116703
19466.00977 0.11671
19466.40039 0.116717
19466.78906 0.116723
19467.17969 0.11673
19467.57031 0.116737
19467.96094 0.116744
19468.34961 0.11675
19468.74023 0.116757
19469.13086 0.116764
19469.51953 0.116771
19469.91016 0.116778
19470.30078 0.116788
19470.68945 0.116799
19471.08008 0.11681
19471.47070 0.116821
19471.86914 0.116833
19472.25000 0.116844
19472.64062 0.116855
19473.03906 0.116866
19473.42969 0.116877
19473.82031 0.116888
19474.21094 0.1169
19474.59961 0.116911
19474.99023 0.116922
19475.38086 0.11692
19475.76953 0.116919
19476.16016 0.116917
19476.55078 0.116915
19476.93945 0.116913
19477.33008 0.116911
19477.72070 0.116909
19478.10938 0.116908
19478.50000 0.116906
19478.89062 0.116904
19479.27930 0.116902
19479.66992 0.1169
19480.06055 0.116899
19480.44922 0.116903
19480.83984 0.116907
19481.23047 0.116911
19481.61914 0.116915
19482.00977 0.116918
19482.40039 0.116922
19482.78906 0.116926
19483.18945 0.11693
19483.58008 0.116934
19483.97070 0.116938
19484.35938 0.116941
19484.75000 0.116945
19485.14062 0.11695
19485.52930 0.116958
19485.91992 0.116966
19486.31055 0.116974
19486.69922 0.116981
19487.08984 0.116989
19487.48047 0.116997
19487.86914 0.117005
19488.25977 0.117012
19488.65039 0.11702
19489.03906 0.117028
19489.42969 0.117036
19489.82031 0.117043
19490.21094 0.117051
19490.60938 0.117058
19491.00000 0.117065
19491.39062 0.117072
19491.77930 0.117079
19492.16992 0.117086
19492.56055 0.117093
19492.94922 0.1171
19493.33984 0.117107
19493.73047 0.117114
19494.11914 0.117121
19494.50977 0.117128
19494.90039 0.117135
19495.28906 0.117137
19495.67969 0.117137
19496.07031 0.117137
19496.46094 0.117137
19496.85938 0.117137
19497.25000 0.117137
19497.64062 0.117136
19498.02930 0.117136
19498.41992 0.117136
19498.81055 0.117136
19499.19922 0.117136
19499.58984 0.117136
19499.98047 0.117136
19500.36914 0.11714
19500.75977 0.117145
19501.15039 0.11715
19501.53906 0.117155
19501.93945 0.11716
19502.33008 0.117165
19502.72070 0.11717
19503.10938 0.117175
19503.50000 0.11718
19503.89062 0.117185
19504.27930 0.11719
19504.66992 0.117194
19505.06055 0.117199
19505.46094 0.117201
19505.84961 0.117203
19506.24023 0.117205
19506.63086 0.117207
19507.01953 0.117209
19507.41016 0.117211
19507.80078 0.117213
19508.18945 0.117215
19508.58008 0.117217
19508.97070 0.117219
19509.35938 0.117221
19509.75000 0.117223
19510.15039 0.117227
19510.53906 0.117233
19510.92969 0.117238
19511.32031 0.117244
19511.71094 0.11725
19512.09961 0.117256
19512.49023 0.117262
19512.88086 0.117268
19513.26953 0.117273
19513.66992 0.117279
19514.06055 0.117285
19514.44922 0.117291
19514.83984 0.117297
19515.23047 0.117301
19515.61914 0.117303
19516.00977 0.117305
19516.40039 0.117307
19516.78906 0.117309
19517.18945 0.117312
19517.58008 0.117314
19517.97070 0.117316
19518.35938 0.117318
19518.75000 0.11732
19519.14062 0.117323
19519.52930 0.117325
19519.91992 0.117327
19520.31055 0.117332
19520.71094 0.117338
19521.09961 0.117343
19521.49023 0.117349
19521.88086 0.117355
19522.26953 0.11736
19522.66016 0.117366
19523.05078 0.117371
19523.44922 0.117377
19523.83984 0.117383
19524.23047 0.117388
19524.61914 0.117394
19525.00977 0.117399
19525.40039 0.117394
19525.78906 0.117389
19526.17969 0.117384
19526.57031 0.117379
19526.97070 0.117374
19527.35938 0.117369
19527.75000 0.117363
19528.14062 0.117358
19528.52930 0.117353
19528.91992 0.117348
19529.31055 0.117343
19529.71094 0.117338
19530.09961 0.117335
19530.49023 0.117338
19530.88086 0.11734
19531.26953 0.117343
19531.66016 0.117346
19532.05078 0.117349
19532.44922 0.117352
19532.83984 0.117355
19533.23047 0.117358
19533.61914 0.11736
19534.00977 0.117363
19534.40039 0.117366
19534.78906 0.117369
19535.18945 0.117371
19535.58008 0.117371
19535.97070 0.117371
19536.35938 0.117371
19536.75000 0.117371
19537.14062 0.117371
19537.53906 0.117371
19537.92969 0.117371
19538.32031 0.117372
19538.71094 0.117372
19539.09961 0.117372
19539.49023 0.117372
19539.88086 0.117372
19540.27930 0.117377
19540.66992 0.117383
19541.06055 0.11739
19541.44922 0.117396
19541.83984 0.117403
19542.23047 0.117409
19542.63086 0.117416
19543.01953 0.117423
19543.41016 0.117429
19543.80078 0.117436
19544.18945 0.117442
19544.58008 0.117449
19544.98047 0.117455
19545.36914 0.117451
19545.75977 0.117446
19546.15039 0.117441
19546.53906 0.117436
19546.93945 0.117431
19547.33008 0.117426
19547.72070 0.117421
19548.10938 0.117416
19548.50000 0.117411
19548.89062 0.117406
19549.28906 0.117401
19549.67969 0.117396
19550.07031 0.117392
19550.46094 0.11739
19550.84961 0.117388
19551.24023 0.117387
19551.64062 0.117385
19552.02930 0.117384
19552.41992 0.117382
19552.81055 0.11738
19553.21094 0.117379
19553.59961 0.117377
19553.99023 0.117375
19554.38086 0.117374
19554.76953 0.117372
19555.16016 0.117375
19555.55078 0.117383
19555.94922 0.117391
19556.33984 0.1174
19556.73047 0.117408
19557.11914 0.117416
19557.51953 0.117425
19557.91016 0.117433
19558.30078 0.117441
19558.68945 0.117449
19559.08008 0.117458
19559.47070 0.117466
19559.86914 0.117474
19560.25977 0.117473
19560.65039 0.117468
19561.03906 0.117462
19561.43945 0.117457
19561.83008 0.117451
19562.22070 0.117446
19562.60938 0.11744
19563.00000 0.117435
19563.39062 0.117429
19563.78906 0.117424
19564.17969 0.117418
19564.57031 0.117413
19564.96094 0.117407
19565.35938 0.117406
19565.75000 0.117405
19566.14062 0.117404
19566.52930 0.117403
19566.91992 0.117402
19567.32031 0.117401
19567.71094 0.1174
19568.09961 0.117399
19568.49023 0.117398
19568.88086 0.117397
19569.27930 0.117397
19569.66992 0.117395
19570.06055 0.117395
19570.46094 0.117394
19570.84961 0.117393
19571.24023 0.117393
19571.63086 0.117392
19572.01953 0.117392
19572.41992 0.117391
19572.81055 0.117391
19573.19922 0.11739
19573.58984 0.11739
19573.98047 0.117389
19574.38086 0.117389
19574.76953 0.117388
19575.16016 0.117387
19575.55078 0.117383
19575.94922 0.11738
19576.33984 0.117377
19576.73047 0.117374
19577.11914 0.117371
19577.51953 0.117368
19577.91016 0.117364
19578.30078 0.117361
19578.68945 0.117358
19579.08008 0.117355
19579.48047 0.117352
19579.86914 0.117349
19580.25977 0.117349
19580.65039 0.117352
19581.05078 0.117355
19581.43945 0.117357
19581.83008 0.11736
19582.22070 0.117362
19582.61914 0.117364
19583.00977 0.117367
19583.40039 0.11737
19583.78906 0.117372
19584.18945 0.117375
19584.58008 0.117377
19584.97070 0.117379
19585.35938 0.117373
19585.75977 0.117365
19586.15039 0.117357
19586.53906 0.11735
19586.92969 0.117342
19587.33008 0.117334
19587.72070 0.117327
19588.10938 0.117319
19588.50000 0.117312
19588.90039 0.117304
19589.28906 0.117296
19589.67969 0.117289
19590.07031 0.117282
19590.47070 0.117282
19590.85938 0.117281
19591.25000 0.11728
19591.64062 0.11728
19592.03906 0.117279
19592.42969 0.117278
19592.82031 0.117277
19593.22070 0.117277
19593.60938 0.117276
19594.00000 0.117275
19594.39062 0.117275
19594.78906 0.117274
19595.17969 0.117269
19595.57031 0.117259
19595.96094 0.117248
19596.35938 0.117238
19596.75000 0.117228
19597.14062 0.117218
19597.53906 0.117208
19597.92969 0.117197
19598.32031 0.117187
19598.71094 0.117177
19599.10938 0.117167
19599.50000 0.117157
19599.89062 0.117146
19600.28906 0.117145
19600.67969 0.117147
19601.07031 0.11715
19601.46094 0.117152
19601.85938 0.117154
19602.25000 0.117156
19602.64062 0.117158
19603.03906 0.11716
19603.42969 0.117162
19603.82031 0.117165
19604.21094 0.117167
19604.60938 0.117169
19605.00000 0.117171
19605.39062 0.117163
19605.78906 0.117155
19606.17969 0.117148
19606.57031 0.11714
19606.96094 0.117132
19607.35938 0.117124
19607.75000 0.117116
19608.14062 0.117109
19608.53906 0.117101
19608.92969 0.117093
19609.32031 0.117085
19609.71094 0.117077
19610.10938 0.117071
19610.50000 0.11707
19610.89062 0.117068
19611.28906 0.117066
19611.67969 0.117065
19612.07031 0.117063
19612.47070 0.117061
19612.85938 0.11706
19613.25000 0.117058
19613.65039 0.117056
19614.03906 0.117055
19614.42969 0.117053
19614.82031 0.117052
19615.22070 0.11705
19615.60938 0.117047
19616.00000 0.117045
19616.40039 0.117042
19616.78906 0.11704
19617.17969 0.117038
19617.58008 0.117035
19617.97070 0.117033
19618.35938 0.11703
19618.75977 0.117028
19619.15039 0.117026
19619.53906 0.117023
19619.93945 0.117021
19620.33008 0.117018
19620.72070 0.117016
19621.11914 0.117013
19621.50977 0.11701
19621.90039 0.117008
19622.28906 0.117005
19622.68945 0.117002
19623.08008 0.117
19623.47070 0.116997
19623.86914 0.116994
19624.25977 0.116991
19624.65039 0.116989
19625.05078 0.116986
19625.43945 0.116979
19625.83008 0.116973
19626.23047 0.116966
19626.61914 0.11696
19627.01953 0.116954
19627.41016 0.116947
19627.80078 0.116941
19628.19922 0.116934
19628.58984 0.116928
19628.98047 0.116921
19629.36914 0.116915
19629.76953 0.116909
19630.16016 0.116902
19630.55078 0.116896
19630.94922 0.11689
19631.33984 0.116884
19631.74023 0.116878
19632.13086 0.116872
19632.51953 0.116865
19632.91992 0.116859
19633.31055 0.116853
19633.69922 0.116847
19634.09961 0.116841
19634.49023 0.116835
19634.88086 0.116828
19635.27930 0.11682
19635.66992 0.116811
19636.06055 0.116802
19636.46094 0.116793
19636.84961 0.116784
19637.24023 0.116774
19637.64062 0.116765
19638.02930 0.116756
19638.42969 0.116747
19638.82031 0.116738
19639.21094 0.116729
19639.60938 0.11672
19640.00000 0.11671
19640.39062 0.116712
19640.78906 0.116714
19641.17969 0.116716
19641.57031 0.116717
19641.97070 0.116719
19642.35938 0.116721
19642.75977 0.116723
19643.15039 0.116724
19643.53906 0.116726
19643.93945 0.116728
19644.33008 0.116729
19644.72070 0.116731
19645.11914 0.116732
19645.50977 0.116731
19645.90039 0.116729
19646.30078 0.116728
19646.68945 0.116726
19647.08984 0.116725
19647.48047 0.116723
19647.86914 0.116722
19648.26953 0.11672
19648.66016 0.116719
19649.05078 0.116718
19649.44922 0.116716
19649.83984 0.116715
19650.24023 0.116707
19650.63086 0.116694
19651.01953 0.116681
19651.41992 0.116669
19651.81055 0.116656
19652.21094 0.116644
19652.59961 0.116631
19652.99023 0.116619
19653.39062 0.116607
19653.77930 0.116594
19654.17969 0.116582
19654.57031 0.116569
19654.96094 0.116556
19655.35938 0.116554
19655.75000 0.116553
19656.14062 0.116551
19656.53906 0.11655
19656.92969 0.116548
19657.33008 0.116546
19657.72070 0.116545
19658.10938 0.116544
19658.50977 0.116542
19658.90039 0.116541
19659.30078 0.116539
19659.68945 0.116538
19660.08008 0.116535
19660.48047 0.116529
19660.86914 0.116523
19661.26953 0.116517
19661.66016 0.116512
19662.05078 0.116506
19662.44922 0.1165
19662.83984 0.116494
19663.24023 0.116488
19663.63086 0.116482
19664.02930 0.116476
19664.41992 0.11647
19664.81055 0.116464
19665.21094 0.116454
19665.59961 0.116441
19666.00000 0.116427
19666.39062 0.116413
19666.77930 0.1164
19667.17969 0.116386
19667.57031 0.116372
19667.97070 0.116359
19668.35938 0.116345
19668.75000 0.116332
19669.15039 0.116318
19669.53906 0.116304
19669.93945 0.116291
19670.33008 0.116289
19670.72070 0.11629
19671.11914 0.116291
19671.50977 0.116292
19671.91016 0.116293
19672.30078 0.116294
19672.69922 0.116295
19673.08984 0.116296
19673.48047 0.116297
19673.88086 0.116298
19674.26953 0.116299
19674.66992 0.1163
19675.06055 0.1163
19675.46094 0.116295
19675.84961 0.11629
19676.25000 0.116285
19676.64062 0.11628
19677.02930 0.116275
19677.42969 0.116269
19677.82031 0.116264
19678.22070 0.116259
19678.60938 0.116254
19679.00977 0.116249
19679.40039 0.116244
19679.78906 0.116239
19680.18945 0.116229
19680.58008 0.116213
19680.98047 0.116198
19681.36914 0.116182
19681.76953 0.116167
19682.16016 0.116152
19682.56055 0.116136
19682.94922 0.116121
19683.33984 0.116106
19683.74023 0.11609
19684.13086 0.116075
19684.52930 0.116059
19684.91992 0.116044
19685.32031 0.116042
19685.71094 0.116043
19686.10938 0.116044
19686.50000 0.116044
19686.89062 0.116045
19687.28906 0.116046
19687.67969 0.116047
19688.08008 0.116048
19688.47070 0.116049
19688.86914 0.11605
19689.25977 0.116051
19689.66016 0.116052
19690.05078 0.116052
19690.44922 0.116043
19690.83984 0.116034
19691.24023 0.116025
19691.63086 0.116016
19692.02930 0.116007
19692.41992 0.115998
19692.81055 0.115989
19693.21094 0.11598
19693.59961 0.115971
19694.00000 0.115962
19694.39062 0.115953
19694.78906 0.115944
19695.17969 0.115938
19695.58008 0.115935
19695.97070 0.115932
19696.36914 0.11593
19696.75977 0.115927
19697.16016 0.115924
19697.55078 0.115921
19697.94922 0.115918
19698.33984 0.115916
19698.74023 0.115913
19699.13086 0.11591
19699.52930 0.115907
19699.91992 0.115904
19700.31055 0.1159
19700.71094 0.115895
19701.09961 0.11589
19701.50000 0.115886
19701.89062 0.115881
19702.28906 0.115876
19702.67969 0.115872
19703.08008 0.115867
19703.47070 0.115862
19703.86914 0.115857
19704.25977 0.115853
19704.66016 0.115848
19705.05078 0.115843
19705.44922 0.115835
19705.83984 0.115827
19706.24023 0.115819
19706.63086 0.115812
19707.02930 0.115804
19707.41992 0.115796
19707.82031 0.115788
19708.21094 0.11578
19708.60938 0.115773
19709.00000 0.115765
19709.40039 0.115757
19709.78906 0.115749
19710.18945 0.115741
19710.58008 0.115731
19710.98047 0.115722
19711.36914 0.115712
19711.76953 0.115703
19712.16016 0.115694
19712.56055 0.115684
19712.94922 0.115675
19713.34961 0.115665
19713.74023 0.115656
19714.14062 0.115646
19714.52930 0.115637
19714.92969 0.115627
19715.32031 0.115617
19715.72070 0.115608
19716.10938 0.115598
19716.50977 0.115587
19716.90039 0.115577
19717.30078 0.115568
19717.69922 0.115557
19718.08984 0.115547
19718.48047 0.115538
19718.88086 0.115528
19719.27930 0.115518
19719.66992 0.115508
19720.07031 0.115498
19720.46094 0.115491
19720.85938 0.115484
19721.25000 0.115477
19721.65039 0.11547
19722.03906 0.115463
19722.43945 0.115456
19722.83008 0.115449
19723.23047 0.115443
19723.61914 0.115436
19724.01953 0.115429
19724.41016 0.115422
19724.81055 0.115415
19725.19922 0.11541
19725.59961 0.115408
19725.99023 0.115406
19726.39062 0.115403
19726.78906 0.115401
19727.17969 0.115399
19727.58008 0.115397
19727.97070 0.115394
19728.36914 0.115392
19728.75977 0.11539
19729.16016 0.115388
19729.55078 0.115385
19729.94922 0.115383
19730.33984 0.115378
19730.74023 0.115373
19731.13086 0.115367
19731.52930 0.115361
19731.92969 0.115356
19732.32031 0.11535
19732.72070 0.115345
19733.10938 0.115339
19733.50977 0.115334
19733.90039 0.115328
19734.30078 0.115323
19734.68945 0.115317
19735.08984 0.115312
19735.48047 0.115307
19735.88086 0.115303
19736.27930 0.115298
19736.66992 0.115293
19737.07031 0.115289
19737.46094 0.115284
19737.85938 0.115279
19738.25000 0.115275
19738.65039 0.11527
19739.03906 0.115266
19739.43945 0.115261
19739.83984 0.115256
19740.23047 0.115249
19740.63086 0.11524
19741.01953 0.115232
19741.41992 0.115223
19741.81055 0.115214
19742.21094 0.115205
19742.60938 0.115196
19743.00000 0.115187
19743.40039 0.115179
19743.78906 0.11517
19744.18945 0.115161
19744.58008 0.115152
19744.98047 0.115143
19745.36914 0.115143
19745.76953 0.115142
19746.16992 0.115142
19746.56055 0.115142
19746.96094 0.115142
19747.34961 0.115142
19747.75000 0.115142
19748.15039 0.115142
19748.53906 0.115142
19748.93945 0.115141
19749.33008 0.115141
19749.73047 0.115141
19750.13086 0.115138
19750.51953 0.11513
19750.91992 0.115121
19751.31055 0.115112
19751.71094 0.115103
19752.09961 0.115094
19752.50000 0.115086
19752.90039 0.115077
19753.28906 0.115068
19753.68945 0.115059
19754.08008 0.11505
19754.48047 0.115042
19754.86914 0.115033
19755.26953 0.115026
19755.66992 0.11502
19756.06055 0.115014
19756.46094 0.115009
19756.85938 0.115003
19757.25000 0.114997
19757.65039 0.114991
19758.03906 0.114985
19758.43945 0.11498
19758.83008 0.114974
19759.23047 0.114968
19759.63086 0.114962
19760.01953 0.114956
19760.41992 0.114949
19760.81055 0.114942
19761.21094 0.114935
19761.60938 0.114927
19762.00000 0.11492
19762.40039 0.114913
19762.78906 0.114906
19763.18945 0.114899
19763.58984 0.114891
19763.98047 0.114884
19764.38086 0.114877
19764.77930 0.114869
19765.16992 0.114864
19765.57031 0.11486
19765.96094 0.114856
19766.35938 0.114853
19766.75977 0.114849
19767.15039 0.114845
19767.55078 0.114842
19767.94922 0.114838
19768.33984 0.114834
19768.74023 0.114831
19769.13086 0.114827
19769.52930 0.114823
19769.92969 0.11482
19770.32031 0.114815
19770.72070 0.114809
19771.10938 0.114804
19771.50977 0.114798
19771.91016 0.114792
19772.30078 0.114787
19772.69922 0.114781
19773.09961 0.114776
19773.49023 0.11477
19773.89062 0.114765
19774.28906 0.114759
19774.67969 0.114754
19775.08008 0.114749
19775.47070 0.114747
19775.86914 0.114746
19776.26953 0.114745
19776.66016 0.114743
19777.06055 0.114742
19777.46094 0.11474
19777.84961 0.114739
19778.25000 0.114738
19778.64062 0.114736
19779.03906 0.114735
19779.43945 0.114733
19779.83008 0.114732
19780.23047 0.114728
19780.63086 0.114722
19781.01953 0.114716
19781.41992 0.11471
19781.82031 0.114704
19782.21094 0.114698
19782.60938 0.114692
19783.00977 0.114686
19783.40039 0.11468
19783.80078 0.114674
19784.19922 0.114668
19784.58984 0.114662
19784.99023 0.114656
19785.38086 0.11466
19785.77930 0.114664
19786.17969 0.114668
19786.57031 0.114672
19786.97070 0.114676
19787.36914 0.11468
19787.75977 0.114684
19788.16016 0.114688
19788.56055 0.114692
19788.94922 0.114696
19789.34961 0.1147
19789.75000 0.114704
19790.14062 0.114703
19790.53906 0.114696
19790.93945 0.114688
19791.33008 0.11468
19791.73047 0.114673
19792.13086 0.114665
19792.51953 0.114657
19792.91992 0.114649
19793.32031 0.114642
19793.71094 0.114634
19794.10938 0.114626
19794.50977 0.114618
19794.90039 0.114611
19795.30078 0.114607
19795.69922 0.114605
19796.08984 0.114603
19796.49023 0.114601
19796.89062 0.114599
19797.27930 0.114597
19797.67969 0.114595
19798.08008 0.114593
19798.47070 0.114591
19798.86914 0.114589
19799.26953 0.114586
19799.66016 0.114585
19800.06055 0.114582
19800.46094 0.11458
19800.84961 0.114577
19801.25000 0.114574
19801.65039 0.114572
19802.03906 0.114569
19802.43945 0.114566
19802.83984 0.114564
19803.24023 0.114561
19803.63086 0.114558
19804.02930 0.114556
19804.42969 0.114553
19804.82031 0.11455
19805.22070 0.114547
19805.61914 0.114544
19806.00977 0.114541
19806.41016 0.114537
19806.81055 0.114534
19807.21094 0.114531
19807.59961 0.114528
19808.00000 0.114524
19808.40039 0.114521
19808.78906 0.114518
19809.18945 0.114514
19809.58984 0.114511
19809.98047 0.114508
19810.38086 0.114507
19810.77930 0.114507
19811.17969 0.114507
19811.57031 0.114506
19811.97070 0.114506
19812.36914 0.114506
19812.75977 0.114505
19813.16016 0.114505
19813.56055 0.114505
19813.96094 0.114504
19814.34961 0.114504
19814.75000 0.114504
19815.15039 0.114502
19815.53906 0.1145
19815.93945 0.114498
19816.33984 0.114495
19816.73047 0.114493
19817.13086 0.11449
19817.52930 0.114488
19817.92969 0.114486
19818.32031 0.114483
19818.72070 0.114481
19819.11914 0.114478
19819.50977 0.114476
19819.91016 0.114473
19820.31055 0.114472
19820.71094 0.114472
19821.09961 0.114471
19821.50000 0.11447
19821.90039 0.11447
19822.28906 0.114469
19822.68945 0.114468
19823.08984 0.114468
19823.49023 0.114467
19823.88086 0.114466
19824.27930 0.114466
19824.67969 0.114465
19825.08008 0.114465
19825.47070 0.114468
19825.86914 0.11447
19826.26953 0.114473
19826.66992 0.114475
19827.06055 0.114478
19827.46094 0.114481
19827.85938 0.114483
19828.25977 0.114486
19828.65039 0.114489
19829.05078 0.114491
19829.44922 0.114494
19829.83984 0.114496
19830.24023 0.114494
19830.64062 0.114489
19831.03906 0.114485
19831.42969 0.114479
19831.83008 0.114475
19832.23047 0.11447
19832.63086 0.114465
19833.01953 0.11446
19833.41992 0.114455
19833.82031 0.11445
19834.22070 0.114445
19834.60938 0.11444
19835.00977 0.114435
19835.41016 0.114432
19835.81055 0.114429
19836.21094 0.114425
19836.59961 0.114422
19837.00000 0.114419
19837.40039 0.114415
19837.78906 0.114412
19838.18945 0.114409
19838.58984 0.114406
19838.99023 0.114402
19839.38086 0.114399
19839.77930 0.114396
19840.17969 0.114397
19840.58008 0.114404
19840.97070 0.114411
19841.36914 0.114419
19841.76953 0.114426
19842.16992 0.114433
19842.57031 0.11444
19842.96094 0.114447
19843.35938 0.114454
19843.75977 0.114461
19844.16016 0.114468
19844.55078 0.114475
19844.94922 0.114482
19845.34961 0.114481
19845.75000 0.114479
19846.14062 0.114477
19846.53906 0.114475
19846.93945 0.114474
19847.33984 0.114472
19847.74023 0.11447
19848.13086 0.114468
19848.52930 0.114466
19848.92969 0.114464
19849.33008 0.114462
19849.72070 0.11446
19850.11914 0.114459
19850.51953 0.11446
19850.91992 0.114462
19851.32031 0.114463
19851.71094 0.114464
19852.10938 0.114466
19852.50977 0.114467
19852.91016 0.114469
19853.31055 0.11447
19853.69922 0.114472
19854.09961 0.114473
19854.50000 0.114474
19854.90039 0.114476
19855.28906 0.114477
19855.68945 0.114479
19856.08984 0.11448
19856.49023 0.114482
19856.89062 0.114483
19857.28906 0.114485
19857.67969 0.114486
19858.08008 0.114487
19858.48047 0.114489
19858.88086 0.11449
19859.27930 0.114492
19859.66992 0.114493
19860.07031 0.114496
19860.47070 0.114503
19860.86914 0.11451
19861.26953 0.114517
19861.66016 0.114524
19862.06055 0.114531
19862.46094 0.114538
19862.85938 0.114545
19863.25977 0.114553
19863.65039 0.11456
19864.05078 0.114567
19864.44922 0.114574
19864.84961 0.114581
19865.25000 0.114583
19865.64062 0.11458
19866.03906 0.114578
19866.43945 0.114576
19866.83984 0.114574
19867.24023 0.114571
19867.63086 0.114569
19868.02930 0.114567
19868.42969 0.114565
19868.83008 0.114562
19869.23047 0.11456
19869.63086 0.114558
19870.01953 0.114556
19870.41992 0.114557
19870.82031 0.114557
19871.22070 0.114558
19871.61914 0.114558
19872.01953 0.114559
19872.41016 0.114559
19872.81055 0.11456
19873.21094 0.114561
19873.60938 0.114561
19874.00977 0.114562
19874.40039 0.114562
19874.80078 0.114563
19875.19922 0.114566
19875.59961 0.114572
19876.00000 0.114578
19876.40039 0.114584
19876.78906 0.114589
19877.18945 0.114595
19877.58984 0.114601
19877.99023 0.114607
19878.39062 0.114612
19878.78906 0.114618
19879.18945 0.114624
19879.58008 0.11463
19879.98047 0.114636
19880.38086 0.114634
19880.77930 0.114633
19881.17969 0.114631
19881.58008 0.11463
19881.97070 0.114629
19882.36914 0.114627
19882.76953 0.114626
19883.16992 0.114624
19883.57031 0.114623
19883.97070 0.114622
19884.36914 0.11462
19884.75977 0.114619
19885.16016 0.114621
19885.56055 0.11463
19885.96094 0.114639
19886.35938 0.114648
19886.75977 0.114657
19887.15039 0.114666
19887.55078 0.114674
19887.94922 0.114683
19888.34961 0.114692
19888.75000 0.114701
19889.15039 0.11471
19889.55078 0.114718
19889.94922 0.114727
19890.33984 0.114732
19890.74023 0.114736
19891.14062 0.11474
19891.53906 0.114744
19891.93945 0.114748
19892.33984 0.114752
19892.74023 0.114756
19893.13086 0.11476
19893.52930 0.114764
19893.92969 0.114768
19894.33008 0.114772
19894.73047 0.114777
19895.13086 0.11478
19895.52930 0.114783
19895.92969 0.114785
19896.32031 0.114788
19896.72070 0.114791
19897.11914 0.114793
19897.51953 0.114796
19897.91992 0.114798
19898.32031 0.114801
19898.72070 0.114804
19899.11914 0.114806
19899.50977 0.114809
19899.91016 0.114812
19900.31055 0.11482
19900.71094 0.11483
19901.10938 0.114839
19901.50977 0.114849
19901.91016 0.114859
19902.31055 0.114869
19902.71094 0.114879
19903.09961 0.114889
19903.50000 0.114898
19903.90039 0.114908
19904.30078 0.114918
19904.69922 0.114928
19905.09961 0.114935
19905.50000 0.114937
19905.90039 0.114938
19906.28906 0.114939
19906.68945 0.11494
19907.08984 0.114941
19907.49023 0.114942
19907.89062 0.114943
19908.28906 0.114944
19908.68945 0.114946
19909.08984 0.114946
19909.49023 0.114948
19909.89062 0.114949
19910.28906 0.11495
19910.67969 0.114951
19911.08008 0.114952
19911.48047 0.114953
19911.88086 0.114954
19912.27930 0.114955
19912.67969 0.114956
19913.08008 0.114957
19913.48047 0.114958
19913.88086 0.114959
19914.27930 0.11496
19914.67969 0.114961
19915.07031 0.114963
19915.47070 0.114974
19915.86914 0.114985
19916.26953 0.114996
19916.66992 0.115006
19917.07031 0.115017
19917.47070 0.115028
19917.86914 0.115039
19918.26953 0.115049
19918.66992 0.11506
19919.07031 0.115071
19919.46094 0.115082
19919.85938 0.115092
19920.25977 0.115096
19920.66016 0.115097
19921.06055 0.115097
19921.46094 0.115098
19921.85938 0.115098
19922.25977 0.115099
19922.66016 0.115099
19923.06055 0.1151
19923.46094 0.1151
19923.85938 0.115101
19924.25977 0.115101
19924.66016 0.115102
19925.05078 0.115103
19925.44922 0.115109
19925.84961 0.115115
19926.25000 0.115121
19926.65039 0.115126
19927.05078 0.115132
19927.44922 0.115138
19927.84961 0.115144
19928.25000 0.11515
19928.65039 0.115156
19929.05078 0.115162
19929.44922 0.115168
19929.84961 0.115173
19930.25000 0.115176
19930.65039 0.115177
19931.03906 0.115177
19931.44922 0.115178
19931.83984 0.115178
19932.24023 0.115179
19932.64062 0.115179
19933.03906 0.11518
19933.43945 0.11518
19933.83984 0.115181
19934.24023 0.115181
19934.64062 0.115182
19935.03906 0.115183
19935.43945 0.115198
19935.83984 0.115213
19936.24023 0.115228
19936.64062 0.115243
19937.03906 0.115257
19937.43945 0.115272
19937.83984 0.115287
19938.24023 0.115302
19938.64062 0.115317
19939.03906 0.115331
19939.43945 0.115346
19939.83984 0.115361
19940.23047 0.115372
19940.63086 0.115379
19941.02930 0.115387
19941.42969 0.115394
19941.83008 0.115402
19942.23047 0.115409
19942.63086 0.115417
19943.02930 0.115425
19943.42969 0.115432
19943.83008 0.11544
19944.23047 0.115448
19944.63086 0.115455
19945.02930 0.115463
19945.42969 0.115472
19945.83008 0.11548
19946.23047 0.115489
19946.63086 0.115497
19947.02930 0.115506
19947.42969 0.115515
19947.83008 0.115523
19948.23047 0.115532
19948.63086 0.115541
19949.02930 0.115549
19949.42969 0.115558
19949.83008 0.115566
19950.23047 0.115575
19950.63086 0.115584
19951.02930 0.115593
19951.42969 0.115602
19951.83008 0.115611
19952.23047 0.11562
19952.63086 0.115629
19953.02930 0.115639
19953.42969 0.115648
19953.83008 0.115657
19954.23047 0.115666
19954.63086 0.115675
19955.02930 0.115683
19955.42969 0.115689
19955.83008 0.115694
19956.23047 0.1157
19956.63086 0.115705
19957.02930 0.11571
19957.42969 0.115716
19957.83008 0.115721
19958.23047 0.115726
19958.63086 0.115732
19959.02930 0.115737
19959.42969 0.115742
19959.83008 0.115748
19960.23047 0.115757
19960.63086 0.115769
19961.02930 0.115781
19961.42969 0.115794
19961.83008 0.115806
19962.23047 0.115818
19962.63086 0.115831
19963.02930 0.115843
19963.42969 0.115855
19963.83008 0.115867
19964.23047 0.11588
19964.63086 0.115892
19965.02930 0.115904
19965.42969 0.115908
19965.83008 0.115912
19966.23047 0.115916
19966.63086 0.11592
19967.02930 0.115924
19967.42969 0.115929
19967.83008 0.115933
19968.23047 0.115937
19968.63086 0.115941
19969.02930 0.115945
19969.42969 0.115949
19969.83008 0.115953
19970.23047 0.115959
19970.63086 0.115965
19971.02930 0.115971
19971.42969 0.115977
19971.83008 0.115983
19972.23047 0.115989
19972.63086 0.115996
19973.02930 0.116002
19973.42969 0.116008
19973.83008 0.116014
19974.23047 0.11602
19974.63086 0.116026
19975.02930 0.116033
19975.42969 0.116044
19975.83008 0.116055
19976.23047 0.116066
19976.63086 0.116077
19977.03906 0.116088
19977.43945 0.116098
19977.83984 0.11611
19978.24023 0.116121
19978.64062 0.116131
19979.03906 0.116142
19979.43945 0.116153
19979.83984 0.116164
19980.24023 0.116178
19980.64062 0.116194
19981.03906 0.116209
19981.43945 0.116225
19981.83984 0.11624
19982.24023 0.116256
19982.64062 0.116271
19983.03906 0.116287
19983.43945 0.116303
19983.83984 0.116318
19984.24023 0.116334
19984.64062 0.116349
19985.03906 0.116364
19985.43945 0.116372
19985.83984 0.116381
19986.24023 0.116389
19986.65039 0.116397
19987.05078 0.116405
19987.44922 0.116414
19987.84961 0.116422
19988.25000 0.11643
19988.65039 0.116438
19989.05078 0.116446
19989.44922 0.116455
19989.84961 0.116463
19990.25000 0.116468
19990.65039 0.116471
19991.05078 0.116474
19991.44922 0.116477
19991.84961 0.11648
19992.25000 0.116483
19992.65039 0.116486
19993.05078 0.116489
19993.46094 0.116492
19993.85938 0.116495
19994.25977 0.116498
19994.66016 0.116501
19995.06055 0.116507
19995.46094 0.116526
19995.85938 0.116544
19996.25977 0.116563
19996.66016 0.116582
19997.06055 0.116601
19997.46094 0.11662
19997.86914 0.116639
19998.26953 0.116658
19998.66992 0.116677
19999.07031 0.116695
19999.47070 0.116714
19999.86914 0.116733
20000.26953 0.116753
20000.66992 0.116773
20001.07031 0.116793
20001.47070 0.116814
20001.86914 0.116834
20002.26953 0.116854
20002.66992 0.116874
20003.07031 0.116894
20003.48047 0.116915
20003.88086 0.116935
20004.27930 0.116955
20004.67969 0.116975
20005.08008 0.116998
20005.48047 0.117028
20005.88086 0.117058
20006.27930 0.117088
20006.67969 0.117118
20007.08008 0.117148
20007.49023 0.117178
20007.89062 0.117208
20008.28906 0.117238
20008.68945 0.117268
20009.08984 0.117298
20009.49023 0.117328
20009.89062 0.117358
20010.28906 0.117381
20010.68945 0.1174
20011.08984 0.117419
20011.50000 0.117438
20011.90039 0.117457
20012.30078 0.117476
20012.69922 0.117496
20013.09961 0.117515
20013.50000 0.117534
20013.90039 0.117553
20014.30078 0.117572
20014.71094 0.117592
20015.10938 0.117611
20015.50977 0.117629
20015.91016 0.117648
20016.31055 0.117667
20016.71094 0.117685
20017.10938 0.117704
20017.50977 0.117722
20017.91016 0.117741
20018.31055 0.11776
20018.72070 0.117778
20019.11914 0.117797
20019.51953 0.117816
20019.91992 0.117834
20020.32031 0.117859
20020.72070 0.117885
20021.11914 0.11791
20021.52930 0.117936
20021.92969 0.117962
20022.33008 0.117988
20022.73047 0.118014
20023.13086 0.11804
20023.52930 0.118066
20023.92969 0.118092
20024.33008 0.118118
20024.73047 0.118144
20025.14062 0.118169
20025.53906 0.118195
20025.93945 0.118221
20026.33984 0.118246
20026.74023 0.118272
20027.14062 0.118297
20027.53906 0.118323
20027.94922 0.118349
20028.34961 0.118374
20028.75000 0.1184
20029.15039 0.118426
20029.55078 0.118451
20029.94922 0.118477
20030.34961 0.118503
20030.75977 0.118528
20031.16016 0.118554
20031.56055 0.11858
20031.96094 0.118606
20032.35938 0.118632
20032.75977 0.118658
20033.16016 0.118683
20033.57031 0.118709
20033.97070 0.118735
20034.36914 0.118761
20034.76953 0.118787
20035.16992 0.118811
20035.57031 0.118832
20035.97070 0.118853
20036.38086 0.118874
20036.77930 0.118895
20037.17969 0.118916
20037.58008 0.118937
20037.98047 0.118958
20038.38086 0.118979
20038.78906 0.119
20039.18945 0.119021
20039.58984 0.119042
20039.99023 0.119063
20040.39062 0.119089
20040.78906 0.119115
20041.19922 0.119141
20041.59961 0.119167
20042.00000 0.119193
20042.40039 0.119219
20042.80078 0.119245
20043.19922 0.11927
20043.60938 0.119296
20044.00977 0.119322
20044.41016 0.119348
20044.81055 0.119374
20045.21094 0.119399
20045.61914 0.119423
20046.01953 0.119447
20046.41992 0.119472
20046.82031 0.119496
20047.22070 0.11952
20047.61914 0.119544
20048.02930 0.119568
20048.42969 0.119593
20048.83008 0.119617
20049.23047 0.119641
20049.63086 0.119665
20050.02930 0.11969
20050.43945 0.119718
20050.83984 0.119745
20051.24023 0.119773
20051.64062 0.119801
20052.03906 0.119828
20052.44922 0.119856
20052.84961 0.119884
20053.25000 0.119912
20053.65039 0.119939
20054.05078 0.119967
20054.46094 0.119995
20054.85938 0.120023
20055.25977 0.12005
20055.66016 0.120078
20056.06055 0.120106
20056.46094 0.120133
20056.86914 0.120161
20057.26953 0.120189
20057.66992 0.120217
20058.07031 0.120244
20058.47070 0.120272
20058.88086 0.1203
20059.27930 0.120327
20059.67969 0.120355
20060.08008 0.120382
20060.48047 0.120404
20060.89062 0.120426
20061.28906 0.120448
20061.68945 0.12047
20062.08984 0.120492
20062.49023 0.120514
20062.90039 0.120537
20063.30078 0.120559
20063.69922 0.120581
20064.09961 0.120603
20064.50977 0.120625
20064.91016 0.120648
20065.31055 0.120671
20065.71094 0.120695
20066.10938 0.120718
20066.51953 0.120742
20066.91992 0.120766
20067.32031 0.120789
20067.72070 0.120813
20068.13086 0.120837
20068.52930 0.12086
20068.92969 0.120884
20069.33008 0.120908
20069.73047 0.120931
20070.13086 0.120958
20070.53906 0.120989
20070.93945 0.12102
20071.33984 0.121051
20071.74023 0.121081
20072.15039 0.121112
20072.55078 0.121143
20072.94922 0.121174
20073.34961 0.121205
20073.75977 0.121236
20074.16016 0.121267
20074.56055 0.121298
20074.96094 0.121329
20075.36914 0.121357
20075.76953 0.121384
20076.16992 0.121411
20076.57031 0.121438
20076.97070 0.121465
20077.38086 0.121492
20077.77930 0.121519
20078.17969 0.121545
20078.58008 0.121572
20078.99023 0.121599
20079.39062 0.121626
20079.78906 0.121653
20080.18945 0.121678
20080.59961 0.121699
20081.00000 0.12172
20081.40039 0.121741
20081.80078 0.121762
20082.21094 0.121783
20082.60938 0.121804
20083.00977 0.121825
20083.41016 0.121846
20083.82031 0.121868
20084.22070 0.121889
20084.61914 0.12191
20085.01953 0.121931
20085.42969 0.121959
20085.83008 0.121987
20086.23047 0.122015
20086.63086 0.122043
20087.03906 0.122071
20087.43945 0.122099
20087.83984 0.122127
20088.24023 0.122155
20088.65039 0.122183
20089.05078 0.12221
20089.44922 0.122238
20089.84961 0.122266
20090.25977 0.122294
20090.66016 0.122321
20091.06055 0.122348
20091.46094 0.122375
20091.86914 0.122403
20092.26953 0.12243
20092.66992 0.122457
20093.08008 0.122484
20093.48047 0.122511
20093.88086 0.122539
20094.27930 0.122566
20094.68945 0.122593
20095.08984 0.12262
20095.49023 0.122645
20095.89062 0.12267
20096.30078 0.122695
20096.69922 0.12272
20097.09961 0.122745
20097.50977 0.12277
20097.91016 0.122796
20098.31055 0.122821
20098.71094 0.122846
20099.11914 0.122871
20099.51953 0.122896
20099.91992 0.122921
20100.33008 0.122947
20100.73047 0.122974
20101.13086 0.123
20101.52930 0.123027
20101.93945 0.123053
20102.33984 0.12308
20102.74023 0.123106
20103.15039 0.123133
20103.55078 0.123159
20103.94922 0.123186
20104.34961 0.123212
20104.75977 0.123239
20105.16016 0.123266
20105.56055 0.123294
20105.97070 0.123323
20106.36914 0.123351
20106.76953 0.123379
20107.17969 0.123408
20107.58008 0.123436
20107.98047 0.123465
20108.38086 0.123493
20108.78906 0.123522
20109.18945 0.12355
20109.58984 0.123579
20110.00000 0.123607
20110.40039 0.123635
20110.80078 0.123664
20111.21094 0.123692
20111.60938 0.123721
20112.00977 0.123749
20112.41016 0.123778
20112.82031 0.123806
20113.22070 0.123835
20113.61914 0.123863
20114.02930 0.123892
20114.42969 0.12392
20114.83008 0.123949
20115.24023 0.123978
20115.64062 0.124008
20116.03906 0.124038
20116.44922 0.124067
20116.84961 0.124097
20117.25000 0.124127
20117.65039 0.124157
20118.06055 0.124187
20118.46094 0.124216
20118.86914 0.124246
20119.26953 0.124276
20119.66992 0.124306
20120.07031 0.124335
20120.48047 0.124357
20120.88086 0.124379
20121.27930 0.124401
20121.68945 0.124423
20122.08984 0.124445
20122.49023 0.124467
20122.90039 0.124489
20123.30078 0.124512
20123.69922 0.124534
20124.10938 0.124556
20124.50977 0.124578
20124.91016 0.1246
20125.32031 0.124635
20125.72070 0.124673
20126.11914 0.124711
20126.52930 0.124749
20126.92969 0.124787
20127.33008 0.124825
20127.74023 0.124863
20128.14062 0.124902
20128.53906 0.12494
20128.94922 0.124978
20129.34961 0.125016
20129.75000 0.125054
20130.16016 0.125085
20130.56055 0.125106
20130.96094 0.125127
20131.36914 0.125148
20131.76953 0.125169
20132.16992 0.12519
20132.58008 0.125211
20132.98047 0.125231
20133.38086 0.125252
20133.78906 0.125273
20134.18945 0.125294
20134.59961 0.125315
20135.00000 0.125336
20135.40039 0.125357
20135.81055 0.125378
20136.21094 0.125399
20136.60938 0.12542
20137.01953 0.125441
20137.41992 0.125462
20137.82031 0.125483
20138.23047 0.125504
20138.63086 0.125525
20139.03906 0.125547
20139.43945 0.125568
20139.83984 0.125589
20140.25000 0.125617
20140.65039 0.12565
20141.05078 0.125683
20141.46094 0.125716
20141.85938 0.125749
20142.25977 0.125782
20142.66992 0.125815
20143.07031 0.125848
20143.47070 0.12588
20143.88086 0.125913
20144.27930 0.125946
20144.68945 0.125979
20145.08984 0.126011
20145.49023 0.126038
20145.90039 0.126065
20146.30078 0.126092
20146.71094 0.126119
20147.10938 0.126146
20147.50977 0.126172
20147.91992 0.126199
20148.32031 0.126226
20148.72070 0.126253
20149.13086 0.12628
20149.52930 0.126307
20149.93945 0.126334
20150.33984 0.126358
20150.74023 0.126381
20151.15039 0.126404
20151.55078 0.126427
20151.96094 0.12645
20152.35938 0.126473
20152.75977 0.126496
20153.16992 0.126519
20153.57031 0.126542
20153.97070 0.126565
20154.38086 0.126588
20154.77930 0.126611
20155.18945 0.126637
20155.58984 0.126665
20155.99023 0.126694
20156.40039 0.126722
20156.80078 0.126751
20157.21094 0.126779
20157.60938 0.126808
20158.00977 0.126837
20158.41992 0.126865
20158.82031 0.126894
20159.23047 0.126923
20159.63086 0.126951
20160.02930 0.12698
20160.43945 0.127014
20160.83984 0.127048
20161.25000 0.127083
20161.65039 0.127117
20162.05078 0.127151
20162.46094 0.127185
20162.85938 0.127219
20163.26953 0.127253
20163.66992 0.127288
20164.07031 0.127322
20164.48047 0.127356
20164.88086 0.12739
20165.28906 0.127416
20165.68945 0.127438
20166.09961 0.12746
20166.50000 0.127482
20166.90039 0.127505
20167.31055 0.127527
20167.71094 0.127549
20168.11914 0.127571
20168.51953 0.127593
20168.91992 0.127615
20169.33008 0.127638
20169.73047 0.12766
20170.14062 0.127683
20170.53906 0.127708
20170.94922 0.127733
20171.34961 0.127758
20171.75000 0.127783
20172.16016 0.127808
20172.56055 0.127833
20172.97070 0.127858
20173.36914 0.127884
20173.77930 0.127909
20174.17969 0.127934
20174.58008 0.127959
20174.99023 0.127984
20175.39062 0.128015
20175.80078 0.128046
20176.19922 0.128078
20176.60938 0.128109
20177.00977 0.12814
20177.41016 0.128172
20177.82031 0.128203
20178.22070 0.128235
20178.63086 0.128266
20179.02930 0.128297
20179.43945 0.128329
20179.83984 0.12836
20180.25000 0.128386
20180.65039 0.128407
20181.05078 0.128429
20181.46094 0.12845
20181.85938 0.128472
20182.26953 0.128494
20182.66992 0.128515
20183.08008 0.128537
20183.48047 0.128558
20183.89062 0.12858
20184.28906 0.128602
20184.69922 0.128623
20185.09961 0.128646
20185.50000 0.128674
20185.91016 0.128702
20186.31055 0.12873
20186.72070 0.128758
20187.11914 0.128786
20187.52930 0.128814
20187.92969 0.128842
20188.33984 0.12887
20188.74023 0.128898
20189.14062 0.128926
20189.55078 0.128954
20189.96094 0.128982
20190.35938 0.129013
20190.75977 0.129043
20191.16992 0.129074
20191.57031 0.129104
20191.98047 0.129135
20192.38086 0.129165
20192.78906 0.129196
20193.18945 0.129226
20193.59961 0.129257
20194.00000 0.129287
20194.41016 0.129318
20194.81055 0.129349
20195.21094 0.129373
20195.61914 0.129392
20196.02930 0.129412
20196.42969 0.129431
20196.83008 0.12945
20197.24023 0.129469
20197.64062 0.129488
20198.05078 0.129508
20198.44922 0.129527
20198.85938 0.129546
20199.25977 0.129565
20199.66992 0.129584
20200.07031 0.129604
20200.48047 0.129626
20200.88086 0.129647
20201.28906 0.129668
20201.68945 0.12969
20202.09961 0.129712
20202.50000 0.129733
20202.91016 0.129754
20203.31055 0.129776
20203.72070 0.129797
20204.11914 0.129819
20204.52930 0.12984
20204.92969 0.129862
20205.33984 0.129884
20205.74023 0.129906
20206.15039 0.129928
20206.55078 0.12995
20206.96094 0.129972
20207.35938 0.129994
20207.76953 0.130016
20208.16992 0.130039
20208.58008 0.130061
20208.98047 0.130083
20209.39062 0.130105
20209.78906 0.130127
20210.19922 0.130152
20210.59961 0.13018
20211.00977 0.130208
20211.41016 0.130237
20211.82031 0.130265
20212.22070 0.130293
20212.63086 0.130321
20213.02930 0.130349
20213.43945 0.130378
20213.83984 0.130406
20214.25000 0.130434
20214.65039 0.130462
20215.06055 0.13049
20215.46094 0.130518
20215.86914 0.130546
20216.26953 0.130574
20216.67969 0.130602
20217.08008 0.13063
20217.49023 0.130658
20217.89062 0.130686
20218.30078 0.130714
20218.69922 0.130742
20219.10938 0.13077
20219.50977 0.130798
20219.91992 0.130826
20220.32031 0.130843
20220.73047 0.130858
20221.13086 0.130873
20221.53906 0.130888
20221.94922 0.130903
20222.34961 0.130918
20222.75977 0.130933
20223.16016 0.130947
20223.57031 0.130962
20223.97070 0.130977
20224.38086 0.130992
20224.77930 0.131007
20225.18945 0.131027
20225.58984 0.131053
20226.00000 0.131078
20226.40039 0.131104
20226.81055 0.13113
20227.21094 0.131156
20227.61914 0.131182
20228.02930 0.131207
20228.42969 0.131233
20228.83984 0.131259
20229.24023 0.131284
20229.65039 0.13131
20230.05078 0.131336
20230.46094 0.131362
20230.85938 0.131388
20231.26953 0.131414
20231.66992 0.131441
20232.08008 0.131467
20232.49023 0.131493
20232.89062 0.131519
20233.30078 0.131545
20233.69922 0.131571
20234.10938 0.131598
20234.50977 0.131624
20234.91992 0.13165
20235.32031 0.131672
20235.73047 0.131693
20236.13086 0.131714
20236.53906 0.131735
20236.94922 0.131757
20237.34961 0.131778
20237.75977 0.131799
20238.16016 0.13182
20238.57031 0.131841
20238.97070 0.131862
20239.38086 0.131883
20239.78906 0.131904
20240.18945 0.131926
20240.59961 0.131948
20241.00000 0.13197
20241.41016 0.131992
20241.81055 0.132014
20242.22070 0.132036
20242.61914 0.132057
20243.02930 0.132079
20243.43945 0.132101
20243.83984 0.132123
20244.25000 0.132145
20244.65039 0.132167
20245.06055 0.132187
20245.46094 0.132198
20245.86914 0.132208
20246.27930 0.132219
20246.67969 0.132229
20247.08984 0.13224
20247.49023 0.13225
20247.90039 0.132261
20248.30078 0.132271
20248.71094 0.132282
20249.11914 0.132293
20249.51953 0.132303
20249.92969 0.132314
20250.33008 0.132338
20250.74023 0.132366
20251.15039 0.132394
20251.55078 0.132422
20251.96094 0.132449
20252.35938 0.132477
20252.76953 0.132505
20253.17969 0.132532
20253.58008 0.13256
20253.99023 0.132588
20254.39062 0.132616
20254.80078 0.132643
20255.21094 0.132668
20255.60938 0.13269
20256.01953 0.132711
20256.41992 0.132733
20256.83008 0.132754
20257.23047 0.132776
20257.64062 0.132797
20258.05078 0.132819
20258.44922 0.132841
20258.85938 0.132862
20259.26953 0.132884
20259.66992 0.132905
20260.08008 0.132926
20260.48047 0.13294
20260.89062 0.132956
20261.28906 0.13297
20261.69922 0.132986
20262.10938 0.133001
20262.50977 0.133016
20262.91992 0.133031
20263.33008 0.133046
20263.73047 0.133061
20264.14062 0.133076
20264.53906 0.133091
20264.94922 0.133106
20265.35938 0.133122
20265.75977 0.133139
20266.16992 0.133156
20266.57031 0.133173
20266.98047 0.13319
20267.39062 0.133207
20267.78906 0.133224
20268.19922 0.133241
20268.60938 0.133258
20269.00977 0.133275
20269.41992 0.133292
20269.82031 0.133308
20270.23047 0.133326
20270.64062 0.133345
20271.03906 0.133363
20271.44922 0.133382
20271.85938 0.1334
20272.25977 0.133418
20272.66992 0.133437
20273.07031 0.133455
20273.48047 0.133474
20273.89062 0.133492
20274.28906 0.133511
20274.69922 0.133529
20275.10938 0.133549
20275.50977 0.133572
20275.91992 0.133595
20276.33008 0.133619
20276.73047 0.133642
20277.14062 0.133665
20277.53906 0.133688
20277.94922 0.133711
20278.35938 0.133735
20278.75977 0.133758
20279.16992 0.133781
20279.58008 0.133804
20279.98047 0.133827
20280.39062 0.133841
20280.78906 0.133855
20281.19922 0.133868
20281.60938 0.133882
20282.01953 0.133895
20282.41992 0.133909
20282.83008 0.133922
20283.23047 0.133936
20283.64062 0.133949
20284.05078 0.133963
20284.46094 0.133976
20284.85938 0.13399
20285.26953 0.134007
20285.66992 0.134026
20286.08008 0.134046
20286.49023 0.134065
20286.89062 0.134084
20287.30078 0.134104
20287.71094 0.134123
20288.10938 0.134143
20288.51953 0.134162
20288.92969 0.134181
20289.33008 0.134201
20289.74023 0.13422
20290.15039 0.134239
20290.55078 0.134257
20290.96094 0.134275
20291.36914 0.134293
20291.76953 0.134311
20292.17969 0.134329
20292.58984 0.134347
20292.99023 0.134365
20293.40039 0.134383
20293.81055 0.134401
20294.21094 0.134419
20294.61914 0.134436
20295.02930 0.134454
20295.42969 0.13447
20295.83984 0.134485
20296.25000 0.134501
20296.65039 0.134516
20297.06055 0.134532
20297.47070 0.134547
20297.86914 0.134562
20298.27930 0.134578
20298.68945 0.134593
20299.08984 0.134609
20299.50000 0.134624
20299.91016 0.13464
20300.31055 0.134651
20300.72070 0.134661
20301.13086 0.134671
20301.53906 0.134681
20301.93945 0.134691
20302.34961 0.134701
20302.75977 0.134711
20303.16016 0.134721
20303.57031 0.134731
20303.98047 0.134741
20304.38086 0.134751
20304.78906 0.134762
20305.19922 0.134774
20305.60938 0.134788
20306.00977 0.134802
20306.41992 0.134816
20306.83008 0.134831
20307.23047 0.134845
20307.64062 0.134859
20308.05078 0.134874
20308.44922 0.134888
20308.85938 0.134902
20309.26953 0.134916
20309.66992 0.134931
20310.08008 0.134944
20310.49023 0.134957
20310.90039 0.134969
20311.30078 0.134981
20311.71094 0.134993
20312.11914 0.135006
20312.51953 0.135018
20312.92969 0.13503
20313.33984 0.135042
20313.75000 0.135055
20314.15039 0.135067
20314.56055 0.135079
20314.97070 0.135091
20315.36914 0.135111
20315.77930 0.135132
20316.18945 0.135153
20316.59961 0.135174
20317.00000 0.135195
20317.41016 0.135216
20317.82031 0.135237
20318.22070 0.135258
20318.63086 0.135278
20319.03906 0.135299
20319.44922 0.13532
20319.84961 0.135341
20320.25977 0.135351
20320.66992 0.135354
20321.07031 0.135357
20321.48047 0.135361
20321.89062 0.135364
20322.30078 0.135367
20322.69922 0.13537
20323.10938 0.135374
20323.51953 0.135377
20323.92969 0.13538
20324.33008 0.135383
20324.74023 0.135386
20325.15039 0.135394
20325.55078 0.135408
20325.96094 0.135422
20326.36914 0.135437
20326.77930 0.135451
20327.17969 0.135465
20327.58984 0.13548
20328.00000 0.135494
20328.41016 0.135509
20328.81055 0.135523
20329.22070 0.135537
20329.63086 0.135552
20330.03906 0.135566
20330.43945 0.135582
20330.84961 0.135598
20331.25977 0.135613
20331.66992 0.135629
20332.07031 0.135645
20332.48047 0.13566
20332.89062 0.135676
20333.30078 0.135691
20333.69922 0.135707
20334.10938 0.135723
20334.51953 0.135739
20334.92969 0.135754
20335.33008 0.135763
20335.74023 0.135769
20336.15039 0.135776
20336.56055 0.135783
20336.96094 0.13579
20337.36914 0.135797
20337.77930 0.135804
20338.18945 0.135811
20338.58984 0.135818
20339.00000 0.135825
20339.41016 0.135832
20339.82031 0.135839
20340.22070 0.135849
20340.63086 0.135862
20341.03906 0.135875
20341.44922 0.135888
20341.85938 0.135902
20342.25977 0.135915
20342.66992 0.135928
20343.08008 0.135941
20343.49023 0.135954
20343.89062 0.135967
20344.30078 0.13598
20344.71094 0.135993
20345.11914 0.136007
20345.52930 0.13602
20345.92969 0.136034
20346.33984 0.136047
20346.75000 0.136061
20347.16016 0.136074
20347.56055 0.136088
20347.97070 0.136101
20348.38086 0.136114
20348.78906 0.136128
20349.19922 0.136142
20349.59961 0.136155
20350.00977 0.136168
20350.41992 0.13617
20350.83008 0.136171
20351.23047 0.136173
20351.64062 0.136174
20352.05078 0.136175
20352.46094 0.136177
20352.86914 0.136178
20353.26953 0.13618
20353.67969 0.136181
20354.08984 0.136182
20354.50000 0.136184
20354.91016 0.136185
20355.31055 0.136192
20355.72070 0.1362
20356.13086 0.136209
20356.53906 0.136217
20356.94922 0.136225
20357.34961 0.136234
20357.75977 0.136242
20358.16992 0.13625
20358.58008 0.136259
20358.98047 0.136267
20359.39062 0.136275
20359.80078 0.136284
20360.21094 0.136293
20360.61914 0.136302
20361.02930 0.136312
20361.42969 0.136322
20361.83984 0.136331
20362.25000 0.136341
20362.66016 0.136351
20363.07031 0.13636
20363.47070 0.13637
20363.88086 0.13638
20364.28906 0.136389
20364.69922 0.136399
20365.10938 0.136407
20365.50977 0.136412
20365.91992 0.136416
20366.33008 0.136421
20366.74023 0.136425
20367.15039 0.136429
20367.55078 0.136434
20367.96094 0.136438
20368.36914 0.136442
20368.77930 0.136447
20369.18945 0.136451
20369.59961 0.136456
20370.00000 0.13646
20370.41016 0.136468
20370.82031 0.136475
20371.23047 0.136483
20371.64062 0.13649
20372.05078 0.136498
20372.46094 0.136505
20372.85938 0.136513
20373.26953 0.13652
20373.67969 0.136528
20374.08984 0.136536
20374.50000 0.136543
20374.90039 0.136551
20375.31055 0.136561
20375.72070 0.136573
20376.13086 0.136584
20376.53906 0.136595
20376.94922 0.136607
20377.34961 0.136618
20377.75977 0.136629
20378.16992 0.136641
20378.58008 0.136652
20378.99023 0.136664
20379.40039 0.136675
20379.80078 0.136686
20380.21094 0.136695
20380.61914 0.136702
20381.02930 0.136709
20381.43945 0.136716
20381.84961 0.136723
20382.25977 0.13673
20382.66016 0.136737
20383.07031 0.136744
20383.48047 0.13675
20383.89062 0.136757
20384.30078 0.136764
20384.71094 0.136771
20385.11914 0.136778
20385.51953 0.136788
20385.92969 0.136796
20386.33984 0.136805
20386.75000 0.136815
20387.16016 0.136823
20387.57031 0.136832
20387.97070 0.136842
20388.38086 0.13685
20388.78906 0.136859
20389.19922 0.136868
20389.60938 0.136877
20390.01953 0.136886
20390.42969 0.136891
20390.83984 0.136896
20391.24023 0.136901
20391.65039 0.136906
20392.06055 0.136911
20392.47070 0.136915
20392.88086 0.13692
20393.28906 0.136925
20393.69922 0.13693
20394.10938 0.136935
20394.50977 0.13694
20394.91992 0.136945
20395.33008 0.136948
20395.74023 0.136952
20396.15039 0.136955
20396.56055 0.136958
20396.97070 0.136961
20397.38086 0.136964
20397.77930 0.136968
20398.18945 0.136971
20398.59961 0.136974
20399.00977 0.136977
20399.41992 0.13698
20399.83008 0.136984
20400.24023 0.136992
20400.65039 0.137004
20401.05078 0.137015
20401.46094 0.137027
20401.86914 0.137039
20402.27930 0.13705
20402.68945 0.137062
20403.09961 0.137074
20403.50977 0.137085
20403.91992 0.137097
20404.33008 0.137109
20404.73047 0.13712
20405.14062 0.13713
20405.55078 0.137137
20405.96094 0.137144
20406.36914 0.137152
20406.77930 0.137158
20407.18945 0.137165
20407.59961 0.137173
20408.00977 0.13718
20408.41992 0.137187
20408.82031 0.137194
20409.23047 0.137201
20409.64062 0.137208
20410.05078 0.137214
20410.46094 0.137218
20410.86914 0.137222
20411.27930 0.137225
20411.68945 0.137229
20412.09961 0.137233
20412.50977 0.137236
20412.91992 0.13724
20413.32031 0.137244
20413.73047 0.137247
20414.14062 0.137251
20414.55078 0.137255
20414.96094 0.137259
20415.36914 0.137265
20415.77930 0.137271
20416.18945 0.137277
20416.59961 0.137284
20417.00977 0.13729
20417.41992 0.137297
20417.82031 0.137303
20418.23047 0.13731
20418.64062 0.137316
20419.05078 0.137322
20419.46094 0.137329
20419.86914 0.137335
20420.27930 0.137347
20420.68945 0.137361
20421.09961 0.137375
20421.50977 0.137389
20421.91992 0.137403
20422.33008 0.137417
20422.74023 0.137431
20423.14062 0.137445
20423.55078 0.137459
20423.96094 0.137473
20424.36914 0.137487
20424.77930 0.137501
20425.18945 0.137512
20425.59961 0.137519
20426.00977 0.137526
20426.41992 0.137533
20426.83008 0.13754
20427.24023 0.137547
20427.65039 0.137555
20428.06055 0.137562
20428.47070 0.137569
20428.88086 0.137576
20429.28906 0.137583
20429.69922 0.13759
20430.10938 0.137596
20430.50977 0.137601
20430.91992 0.137606
20431.33008 0.137611
20431.74023 0.137616
20432.15039 0.137621
20432.56055 0.137626
20432.97070 0.13763
20433.38086 0.137635
20433.78906 0.13764
20434.19922 0.137645
20434.60938 0.13765
20435.01953 0.137655
20435.42969 0.137665
20435.83984 0.137675
20436.25000 0.137686
20436.66016 0.137696
20437.07031 0.137706
20437.48047 0.137716
20437.88086 0.137727
20438.28906 0.137737
20438.71094 0.137747
20439.11914 0.137758
20439.51953 0.137768
20439.92969 0.137778
20440.33984 0.137783
20440.75000 0.137787
20441.16016 0.137792
20441.57031 0.137796
20441.98047 0.1378
20442.39062 0.137804
20442.80078 0.137808
20443.21094 0.137813
20443.61914 0.137817
20444.02930 0.137821
20444.43945 0.137825
20444.84961 0.137829
20445.25977 0.137836
20445.66992 0.137844
20446.08008 0.137852
20446.49023 0.13786
20446.90039 0.137868
20447.31055 0.137876
20447.72070 0.137884
20448.13086 0.137892
20448.53906 0.1379
20448.94922 0.137908
20449.35938 0.137916
20449.76953 0.137924
20450.17969 0.137932
20450.58984 0.13794
20451.00000 0.137948
20451.41016 0.137956
20451.82031 0.137964
20452.23047 0.137972
20452.64062 0.13798
20453.05078 0.137988
20453.46094 0.137996
20453.86914 0.138004
20454.27930 0.138012
20454.68945 0.13802
20455.09961 0.138027
20455.50977 0.138032
20455.91992 0.138037
20456.33008 0.138042
20456.74023 0.138047
20457.15039 0.138052
20457.56055 0.138057
20457.96094 0.138062
20458.38086 0.138067
20458.78906 0.138072
20459.19922 0.138077
20459.60938 0.138082
20460.01953 0.138088
20460.42969 0.138093
20460.83984 0.138099
20461.25000 0.138105
20461.66016 0.138111
20462.07031 0.138117
20462.48047 0.138122
20462.89062 0.138128
20463.30078 0.138134
20463.71094 0.13814
20464.11914 0.138146
20464.52930 0.138151
20464.93945 0.138157
20465.34961 0.138165
20465.75977 0.138172
20466.16992 0.13818
20466.58008 0.138188
20466.99023 0.138196
20467.40039 0.138204
20467.81055 0.138211
20468.22070 0.138219
20468.63086 0.138227
20469.03906 0.138235
20469.44922 0.138242
20469.85938 0.13825
20470.26953 0.138265
20470.67969 0.138283
20471.08984 0.138301
20471.50000 0.13832
20471.91016 0.138338
20472.32031 0.138356
20472.73047 0.138374
20473.14062 0.138393
20473.55078 0.138411
20473.96094 0.138429
20474.36914 0.138448
20474.77930 0.138466
20475.18945 0.13848
20475.59961 0.13849
20476.00977 0.138499
20476.41992 0.138509
20476.83008 0.138518
20477.24023 0.138528
20477.66016 0.138538
20478.07031 0.138547
20478.48047 0.138557
20478.89062 0.138566
20479.30078 0.138576
20479.71094 0.138585
20480.11914 0.138594
20480.52930 0.138603
20480.93945 0.138611
20481.34961 0.138619
20481.75977 0.138627
20482.16992 0.138635
20482.58008 0.138643
20482.99023 0.138651
20483.40039 0.138659
20483.81055 0.138668
20484.22070 0.138676
20484.63086 0.138684
20485.03906 0.138692
20485.46094 0.138696
20485.86914 0.1387
20486.27930 0.138704
20486.68945 0.138709
20487.09961 0.138713
20487.50977 0.138717
20487.91992 0.138721
20488.33008 0.138726
20488.74023 0.13873
20489.15039 0.138734
20489.56055 0.138738
20489.97070 0.138743
20490.38086 0.138753
20490.78906 0.138764
20491.19922 0.138775
20491.60938 0.138786
20492.02930 0.138796
20492.43945 0.138807
20492.84961 0.138818
20493.25977 0.138829
20493.66992 0.13884
20494.08008 0.13885
20494.49023 0.138861
20494.90039 0.138872
20495.31055 0.138877
20495.72070 0.138881
20496.13086 0.138885
20496.53906 0.138889
20496.94922 0.138893
20497.35938 0.138897
20497.77930 0.138901
20498.18945 0.138904
20498.59961 0.138908
20499.00977 0.138912
20499.41992 0.138916
20499.83008 0.13892
20500.24023 0.138934
20500.65039 0.138957
20501.06055 0.138979
20501.47070 0.139001
20501.88086 0.139023
20502.28906 0.139046
20502.71094 0.139068
20503.11914 0.13909
20503.52930 0.139113
20503.93945 0.139135
20504.34961 0.139157
20504.75977 0.139179
20505.16992 0.139194
20505.58008 0.139198
20505.99023 0.139203
20506.40039 0.139207
20506.81055 0.139211
20507.22070 0.139215
20507.64062 0.139219
20508.05078 0.139224
20508.46094 0.139228
20508.86914 0.139232
20509.27930 0.139236
20509.68945 0.13924
20510.09961 0.139246
20510.50977 0.139258
20510.91992 0.13927
20511.33984 0.139281
20511.75000 0.139293
20512.16016 0.139304
20512.57031 0.139316
20512.98047 0.139328
20513.39062 0.139339
20513.80078 0.139351
20514.21094 0.139363
20514.63086 0.139374
20515.03906 0.139386
20515.44922 0.139403
20515.85938 0.139419
20516.26953 0.139436
20516.67969 0.139452
20517.08984 0.139469
20517.50000 0.139485
20517.91016 0.139502
20518.33008 0.139518
20518.74023 0.139534
20519.15039 0.139551
20519.56055 0.139567
20519.97070 0.139584
20520.38086 0.139588
20520.78906 0.139592
20521.19922 0.139595
20521.61914 0.139599
20522.02930 0.139602
20522.43945 0.139605
20522.84961 0.139609
20523.25977 0.139612
20523.66992 0.139616
20524.08008 0.139619
20524.49023 0.139623
20524.91016 0.139626
20525.32031 0.13964
20525.73047 0.139657
20526.14062 0.139674
20526.55078 0.139691
20526.96094 0.139708
20527.36914 0.139725
20527.78906 0.139742
20528.19922 0.13976
20528.60938 0.139777
20529.01953 0.139794
20529.42969 0.139811
20529.83984 0.139828
20530.25000 0.139841
20530.66992 0.139851
20531.08008 0.139862
20531.49023 0.139872
20531.90039 0.139883
20532.31055 0.139893
20532.72070 0.139904
20533.13086 0.139914
20533.53906 0.139925
20533.96094 0.139935
20534.36914 0.139946
20534.77930 0.139957
20535.18945 0.139966
20535.59961 0.139975
20536.01953 0.139983
20536.42969 0.139991
20536.83984 0.14
20537.25000 0.140009
20537.66016 0.140017
20538.07031 0.140025
20538.48047 0.140034
20538.90039 0.140042
20539.31055 0.140051
20539.72070 0.140059
20540.13086 0.140071
20540.53906 0.14009
20540.96094 0.140108
20541.36914 0.140127
20541.77930 0.140146
20542.18945 0.140164
20542.59961 0.140183
20543.00977 0.140202
20543.41992 0.14022
20543.83984 0.140239
20544.25000 0.140258
20544.66016 0.140276
20545.07031 0.140295
20545.48047 0.140318
20545.89062 0.140341
20546.31055 0.140364
20546.72070 0.140386
20547.13086 0.140409
20547.53906 0.140431
20547.94922 0.140454
20548.36914 0.140477
20548.77930 0.140499
20549.18945 0.140522
20549.59961 0.140545
20550.00977 0.140567
20550.42969 0.140571
20550.83984 0.140576
20551.25000 0.14058
20551.66016 0.140585
20552.07031 0.140589
20552.48047 0.140593
20552.90039 0.140598
20553.31055 0.140602
20553.72070 0.140606
20554.13086 0.140611
20554.53906 0.140615
20554.96094 0.14062
20555.36914 0.140649
20555.77930 0.14068
20556.18945 0.140712
20556.59961 0.140744
20557.01953 0.140776
20557.42969 0.140808
20557.83984 0.14084
20558.25000 0.140871
20558.66016 0.140903
20559.08008 0.140935
20559.49023 0.140967
20559.90039 0.140999
20560.31055 0.141016
20560.72070 0.141029
20561.14062 0.141041
20561.55078 0.141054
20561.96094 0.141066
20562.36914 0.141079
20562.78906 0.141091
20563.19922 0.141104
20563.60938 0.141116
20564.01953 0.141129
20564.42969 0.141141
20564.84961 0.141154
20565.25977 0.141175
20565.66992 0.1412
20566.08008 0.141226
20566.49023 0.141252
20566.91016 0.141277
20567.32031 0.141303
20567.73047 0.141329
20568.14062 0.141354
20568.55078 0.14138
20568.97070 0.141406
20569.38086 0.141432
20569.78906 0.141458
20570.19922 0.141476
20570.61914 0.141486
20571.02930 0.141496
20571.43945 0.141506
20571.84961 0.141517
20572.26953 0.141527
20572.67969 0.141537
20573.08984 0.141547
20573.50000 0.141558
20573.91016 0.141568
20574.33008 0.141578
20574.74023 0.141588
20575.15039 0.141602
20575.56055 0.141623
20575.98047 0.141643
20576.39062 0.141664
20576.80078 0.141684
20577.21094 0.141704
20577.61914 0.141725
20578.03906 0.141745
20578.44922 0.141766
20578.85938 0.141786
20579.27930 0.141806
20579.68945 0.141827
20580.09961 0.141849
20580.50977 0.141876
20580.92969 0.141904
20581.33984 0.141931
20581.75000 0.141959
20582.16016 0.141986
20582.57031 0.142013
20582.99023 0.142041
20583.40039 0.142068
20583.81055 0.142096
20584.22070 0.142123
20584.64062 0.142151
20585.05078 0.142177
20585.46094 0.142198
20585.88086 0.142218
20586.28906 0.142239
20586.69922 0.142259
20587.10938 0.14228
20587.52930 0.1423
20587.93945 0.142321
20588.34961 0.142341
20588.75977 0.142362
20589.17969 0.142382
20589.58984 0.142402
20590.00000 0.142423
20590.41016 0.142446
20590.83008 0.142469
20591.24023 0.142493
20591.65039 0.142516
20592.06055 0.142539
20592.48047 0.142562
20592.89062 0.142585
20593.30078 0.142609
20593.71094 0.142632
20594.13086 0.142655
20594.53906 0.142678
20594.94922 0.142701
20595.36914 0.142723
20595.77930 0.142744
20596.18945 0.142766
20596.60938 0.142788
20597.01953 0.142809
20597.42969 0.14283
20597.83984 0.142852
20598.25977 0.142873
20598.66992 0.142895
20599.08008 0.142917
20599.49023 0.142938
20599.91016 0.14296
20600.32031 0.142984
20600.73047 0.14301
20601.15039 0.143036
20601.56055 0.143062
20601.97070 0.143088
20602.38086 0.143114
20602.80078 0.143139
20603.21094 0.143165
20603.61914 0.143191
20604.03906 0.143217
20604.44922 0.143243
20604.85938 0.143269
20605.27930 0.143301
20605.68945 0.143338
20606.09961 0.143374
20606.50977 0.14341
20606.92969 0.143447
20607.33984 0.143483
20607.75000 0.143519
20608.16992 0.143556
20608.58008 0.143592
20608.99023 0.143628
20609.40039 0.143665
20609.82031 0.143701
20610.23047 0.143727
20610.64062 0.143744
20611.06055 0.143761
20611.47070 0.143779
20611.88086 0.143796
20612.30078 0.143814
20612.71094 0.143831
20613.11914 0.143848
20613.53906 0.143866
20613.94922 0.143883
20614.35938 0.1439
20614.77930 0.143918
20615.18945 0.143943
20615.59961 0.143979
20616.00977 0.144014
20616.42969 0.144049
20616.83984 0.144085
20617.25000 0.14412
20617.66992 0.144156
20618.08008 0.144191
20618.49023 0.144226
20618.91016 0.144262
20619.32031 0.144297
20619.73047 0.144333
20620.15039 0.144366
20620.56055 0.144397
20620.97070 0.144428
20621.39062 0.144459
20621.80078 0.144489
20622.21094 0.14452
20622.63086 0.144551
20623.03906 0.144582
20623.44922 0.144613
20623.86914 0.144644
20624.27930 0.144674
20624.68945 0.144705
20625.10938 0.144734
20625.51953 0.144757
20625.92969 0.144781
20626.34961 0.144804
20626.75977 0.144827
20627.16992 0.144851
20627.58984 0.144874
20628.00000 0.144897
20628.41016 0.144921
20628.83008 0.144944
20629.24023 0.144967
20629.65039 0.144991
20630.07031 0.145015
20630.48047 0.145049
20630.89062 0.145082
20631.31055 0.145116
20631.72070 0.145149
20632.13086 0.145182
20632.55078 0.145216
20632.96094 0.145249
20633.38086 0.145282
20633.78906 0.145316
20634.19922 0.145349
20634.61914 0.145383
20635.02930 0.145416
20635.43945 0.145441
20635.85938 0.145467
20636.26953 0.145492
20636.67969 0.145518
20637.09961 0.145544
20637.50977 0.145569
20637.91992 0.145595
20638.33984 0.145621
20638.75000 0.145646
20639.16992 0.145672
20639.58008 0.145697
20639.99023 0.145723
20640.41016 0.145764
20640.82031 0.145805
20641.23047 0.145846
20641.65039 0.145887
20642.06055 0.145928
20642.47070 0.145969
20642.89062 0.14601
20643.30078 0.146051
20643.71094 0.146092
20644.13086 0.146133
20644.53906 0.146174
20644.96094 0.146215
20645.36914 0.146246
20645.78906 0.146276
20646.19922 0.146306
20646.60938 0.146335
20647.02930 0.146365
20647.43945 0.146395
20647.84961 0.146425
20648.26953 0.146455
20648.67969 0.146485
20649.09961 0.146514
20649.50977 0.146544
20649.91992 0.146574
20650.33984 0.146605
20650.75000 0.146636
20651.16016 0.146667
20651.58008 0.146699
20651.99023 0.14673
20652.41016 0.146761
20652.82031 0.146792
20653.23047 0.146823
20653.65039 0.146855
20654.06055 0.146886
20654.47070 0.146917
20654.89062 0.146948
20655.30078 0.146976
20655.72070 0.147003
20656.13086 0.14703
20656.53906 0.147057
20656.96094 0.147084
20657.36914 0.147111
20657.78906 0.147138
20658.19922 0.147165
20658.61914 0.147192
20659.02930 0.147219
20659.43945 0.147246
20659.85938 0.147273
20660.26953 0.14731
20660.68945 0.147353
20661.09961 0.147395
20661.50977 0.147438
20661.92969 0.14748
20662.33984 0.147523
20662.75977 0.147565
20663.16992 0.147608
20663.58008 0.14765
20664.00000 0.147693
20664.41016 0.147735
20664.83008 0.147778
20665.24023 0.147816
20665.65039 0.147852
20666.07031 0.147888
20666.48047 0.147924
20666.90039 0.14796
20667.31055 0.147996
20667.73047 0.148032
20668.14062 0.148067
20668.55078 0.148103
20668.97070 0.148139
20669.38086 0.148175
20669.80078 0.148211
20670.21094 0.148242
20670.63086 0.148268
20671.03906 0.148294
20671.44922 0.14832
20671.86914 0.148347
20672.27930 0.148373
20672.69922 0.148399
20673.10938 0.148425
20673.52930 0.148451
20673.93945 0.148477
20674.34961 0.148504
20674.76953 0.14853
20675.17969 0.14856
20675.59961 0.148596
20676.00977 0.148631
20676.42969 0.148667
20676.83984 0.148702
20677.25000 0.148738
20677.66992 0.148773
20678.08008 0.148809
20678.50000 0.148844
20678.91016 0.14888
20679.33008 0.148916
20679.74023 0.148951
20680.16016 0.148985
20680.57031 0.149017
20680.98047 0.149049
20681.40039 0.149081
20681.81055 0.149112
20682.23047 0.149144
20682.64062 0.149176
20683.06055 0.149207
20683.47070 0.149239
20683.89062 0.149271
20684.30078 0.149303
20684.71094 0.149334
20685.13086 0.149369
20685.53906 0.149412
20685.96094 0.149454
20686.36914 0.149496
20686.78906 0.149538
20687.19922 0.14958
20687.61914 0.149622
20688.02930 0.149665
20688.44922 0.149707
20688.85938 0.149749
20689.27930 0.149791
20689.68945 0.149834
20690.10938 0.149872
20690.51953 0.149897
20690.92969 0.149923
20691.34961 0.149948
20691.75977 0.149974
20692.17969 0.149999
20692.58984 0.150025
20693.00977 0.15005
20693.41992 0.150076
20693.83984 0.150101
20694.25000 0.150127
20694.66992 0.150152
20695.08008 0.150181
20695.50000 0.150221
20695.91016 0.150261
20696.33008 0.150301
20696.74023 0.150341
20697.16016 0.150381
20697.57031 0.150421
20697.98047 0.150461
20698.40039 0.150502
20698.81055 0.150542
20699.23047 0.150582
20699.64062 0.150622
20700.06055 0.150659
20700.47070 0.150675
20700.89062 0.150692
20701.30078 0.150708
20701.72070 0.150724
20702.13086 0.150741
20702.55078 0.150757
20702.96094 0.150773
20703.38086 0.15079
20703.78906 0.150806
20704.21094 0.150822
20704.61914 0.150838
20705.03906 0.150857
20705.44922 0.150896
20705.86914 0.150936
20706.27930 0.150975
20706.69922 0.151015
20707.10938 0.151054
20707.52930 0.151094
20707.93945 0.151133
20708.35938 0.151173
20708.76953 0.151212
20709.18945 0.151252
20709.59961 0.151291
20710.01953 0.15133
20710.42969 0.151349
20710.84961 0.151368
20711.25977 0.151388
20711.67969 0.151407
20712.08984 0.151426
20712.50977 0.151445
20712.91992 0.151465
20713.33984 0.151484
20713.75000 0.151503
20714.16992 0.151522
20714.58008 0.151542
20715.00000 0.151561
20715.41016 0.151583
20715.83008 0.151605
20716.24023 0.151627
20716.66016 0.151649
20717.08008 0.151671
20717.49023 0.151693
20717.91016 0.151715
20718.32031 0.151736
20718.74023 0.151758
20719.15039 0.15178
20719.57031 0.151802
20719.98047 0.151824
20720.40039 0.151838
20720.81055 0.151851
20721.23047 0.151865
20721.64062 0.151878
20722.06055 0.151891
20722.47070 0.151905
20722.89062 0.151918
20723.30078 0.151931
20723.72070 0.151945
20724.13086 0.151958
20724.55078 0.151972
20724.96094 0.151985
20725.38086 0.15201
20725.80078 0.152035
20726.21094 0.152061
20726.63086 0.152087
20727.03906 0.152113
20727.46094 0.152139
20727.86914 0.152164
20728.28906 0.15219
20728.69922 0.152216
20729.11914 0.152242
20729.53906 0.152268
20729.94922 0.152293
20730.36914 0.152307
20730.77930 0.152319
20731.19922 0.152332
20731.60938 0.152344
20732.02930 0.152356
20732.43945 0.152368
20732.85938 0.152381
20733.26953 0.152393
20733.68945 0.152405
20734.10938 0.152417
20734.51953 0.152429
20734.93945 0.152442
20735.34961 0.152456
20735.76953 0.15247
20736.17969 0.152484
20736.59961 0.152499
20737.00977 0.152513
20737.42969 0.152527
20737.84961 0.152541
20738.25977 0.152556
20738.67969 0.15257
20739.08984 0.152584
20739.50977 0.152599
20739.91992 0.152613
20740.33984 0.152621
20740.75977 0.152628
20741.16992 0.152635
20741.58984 0.152642
20742.00000 0.152649
20742.41992 0.152657
20742.83008 0.152664
20743.25000 0.152671
20743.66016 0.152678
20744.08008 0.152685
20744.50000 0.152692
20744.91016 0.152699
20745.33008 0.152713
20745.74023 0.152729
20746.16016 0.152745
20746.58008 0.152761
20746.99023 0.152777
20747.41016 0.152793
20747.82031 0.152809
20748.24023 0.152825
20748.65039 0.152841
20749.07031 0.152857
20749.49023 0.152873
20749.90039 0.152889
20750.32031 0.152889
20750.73047 0.152883
20751.15039 0.152878
20751.56055 0.152872
20751.98047 0.152867
20752.40039 0.152861
20752.81055 0.152856
20753.23047 0.15285
20753.64062 0.152845
20754.06055 0.152839
20754.48047 0.152834
20754.89062 0.152828
20755.31055 0.15282
20755.72070 0.152811
20756.14062 0.152801
20756.56055 0.152792
20756.97070 0.152783
20757.39062 0.152773
20757.80078 0.152764
20758.22070 0.152755
20758.64062 0.152746
20759.05078 0.152736
20759.47070 0.152727
20759.88086 0.152718
20760.30078 0.152708
20760.72070 0.152699
20761.13086 0.152689
20761.55078 0.15268
20761.96094 0.15267
20762.38086 0.152661
20762.80078 0.152651
20763.21094 0.152642
20763.63086 0.152632
20764.03906 0.152623
20764.46094 0.152613
20764.88086 0.152604
20765.28906 0.15259
20765.71094 0.152574
20766.13086 0.152558
20766.53906 0.152543
20766.96094 0.152527
20767.38086 0.152511
20767.78906 0.152496
20768.21094 0.15248
20768.61914 0.152464
20769.03906 0.152448
20769.46094 0.152433
20769.86914 0.152417
20770.28906 0.152403
20770.71094 0.152391
20771.11914 0.152378
20771.53906 0.152366
20771.94922 0.152353
20772.36914 0.152341
20772.78906 0.152328
20773.19922 0.152316
20773.61914 0.152303
20774.03906 0.152291
20774.44922 0.152278
20774.86914 0.152265
20775.28906 0.152242
20775.69922 0.152213
20776.11914 0.152184
20776.52930 0.152155
20776.94922 0.152126
20777.36914 0.152097
20777.77930 0.152069
20778.19922 0.15204
20778.61914 0.152011
20779.02930 0.151982
20779.44922 0.151953
20779.86914 0.151924
20780.27930 0.151885
20780.69922 0.151841
20781.11914 0.151797
20781.52930 0.151753
20781.94922 0.151709
20782.35938 0.151665
20782.77930 0.151621
20783.19922 0.151577
20783.60938 0.151533
20784.02930 0.151489
20784.44922 0.151444
20784.85938 0.1514
20785.27930 0.151358
20785.69922 0.151316
20786.10938 0.151274
20786.52930 0.151232
20786.94922 0.15119
20787.35938 0.151148
20787.77930 0.151107
20788.19922 0.151065
20788.60938 0.151023
20789.02930 0.150981
20789.44922 0.150939
20789.85938 0.150897
20790.27930 0.150853
20790.69922 0.150808
20791.10938 0.150763
20791.52930 0.150718
20791.94922 0.150673
20792.35938 0.150628
20792.77930 0.150583
20793.19922 0.150538
20793.60938 0.150493
20794.02930 0.150448
20794.44922 0.150403
20794.85938 0.150357
20795.27930 0.150305
20795.69922 0.150249
20796.10938 0.150193
20796.52930 0.150137
20796.94922 0.15008
20797.35938 0.150024
20797.77930 0.149968
20798.19922 0.149912
20798.60938 0.149856
20799.02930 0.149799
20799.44922 0.149743
20799.86914 0.149687
20800.27930 0.149628
20800.69922 0.149568
20801.11914 0.149507
20801.52930 0.149447
20801.94922 0.149386
20802.36914 0.149326
20802.77930 0.149266
20803.19922 0.149205
20803.61914 0.149145
20804.02930 0.149085
20804.44922 0.149024
20804.86914 0.148964
20805.28906 0.1489
20805.69922 0.148835
20806.11914 0.14877
20806.53906 0.148705
20806.94922 0.14864
20807.36914 0.148575
20807.78906 0.148509
20808.19922 0.148444
20808.61914 0.148379
20809.03906 0.148314
20809.46094 0.148249
20809.86914 0.148184
20810.28906 0.148112
20810.71094 0.148038
20811.11914 0.147964
20811.53906 0.147891
20811.96094 0.147816
20812.36914 0.147743
20812.78906 0.147669
20813.21094 0.147594
20813.61914 0.14752
20814.03906 0.147446
20814.46094 0.147372
20814.88086 0.147298
20815.28906 0.147208
20815.71094 0.14711
20816.13086 0.147013
20816.53906 0.146916
20816.96094 0.146818
20817.38086 0.146721
20817.80078 0.146624
20818.21094 0.146526
20818.63086 0.146429
20819.05078 0.146331
20819.47070 0.146233
20819.88086 0.146136
20820.30078 0.146038
20820.72070 0.145941
20821.13086 0.145843
20821.55078 0.145745
20821.97070 0.145647
20822.39062 0.145549
20822.80078 0.145451
20823.22070 0.145354
20823.64062 0.145255
20824.06055 0.145157
20824.47070 0.14506
20824.89062 0.144961
20825.31055 0.144852
20825.72070 0.144739
20826.14062 0.144626
20826.56055 0.144512
20826.98047 0.144399
20827.39062 0.144286
20827.81055 0.144172
20828.23047 0.144059
20828.65039 0.143946
20829.06055 0.143832
20829.48047 0.143718
20829.90039 0.143604
20830.32031 0.143493
20830.73047 0.143381
20831.15039 0.143269
20831.57031 0.143157
20831.99023 0.143046
20832.40039 0.142934
20832.82031 0.142822
20833.24023 0.14271
20833.66016 0.142598
20834.07031 0.142486
20834.49023 0.142374
20834.91016 0.142262
20835.33008 0.14213
20835.74023 0.141994
20836.16016 0.141857
20836.58008 0.141719
20837.00000 0.141582
20837.41992 0.141445
20837.83008 0.141308
20838.25000 0.141171
20838.66992 0.141033
20839.08984 0.140896
20839.50000 0.140758
20839.91992 0.140621
20840.33984 0.140493
20840.75977 0.140366
20841.16992 0.140239
20841.58984 0.140113
20842.00977 0.139986
20842.42969 0.139859
20842.84961 0.139732
20843.25977 0.139606
20843.67969 0.139479
20844.09961 0.139352
20844.51953 0.139226
20844.92969 0.139099
20845.34961 0.138955
20845.76953 0.138809
20846.18945 0.138662
20846.60938 0.138515
20847.01953 0.138369
20847.43945 0.138222
20847.85938 0.138076
20848.27930 0.137929
20848.68945 0.137782
20849.10938 0.137635
20849.52930 0.137488
20849.94922 0.137341
20850.36914 0.13718
20850.77930 0.137017
20851.19922 0.136855
20851.61914 0.136692
20852.03906 0.136529
20852.46094 0.136366
20852.86914 0.136202
20853.28906 0.136039
20853.71094 0.135876
20854.13086 0.135713
20854.53906 0.13555
20854.96094 0.135386
20855.38086 0.135215
20855.80078 0.135043
20856.22070 0.134871
20856.63086 0.134698
20857.05078 0.134526
20857.47070 0.134353
20857.89062 0.134181
20858.31055 0.134009
20858.72070 0.133836
20859.14062 0.133664
20859.56055 0.133491
20859.98047 0.133319
20860.40039 0.133157
20860.81055 0.132995
20861.23047 0.132834
20861.65039 0.132673
20862.07031 0.132512
20862.49023 0.13235
20862.90039 0.132189
20863.32031 0.132028
20863.74023 0.131865
20864.16016 0.131704
20864.58008 0.131542
20865.00000 0.131381
20865.41016 0.131195
20865.83008 0.131008
20866.25000 0.130822
20866.66992 0.130636
20867.08984 0.130449
20867.50000 0.130263
20867.91992 0.130076
20868.33984 0.129889
20868.75977 0.129702
20869.17969 0.129516
20869.59961 0.129329
20870.00977 0.129143
20870.42969 0.128963
20870.84961 0.128782
20871.26953 0.128603
20871.68945 0.128423
20872.10938 0.128243
20872.51953 0.128063
20872.93945 0.127884
20873.35938 0.127703
20873.77930 0.127523
20874.19922 0.127343
20874.61914 0.127163
20875.02930 0.126981
20875.44922 0.126773
20875.86914 0.126567
20876.28906 0.126361
20876.71094 0.126154
20877.11914 0.125948
20877.53906 0.12574
20877.96094 0.125534
20878.38086 0.125327
20878.80078 0.12512
20879.22070 0.124913
20879.64062 0.124706
20880.05078 0.124499
20880.47070 0.124289
20880.89062 0.124078
20881.31055 0.123869
20881.73047 0.123659
20882.15039 0.123449
20882.57031 0.123239
20882.98047 0.123029
20883.40039 0.122819
20883.82031 0.122608
20884.24023 0.122398
20884.66016 0.122188
20885.08008 0.121976
20885.50000 0.121751
20885.91016 0.121528
20886.33008 0.121305
20886.75000 0.121081
20887.16992 0.120858
20887.58984 0.120634
20888.00977 0.12041
20888.42969 0.120186
20888.83984 0.119963
20889.25977 0.119738
20889.67969 0.119514
20890.09961 0.119293
20890.51953 0.119079
20890.93945 0.118866
20891.35938 0.118652
20891.77930 0.118439
20892.18945 0.118225
20892.60938 0.118011
20893.02930 0.117798
20893.44922 0.117584
20893.86914 0.11737
20894.28906 0.117156
20894.71094 0.116942
20895.13086 0.116727
20895.53906 0.11651
20895.96094 0.116292
20896.38086 0.116074
20896.80078 0.115856
20897.22070 0.115639
20897.64062 0.11542
20898.06055 0.115203
20898.47070 0.114985
20898.89062 0.114767
20899.31055 0.114549
20899.73047 0.11433
20900.15039 0.114109
20900.57031 0.113878
20900.99023 0.113649
20901.41016 0.113418
20901.83008 0.113189
20902.25000 0.112958
20902.66016 0.112728
20903.08008 0.112498
20903.50000 0.112268
20903.91992 0.112037
20904.33984 0.111807
20904.75977 0.111576
20905.17969 0.111348
20905.59961 0.111122
20906.01953 0.110897
20906.43945 0.11067
20906.84961 0.110445
20907.26953 0.110218
20907.68945 0.109993
20908.10938 0.109766
20908.52930 0.10954
20908.94922 0.109313
20909.36914 0.109088
20909.78906 0.108861
20910.21094 0.108628
20910.61914 0.108386
20911.03906 0.108145
20911.46094 0.107904
20911.88086 0.107662
20912.30078 0.107422
20912.72070 0.10718
20913.14062 0.106938
20913.56055 0.106697
20913.98047 0.106455
20914.40039 0.106215
20914.82031 0.105972
20915.24023 0.10573
20915.65039 0.105487
20916.07031 0.105244
20916.49023 0.105002
20916.91016 0.104758
20917.33008 0.104515
20917.75000 0.104272
20918.16992 0.104028
20918.58984 0.103785
20919.00977 0.103542
20919.42969 0.103298
20919.84961 0.103055
20920.26953 0.102812
20920.68945 0.102569
20921.10938 0.102326
20921.51953 0.102083
20921.93945 0.10184
20922.35938 0.101597
20922.77930 0.101354
20923.19922 0.101111
20923.61914 0.100867
20924.03906 0.100625
20924.46094 0.100381
20924.88086 0.100137
20925.30078 0.099897
20925.72070 0.099659
20926.14062 0.09942
20926.56055 0.099181
20926.97070 0.098943
20927.39062 0.098704
20927.81055 0.098465
20928.23047 0.098226
20928.65039 0.097988
20929.07031 0.097749
20929.49023 0.097509
20929.91016 0.09727
20930.33008 0.097033
20930.75000 0.096796
20931.16992 0.096559
20931.58984 0.096322
20932.00977 0.096084
20932.42969 0.095848
20932.84961 0.095611
20933.26953 0.095373
20933.68945 0.095136
20934.10938 0.094898
20934.52930 0.094662
20934.94922 0.094424
20935.36914 0.094189
20935.78906 0.093955
20936.21094 0.09372
20936.61914 0.093487
20937.03906 0.093252
20937.46094 0.093018
20937.88086 0.092783
20938.30078 0.092548
20938.72070 0.092313
20939.14062 0.092079
20939.56055 0.091845
20939.98047 0.09161
20940.40039 0.091369
20940.82031 0.091128
20941.24023 0.090886
20941.66016 0.090645
20942.08008 0.090404
20942.50000 0.090162
20942.91992 0.089922
20943.33984 0.08968
20943.75977 0.089439
20944.17969 0.089197
20944.59961 0.088955
20945.01953 0.088714
20945.43945 0.088473
20945.85938 0.088233
20946.27930 0.087993
20946.69922 0.087753
20947.11914 0.087513
20947.53906 0.087272
20947.96094 0.087032
20948.38086 0.086792
20948.78906 0.086552
20949.21094 0.086311
20949.63086 0.086071
20950.05078 0.08583
20950.47070 0.085587
20950.89062 0.085344
20951.31055 0.085101
20951.73047 0.084857
20952.15039 0.084614
20952.57031 0.084371
20952.99023 0.084128
20953.41016 0.083884
20953.83008 0.083641
20954.25000 0.083397
20954.66992 0.083154
20955.08984 0.082913
20955.50977 0.082683
20955.92969 0.082452
20956.34961 0.082222
20956.76953 0.081992
20957.18945 0.081761
20957.61914 0.081529
20958.03906 0.081299
20958.46094 0.081068
20958.86914 0.080837
20959.28906 0.080607
20959.71094 0.080376
20960.13086 0.080148
20960.55078 0.079928
20960.97070 0.079707
20961.39062 0.079487
20961.81055 0.079266
20962.23047 0.079045
20962.65039 0.078825
20963.08008 0.078603
20963.50000 0.078382
20963.91992 0.078161
20964.33984 0.07794
20964.75977 0.077719
20965.17969 0.077496
20965.59961 0.077269
20966.01953 0.077042
20966.43945 0.076815
20966.85938 0.076586
20967.27930 0.076359
20967.69922 0.076132
20968.11914 0.075905
20968.53906 0.075677
20968.96094 0.07545
20969.38086 0.075222
20969.80078 0.074994
20970.22070 0.074775
20970.64062 0.074565
20971.06055 0.074354
20971.48047 0.074143
20971.90039 0.073931
20972.32031 0.07372
20972.74023 0.073509
20973.16016 0.073298
20973.58008 0.073087
20974.00000 0.072875
20974.41992 0.072664
20974.83984 0.072453
20975.25977 0.072235
20975.67969 0.072013
20976.09961 0.071791
20976.51953 0.07157
20976.93945 0.071349
20977.36914 0.071126
20977.78906 0.070905
20978.21094 0.070683
20978.63086 0.070462
20979.05078 0.070239
20979.47070 0.070017
20979.89062 0.069795
20980.31055 0.06957
20980.73047 0.069342
20981.15039 0.069116
20981.57031 0.068889
20981.99023 0.068661
20982.41016 0.068434
20982.83008 0.068207
20983.25000 0.067979
20983.66992 0.067752
20984.08984 0.067525
20984.50977 0.067298
20984.92969 0.06707
20985.34961 0.066856
20985.76953 0.066644
20986.19922 0.066431
20986.61914 0.066219
20987.03906 0.066007
20987.46094 0.065795
20987.88086 0.065583
20988.30078 0.06537
20988.72070 0.065158
20989.14062 0.064946
20989.56055 0.064733
20989.98047 0.06452
20990.40039 0.064332
20990.82031 0.064144
20991.24023 0.063957
20991.66016 0.063769
20992.08008 0.063581
20992.50000 0.063394
20992.92969 0.063206
20993.34961 0.063018
20993.76953 0.06283
20994.18945 0.062642
20994.60938 0.062454
20995.02930 0.062266
20995.44922 0.062073
20995.86914 0.06188
20996.28906 0.061687
20996.71094 0.061493
20997.13086 0.061301
20997.55078 0.061107
20997.97070 0.060914
20998.40039 0.06072
20998.82031 0.060527
20999.24023 0.060334
20999.66016 0.06014
21000.08008 0.059946
21000.50000 0.05975
21000.91992 0.059555
21001.33984 0.059358
21001.75977 0.059163
21002.17969 0.058967
21002.59961 0.058771
21003.02930 0.058575
21003.44922 0.058379
21003.86914 0.058183
21004.28906 0.057987
21004.71094 0.057791
21005.13086 0.057597
21005.55078 0.05741
21005.97070 0.057222
21006.39062 0.057035
21006.81055 0.056847
21007.23047 0.05666
21007.66016 0.056472
21008.08008 0.056284
21008.50000 0.056096
21008.91992 0.055908
21009.33984 0.055721
21009.75977 0.055533
21010.17969 0.055346
21010.59961 0.055157
21011.02930 0.054969
21011.44922 0.054782
21011.86914 0.054593
21012.28906 0.054406
21012.71094 0.054218
21013.13086 0.054029
21013.55078 0.053842
21013.97070 0.053653
21014.39062 0.053466
21014.81055 0.053278
21015.24023 0.053091
21015.66016 0.052905
21016.08008 0.052719
21016.50000 0.052533
21016.91992 0.052348
21017.33984 0.052161
21017.75977 0.051975
21018.17969 0.05179
21018.60938 0.051604
21019.02930 0.051418
21019.44922 0.051232
21019.86914 0.051046
21020.28906 0.050872
21020.71094 0.050705
21021.13086 0.050536
21021.55078 0.050368
21021.97070 0.050201
21022.40039 0.050032
21022.82031 0.049864
21023.24023 0.049696
21023.66016 0.049528
21024.08008 0.04936
21024.50000 0.049192
21024.92969 0.049023
21025.34961 0.048864
21025.76953 0.048706
21026.18945 0.048548
21026.60938 0.04839
21027.02930 0.048232
21027.44922 0.048074
21027.88086 0.047916
21028.30078 0.047758
21028.72070 0.0476
21029.14062 0.047442
21029.56055 0.047284
21029.98047 0.047126
21030.40039 0.046967
21030.82031 0.046809
21031.25000 0.046651
21031.66992 0.046492
21032.08984 0.046333
21032.50977 0.046175
21032.92969 0.046017
21033.34961 0.045858
21033.77930 0.0457
21034.19922 0.045541
21034.61914 0.045382
21035.03906 0.045225
21035.46094 0.045077
21035.88086 0.04493
21036.30078 0.044782
21036.73047 0.044634
21037.15039 0.044486
21037.57031 0.044338
21037.99023 0.044191
21038.41016 0.044043
21038.83008 0.043896
21039.25977 0.043748
21039.67969 0.0436
21040.09961 0.043449
21040.51953 0.04329
21040.93945 0.04313
21041.36914 0.04297
21041.78906 0.042811
21042.21094 0.042651
21042.63086 0.042492
21043.05078 0.042333
21043.47070 0.042173
21043.89062 0.042013
21044.32031 0.041854
21044.74023 0.041694
21045.16016 0.041539
21045.58008 0.041392
21046.00000 0.041245
21046.42969 0.041099
21046.84961 0.040952
21047.26953 0.040805
21047.68945 0.040658
21048.10938 0.040511
21048.53906 0.040364
21048.96094 0.040217
21049.38086 0.04007
21049.80078 0.039923
21050.22070 0.039783
21050.64062 0.039648
21051.07031 0.039513
21051.49023 0.039378
21051.91016 0.039243
21052.33008 0.039108
21052.75000 0.038973
21053.17969 0.038838
21053.59961 0.038703
21054.01953 0.038568
21054.43945 0.038433
21054.85938 0.038298
21055.28906 0.03817
21055.71094 0.038045
21056.13086 0.03792
21056.55078 0.037796
21056.97070 0.037671
21057.39062 0.037546
21057.82031 0.037421
21058.24023 0.037296
21058.66016 0.03717
21059.08008 0.037046
21059.50977 0.036921
21059.92969 0.036796
21060.34961 0.036667
21060.76953 0.036538
21061.18945 0.036409
21061.61914 0.03628
21062.03906 0.036151
21062.46094 0.036022
21062.88086 0.035893
21063.30078 0.035764
21063.73047 0.035635
21064.15039 0.035506
21064.57031 0.035377
21064.99023 0.035248
21065.41016 0.035132
21065.83984 0.035016
21066.25977 0.034901
21066.67969 0.034786
21067.09961 0.03467
21067.52930 0.034555
21067.94922 0.03444
21068.36914 0.034324
21068.78906 0.034208
21069.21094 0.034093
21069.64062 0.033978
21070.06055 0.033862
21070.48047 0.033745
21070.90039 0.033628
21071.33008 0.033511
21071.75000 0.033395
21072.16992 0.033277
21072.58984 0.033161
21073.01953 0.033044
21073.43945 0.032927
21073.85938 0.032811
21074.27930 0.032693
21074.71094 0.032577
21075.13086 0.032459
21075.55078 0.032338
21075.97070 0.032217
21076.39062 0.032097
21076.82031 0.031977
21077.24023 0.031856
21077.66016 0.031735
21078.08008 0.031615
21078.50977 0.031495
21078.92969 0.031374
21079.34961 0.031253
21079.76953 0.031133
21080.19922 0.031019
21080.61914 0.030913
21081.03906 0.030807
21081.46094 0.030701
21081.89062 0.030595
21082.31055 0.030489
21082.73047 0.030383
21083.15039 0.030277
21083.58008 0.030171
21084.00000 0.030065
21084.41992 0.029959
21084.83984 0.029853
21085.26953 0.029752
21085.68945 0.029655
21086.10938 0.029558
21086.53906 0.029461
21086.96094 0.029364
21087.38086 0.029267
21087.80078 0.02917
21088.22070 0.029073
21088.65039 0.028975
21089.07031 0.028878
21089.49023 0.028781
21089.91992 0.028684
21090.33984 0.028593
21090.75977 0.028502
21091.17969 0.028412
21091.60938 0.028323
21092.02930 0.028232
21092.44922 0.028142
21092.86914 0.028052
21093.30078 0.027962
21093.72070 0.027872
21094.14062 0.027782
21094.57031 0.027692
21094.99023 0.027602
21095.41016 0.027508
21095.83008 0.027414
21096.25977 0.027321
21096.67969 0.027226
21097.09961 0.027133
21097.52930 0.027039
21097.94922 0.026945
21098.36914 0.026851
21098.78906 0.026757
21099.22070 0.026663
21099.64062 0.02657
21100.06055 0.026474
21100.48047 0.026371
21100.91016 0.026268
21101.33008 0.026165
21101.75000 0.026062
21102.17969 0.025959
21102.59961 0.025855
21103.01953 0.025752
21103.44922 0.025649
21103.86914 0.025545
21104.28906 0.025442
21104.71094 0.025339
21105.14062 0.025239
21105.56055 0.025147
21105.98047 0.025055
21106.41016 0.024962
21106.83008 0.02487
21107.25000 0.024777
21107.67969 0.024685
21108.09961 0.024592
21108.51953 0.0245
21108.93945 0.024408
21109.36914 0.024315
21109.78906 0.024222
21110.21094 0.024142
21110.64062 0.024073
21111.06055 0.024004
21111.48047 0.023935
21111.91016 0.023866
21112.33008 0.023797
21112.75000 0.023728
21113.17969 0.023659
21113.59961 0.02359
21114.01953 0.023521
21114.44922 0.023452
21114.86914 0.023383
21115.28906 0.023306
21115.71094 0.023224
21116.14062 0.023142
21116.56055 0.02306
21116.98047 0.022979
21117.41016 0.022897
21117.83008 0.022815
21118.25000 0.022733
21118.67969 0.022652
21119.09961 0.02257
21119.51953 0.022488
21119.94922 0.022406
21120.36914 0.022328
21120.78906 0.02225
21121.22070 0.022172
21121.64062 0.022094
21122.06055 0.022016
21122.49023 0.021937
21122.91016 0.021859
21123.33008 0.021781
21123.75977 0.021703
21124.17969 0.021625
21124.59961 0.021547
21125.02930 0.021469
21125.44922 0.021403
21125.86914 0.021337
21126.30078 0.021271
21126.72070 0.021205
21127.14062 0.021139
21127.57031 0.021073
21127.99023 0.021007
21128.41016 0.02094
21128.83984 0.020874
21129.25977 0.020808
21129.67969 0.020742
21130.10938 0.020674
21130.52930 0.020602
21130.96094 0.020529
21131.38086 0.020457
21131.80078 0.020384
21132.22070 0.020311
21132.65039 0.020239
21133.07031 0.020166
21133.50000 0.020093
21133.91992 0.020021
21134.33984 0.019948
21134.76953 0.019876
21135.18945 0.019802
21135.60938 0.019727
21136.03906 0.019653
21136.46094 0.019578
21136.88086 0.019503
21137.31055 0.019429
21137.73047 0.019355
21138.15039 0.01928
21138.58008 0.019205
21139.00000 0.019131
21139.42969 0.019056
21139.84961 0.018981
21140.26953 0.018911
21140.69922 0.018843
21141.11914 0.018775
21141.53906 0.018707
21141.97070 0.018639
21142.39062 0.018571
21142.81055 0.018504
21143.24023 0.018436
21143.66016 0.018368
21144.08984 0.0183
21144.50977 0.018232
21144.92969 0.018164
21145.35938 0.018112
21145.77930 0.018063
21146.21094 0.018013
21146.63086 0.017964
21147.05078 0.017915
21147.48047 0.017866
21147.90039 0.017816
21148.32031 0.017767
21148.75000 0.017718
21149.16992 0.017669
21149.59961 0.01762
21150.01953 0.01757
21150.43945 0.017507
21150.86914 0.017445
21151.28906 0.017382
21151.71094 0.017319
21152.14062 0.017257
21152.56055 0.017194
21152.99023 0.017131
21153.41016 0.017069
21153.83984 0.017006
21154.25977 0.016944
21154.67969 0.016881
21155.10938 0.016821
21155.52930 0.016767
21155.96094 0.016713
21156.38086 0.01666
21156.80078 0.016606
21157.23047 0.016552
21157.65039 0.016498
21158.07031 0.016445
21158.50000 0.016391
21158.91992 0.016337
21159.34961 0.016283
21159.76953 0.016229
21160.19922 0.016179
21160.61914 0.016132
21161.03906 0.016084
21161.47070 0.016037
21161.89062 0.01599
21162.32031 0.015943
21162.74023 0.015896
21163.16016 0.015849
21163.58984 0.015801
21164.00977 0.015754
21164.43945 0.015707
21164.85938 0.01566
21165.28906 0.015609
21165.71094 0.015556
21166.13086 0.015503
21166.56055 0.015451
21166.98047 0.015398
21167.41016 0.015345
21167.83008 0.015292
21168.25000 0.01524
21168.67969 0.015187
21169.09961 0.015134
21169.52930 0.015081
21169.94922 0.015028
21170.36914 0.014977
21170.80078 0.014926
21171.22070 0.014875
21171.65039 0.014824
21172.07031 0.014774
21172.50000 0.014723
21172.91992 0.014672
21173.34961 0.014621
21173.76953 0.01457
21174.19922 0.014519
21174.61914 0.014468
21175.03906 0.014418
21175.47070 0.014372
21175.89062 0.014326
21176.32031 0.014281
21176.74023 0.014235
21177.16992 0.014189
21177.58984 0.014144
21178.00977 0.014098
21178.43945 0.014052
21178.85938 0.014007
21179.28906 0.013961
21179.71094 0.013915
21180.14062 0.013869
21180.56055 0.013822
21180.99023 0.013775
21181.41016 0.013729
21181.83008 0.013682
21182.25977 0.013635
21182.67969 0.013588
21183.10938 0.013541
21183.52930 0.013494
21183.96094 0.013447
21184.38086 0.0134
21184.81055 0.013353
21185.23047 0.013308
21185.66016 0.013265
21186.08008 0.013221
21186.50000 0.013178
21186.92969 0.013135
21187.34961 0.013092
21187.77930 0.013048
21188.19922 0.013005
21188.63086 0.012962
21189.05078 0.012918
21189.48047 0.012875
21189.90039 0.012831
21190.33008 0.012788
21190.75000 0.012745
21191.17969 0.012701
21191.59961 0.012658
21192.02930 0.012614
21192.44922 0.012571
21192.86914 0.012528
21193.30078 0.012484
21193.72070 0.012441
21194.15039 0.012397
21194.57031 0.012354
21195.00000 0.01231
21195.41992 0.012261
21195.84961 0.012213
21196.26953 0.012164
21196.69922 0.012115
21197.11914 0.012066
21197.55078 0.012017
21197.97070 0.011968
21198.40039 0.01192
21198.82031 0.011871
21199.25000 0.011822
21199.66992 0.011773
21200.09961 0.01173
21200.51953 0.011707
21200.94922 0.011685
21201.36914 0.011662
21201.78906 0.011639
21202.22070 0.011617
21202.65039 0.011594
21203.07031 0.011571
21203.50000 0.011549
21203.91992 0.011526
21204.34961 0.011504
21204.76953 0.011481
21205.19922 0.011451
21205.61914 0.011413
21206.03906 0.011374
21206.47070 0.011336
21206.89062 0.011298
21207.32031 0.011259
21207.75000 0.011221
21208.16992 0.011183
21208.59961 0.011144
21209.01953 0.011106
21209.44922 0.011068
21209.86914 0.011029
21210.28906 0.010986
21210.72070 0.01094
21211.15039 0.010894
21211.57031 0.010849
21212.00000 0.010803
21212.41992 0.010757
21212.84961 0.010712
21213.26953 0.010666
21213.69922 0.01062
21214.11914 0.010574
21214.55078 0.010529
21214.97070 0.010483
21215.40039 0.010452
21215.82031 0.010422
21216.25000 0.010392
21216.66992 0.010362
21217.09961 0.010332
21217.51953 0.010302
21217.94922 0.010272
21218.36914 0.010242
21218.80078 0.010212
21219.22070 0.010182
21219.65039 0.010152
21220.07031 0.010124
21220.50000 0.010102
21220.92969 0.01008
21221.34961 0.010058
21221.77930 0.010037
21222.19922 0.010015
21222.63086 0.009993
21223.05078 0.009972
21223.48047 0.00995
21223.90039 0.009928
21224.33008 0.009907
21224.75000 0.009885
21225.17969 0.009859
21225.59961 0.009827
21226.02930 0.009796
21226.46094 0.009764
21226.88086 0.009733
21227.31055 0.009701
21227.73047 0.00967
21228.16016 0.009638
21228.58008 0.009606
21229.00977 0.009575
21229.42969 0.009543
21229.85938 0.009512
21230.27930 0.009484
21230.71094 0.009457
21231.13086 0.009431
21231.56055 0.009405
21231.99023 0.009378
21232.41016 0.009352
21232.83984 0.009326
21233.25977 0.0093
21233.68945 0.009273
21234.10938 0.009247
21234.53906 0.009221
21234.96094 0.009194
21235.39062 0.009168
21235.82031 0.009142
21236.24023 0.009117
21236.66992 0.009091
21237.08984 0.009065
21237.51953 0.009039
21237.93945 0.009013
21238.36914 0.008987
21238.78906 0.008961
21239.22070 0.008935
21239.65039 0.008909
21240.07031 0.008881
21240.50000 0.008843
21240.91992 0.008805
21241.34961 0.008767
21241.77930 0.008729
21242.19922 0.008691
21242.63086 0.008653
21243.05078 0.008615
21243.48047 0.008577
21243.90039 0.008539
21244.33008 0.008501
21244.75977 0.008462
21245.17969 0.008427
21245.60938 0.008396
21246.02930 0.008364
21246.46094 0.008332
21246.88086 0.008301
21247.31055 0.008269
21247.74023 0.008238
21248.16016 0.008206
21248.58984 0.008175
21249.00977 0.008143
21249.43945 0.008112
21249.86914 0.00808
21250.28906 0.00806
21250.72070 0.008046
21251.14062 0.008032
21251.57031 0.008018
21251.99023 0.008003
21252.41992 0.007989
21252.84961 0.007975
21253.26953 0.007961
21253.69922 0.007947
21254.11914 0.007932
21254.55078 0.007918
21254.98047 0.007904
21255.40039 0.007886
21255.83008 0.007869
21256.25000 0.007851
21256.67969 0.007833
21257.10938 0.007815
21257.52930 0.007797
21257.96094 0.00778
21258.38086 0.007762
21258.81055 0.007744
21259.24023 0.007726
21259.66016 0.007709
21260.08984 0.00769
21260.51953 0.007669
21260.93945 0.007648
21261.36914 0.007627
21261.78906 0.007605
21262.22070 0.007584
21262.64062 0.007563
21263.07031 0.007542
21263.50000 0.007521
21263.91992 0.0075
21264.34961 0.007478
21264.77930 0.007457
21265.19922 0.007434
21265.63086 0.007408
21266.05078 0.007382
21266.48047 0.007355
21266.91016 0.007329
21267.33008 0.007303
21267.75977 0.007277
21268.18945 0.007251
21268.60938 0.007225
21269.03906 0.007199
21269.46094 0.007173
21269.89062 0.007147
21270.32031 0.007123
21270.74023 0.007099
21271.16992 0.007076
21271.59961 0.007053
21272.01953 0.007029
21272.44922 0.007006
21272.86914 0.006982
21273.30078 0.006959
21273.73047 0.006936
21274.15039 0.006912
21274.58008 0.006889
21275.00977 0.006866
21275.42969 0.006837
21275.85938 0.006809
21276.28906 0.006781
21276.71094 0.006753
21277.14062 0.006725
21277.56055 0.006697
21277.99023 0.006669
21278.41992 0.006641
21278.83984 0.006613
21279.26953 0.006585
21279.69922 0.006557
21280.11914 0.006533
21280.55078 0.00652
21280.98047 0.006507
21281.40039 0.006494
21281.83008 0.006481
21282.25977 0.006468
21282.67969 0.006455
21283.10938 0.006442
21283.53906 0.006429
21283.96094 0.006416
21284.39062 0.006403
21284.82031 0.00639
21285.24023 0.006374
21285.66992 0.006354
21286.09961 0.006335
21286.51953 0.006315
21286.94922 0.006295
21287.38086 0.006276
21287.80078 0.006256
21288.23047 0.006237
21288.65039 0.006217
21289.08008 0.006198
21289.50977 0.006178
21289.93945 0.006159
21290.35938 0.006148
21290.78906 0.006139
21291.21094 0.006131
21291.64062 0.006122
21292.07031 0.006113
21292.50000 0.006104
21292.91992 0.006095
21293.34961 0.006086
21293.77930 0.006078
21294.19922 0.006069
21294.63086 0.00606
21295.06055 0.006049
21295.48047 0.006028
21295.91016 0.006006
21296.33984 0.005985
21296.75977 0.005963
21297.18945 0.005941
21297.61914 0.00592
21298.03906 0.005898
21298.47070 0.005877
21298.90039 0.005855
21299.32031 0.005833
21299.75000 0.005812
21300.17969 0.005788
21300.60938 0.005762
21301.02930 0.005736
21301.46094 0.00571
21301.88086 0.005685
21302.31055 0.005659
21302.74023 0.005633
21303.16992 0.005607
21303.58984 0.005581
21304.01953 0.005555
21304.44922 0.005529
21304.88086 0.005503
21305.30078 0.005492
21305.73047 0.005488
21306.15039 0.005484
21306.58008 0.005479
21307.00977 0.005475
21307.43945 0.00547
21307.85938 0.005466
21308.28906 0.005462
21308.72070 0.005457
21309.14062 0.005453
21309.57031 0.005448
21310.00000 0.005444
21310.42969 0.005427
21310.84961 0.005411
21311.27930 0.005394
21311.71094 0.005378
21312.13086 0.005361
21312.56055 0.005345
21312.99023 0.005328
21313.41992 0.005311
21313.83984 0.005295
21314.26953 0.005278
21314.69922 0.005262
21315.11914 0.005242
21315.55078 0.005217
21315.98047 0.005191
21316.41016 0.005165
21316.83008 0.00514
21317.25977 0.005114
21317.68945 0.005089
21318.11914 0.005063
21318.53906 0.005037
21318.97070 0.005012
21319.40039 0.004986
21319.82031 0.00496
21320.25000 0.004944
21320.67969 0.004933
21321.10938 0.004923
21321.52930 0.004912
21321.96094 0.004902
21322.39062 0.004891
21322.81055 0.004881
21323.24023 0.00487
21323.66992 0.00486
21324.09961 0.00485
21324.51953 0.004839
21324.94922 0.004829
21325.38086 0.004825
21325.81055 0.004822
21326.23047 0.004819
21326.66016 0.004816
21327.08984 0.004813
21327.51953 0.00481
21327.93945 0.004807
21328.36914 0.004803
21328.80078 0.0048
21329.23047 0.004797
21329.65039 0.004794
21330.08008 0.004788
21330.50977 0.004764
21330.93945 0.004741
21331.35938 0.004718
21331.78906 0.004695
21332.22070 0.004672
21332.65039 0.004649
21333.07031 0.004626
21333.50000 0.004602
21333.92969 0.004579
21334.35938 0.004556
21334.77930 0.004533
21335.21094 0.004516
21335.64062 0.004505
21336.07031 0.004494
21336.49023 0.004483
21336.91992 0.004471
21337.34961 0.00446
21337.77930 0.004449
21338.21094 0.004438
21338.63086 0.004427
21339.06055 0.004416
21339.49023 0.004405
21339.91016 0.004394
21340.33984 0.004384
21340.76953 0.004375
21341.19922 0.004365
21341.63086 0.004356
21342.05078 0.004346
21342.48047 0.004337
21342.91016 0.004327
21343.33984 0.004318
21343.75977 0.004308
21344.18945 0.004299
21344.61914 0.004289
21345.05078 0.00428
21345.47070 0.004273
21345.90039 0.004265
21346.33008 0.004258
21346.75977 0.004251
21347.18945 0.004244
21347.61914 0.004236
21348.03906 0.004229
21348.47070 0.004222
21348.90039 0.004215
21349.33008 0.004207
21349.75000 0.0042
21350.17969 0.004191
21350.60938 0.00418
21351.03906 0.00417
21351.46094 0.004159
21351.89062 0.004148
21352.32031 0.004137
21352.75000 0.004126
21353.17969 0.004115
21353.60938 0.004105
21354.02930 0.004094
21354.46094 0.004083
21354.89062 0.004072
21355.32031 0.004063
21355.74023 0.004055
21356.16992 0.004046
21356.59961 0.004038
21357.02930 0.00403
21357.46094 0.004021
21357.88086 0.004013
21358.31055 0.004005
21358.74023 0.003996
21359.16992 0.003988
21359.59961 0.00398
21360.02930 0.003971
21360.44922 0.00396
21360.88086 0.003949
21361.31055 0.003938
21361.74023 0.003927
21362.16992 0.003916
21362.58984 0.003905
21363.01953 0.003894
21363.44922 0.003883
21363.88086 0.003872
21364.31055 0.003861
21364.73047 0.00385
21365.16016 0.003833
21365.58984 0.003806
21366.01953 0.003779
21366.44922 0.003753
21366.86914 0.003726
21367.30078 0.003699
21367.73047 0.003672
21368.16016 0.003645
21368.58984 0.003618
21369.01953 0.003591
21369.44922 0.003564
21369.86914 0.003537
21370.30078 0.00353
21370.73047 0.003532
21371.16016 0.003533
21371.58984 0.003535
21372.01953 0.003536
21372.43945 0.003538
21372.86914 0.00354
21373.30078 0.003541
21373.73047 0.003543
21374.16016 0.003545
21374.58984 0.003546
21375.00977 0.003548
21375.43945 0.003536
21375.86914 0.003524
21376.30078 0.003513
21376.73047 0.003501
21377.16016 0.003489
21377.58008 0.003478
21378.00977 0.003466
21378.43945 0.003455
21378.86914 0.003443
21379.30078 0.003431
21379.73047 0.00342
21380.15039 0.003408
21380.58008 0.003396
21381.00977 0.003385
21381.43945 0.003373
21381.86914 0.003361
21382.30078 0.003349
21382.73047 0.003338
21383.15039 0.003326
21383.58008 0.003314
21384.00977 0.003302
21384.43945 0.003291
21384.86914 0.003279
21385.30078 0.003269
21385.73047 0.00326
21386.15039 0.003251
21386.58008 0.003242
21387.00977 0.003233
21387.43945 0.003224
21387.86914 0.003215
21388.30078 0.003206
21388.73047 0.003197
21389.15039 0.003188
21389.58008 0.003179
21390.00977 0.00317
21390.43945 0.003167
21390.86914 0.003164
21391.30078 0.00316
21391.73047 0.003157
21392.16016 0.003153
21392.58008 0.00315
21393.00977 0.003147
21393.43945 0.003143
21393.86914 0.00314
21394.30078 0.003136
21394.73047 0.003133
21395.16016 0.003132
21395.58984 0.003135
21396.00977 0.003138
21396.43945 0.003141
21396.86914 0.003144
21397.30078 0.003146
21397.73047 0.003149
21398.16016 0.003152
21398.58984 0.003155
21399.01953 0.003158
21399.44922 0.003161
21399.88086 0.003164
21400.30078 0.003153
21400.73047 0.003137
21401.16016 0.003121
21401.58984 0.003105
21402.01953 0.003089
21402.44922 0.003073
21402.88086 0.003057
21403.30078 0.00304
21403.73047 0.003024
21404.16016 0.003008
21404.58984 0.002992
21405.01953 0.002976
21405.44922 0.002966
21405.88086 0.002957
21406.31055 0.002947
21406.74023 0.002937
21407.16992 0.002927
21407.59961 0.002918
21408.02930 0.002908
21408.44922 0.002898
21408.88086 0.002888
21409.31055 0.002879
21409.74023 0.002869
21410.16992 0.002857
21410.59961 0.002843
21411.02930 0.002829
21411.46094 0.002814
21411.89062 0.0028
21412.31055 0.002785
21412.74023 0.002771
21413.16992 0.002757
21413.59961 0.002742
21414.02930 0.002728
21414.46094 0.002713
21414.89062 0.002699
21415.32031 0.002699
21415.75000 0.002704
21416.17969 0.002709
21416.60938 0.002714
21417.03906 0.00272
21417.46094 0.002725
21417.89062 0.00273
21418.32031 0.002735
21418.75000 0.00274
21419.17969 0.002745
21419.60938 0.00275
21420.03906 0.002754
21420.47070 0.002744
21420.90039 0.002735
21421.33008 0.002726
21421.75977 0.002717
21422.18945 0.002707
21422.61914 0.002698
21423.05078 0.002689
21423.48047 0.002679
21423.90039 0.00267
21424.33008 0.002661
21424.75977 0.002652
21425.18945 0.002644
21425.61914 0.002637
21426.05078 0.002631
21426.48047 0.002624
21426.91016 0.002618
21427.33984 0.002612
21427.76953 0.002605
21428.19922 0.002599
21428.63086 0.002593
21429.06055 0.002586
21429.49023 0.00258
21429.91992 0.002574
21430.34961 0.002563
21430.77930 0.002552
21431.21094 0.002541
21431.63086 0.002529
21432.06055 0.002518
21432.49023 0.002507
21432.91992 0.002496
21433.34961 0.002485
21433.77930 0.002473
21434.21094 0.002462
21434.64062 0.002451
21435.07031 0.00244
21435.50000 0.002434
21435.92969 0.002427
21436.35938 0.002421
21436.78906 0.002414
21437.22070 0.002408
21437.65039 0.002401
21438.08008 0.002395
21438.50977 0.002388
21438.93945 0.002382
21439.36914 0.002375
21439.80078 0.002369
21440.23047 0.002365
21440.66016 0.002362
21441.08984 0.00236
21441.51953 0.002357
21441.94922 0.002355
21442.36914 0.002352
21442.80078 0.00235
21443.23047 0.002347
21443.66016 0.002345
21444.08984 0.002342
21444.51953 0.00234
21444.94922 0.002337
21445.38086 0.002337
21445.81055 0.002338
21446.24023 0.002338
21446.66992 0.002338
21447.09961 0.002338
21447.52930 0.002338
21447.96094 0.002339
21448.39062 0.002339
21448.82031 0.002339
21449.25000 0.002339
21449.67969 0.002339
21450.10938 0.002335
21450.53906 0.002319
21450.97070 0.002303
21451.40039 0.002287
21451.83008 0.00227
21452.25977 0.002254
21452.68945 0.002238
21453.11914 0.002222
21453.55078 0.002205
21453.98047 0.002189
21454.41016 0.002173
21454.83984 0.002156
21455.26953 0.002142
21455.69922 0.002127
21456.13086 0.002113
21456.56055 0.002099
21456.99023 0.002085
21457.41992 0.002071
21457.84961 0.002056
21458.27930 0.002042
21458.71094 0.002028
21459.14062 0.002014
21459.57031 0.002
21460.00000 0.001986
21460.42969 0.00199
21460.85938 0.001994
21461.28906 0.001998
21461.72070 0.002002
21462.15039 0.002005
21462.58008 0.002009
21463.00977 0.002013
21463.43945 0.002017
21463.86914 0.002021
21464.30078 0.002025
21464.73047 0.002029
21465.16016 0.002031
21465.58984 0.00203
21466.01953 0.002029
21466.44922 0.002027
21466.88086 0.002026
21467.31055 0.002025
21467.74023 0.002024
21468.17969 0.002022
21468.60938 0.002021
21469.03906 0.00202
21469.46094 0.002018
21469.90039 0.002017
21470.33008 0.002013
21470.75977 0.002008
21471.18945 0.002003
21471.61914 0.001998
21472.05078 0.001994
21472.48047 0.001989
21472.91016 0.001984
21473.33984 0.001979
21473.76953 0.001974
21474.19922 0.001969
21474.63086 0.001964
21475.06055 0.001958
21475.49023 0.001944
21475.91992 0.00193
21476.34961 0.001917
21476.77930 0.001903
21477.21094 0.001889
21477.64062 0.001875
21478.07031 0.001861
21478.50000 0.001847
21478.92969 0.001834
21479.36914 0.00182
21479.78906 0.001806
21480.22070 0.001803
21480.66016 0.001811
21481.08984 0.001819
21481.51953 0.001827
21481.94922 0.001834
21482.38086 0.001842
21482.81055 0.00185
21483.24023 0.001858
21483.66992 0.001865
21484.09961 0.001873
21484.52930 0.001881
21484.96094 0.001889
21485.39062 0.001879
21485.82031 0.001868
21486.25000 0.001856
21486.67969 0.001845
21487.11914 0.001833
21487.53906 0.001822
21487.97070 0.00181
21488.41016 0.001799
21488.83984 0.001788
21489.26953 0.001776
21489.69922 0.001765
21490.13086 0.001754
21490.56055 0.001745
21490.99023 0.001735
21491.41992 0.001726
21491.84961 0.001717
21492.27930 0.001707
21492.71094 0.001698
21493.14062 0.001689
21493.57031 0.001679
21494.00977 0.00167
21494.43945 0.001661
21494.86914 0.001651
21495.30078 0.00165
21495.73047 0.001651
21496.16016 0.001653
21496.58984 0.001654
21497.01953 0.001656
21497.44922 0.001657
21497.88086 0.001659
21498.31055 0.00166
21498.74023 0.001662
21499.17969 0.001663
21499.60938 0.001665
21500.03906 0.001665
21500.47070 0.001655
21500.90039 0.001645
21501.33008 0.001635
21501.75977 0.001626
21502.18945 0.001616
21502.61914 0.001606
21503.05078 0.001596
21503.48047 0.001586
21503.91992 0.001576
21504.34961 0.001566
21504.77930 0.001556
21505.21094 0.001551
21505.64062 0.001552
21506.07031 0.001554
21506.50000 0.001555
21506.92969 0.001556
21507.35938 0.001557
21507.78906 0.001558
21508.22070 0.001559
21508.66016 0.00156
21509.08984 0.001561
21509.51953 0.001562
21509.94922 0.001563
21510.38086 0.00157
21510.81055 0.001578
21511.24023 0.001586
21511.66992 0.001594
21512.10938 0.001601
21512.53906 0.001609
21512.97070 0.001617
21513.40039 0.001625
21513.83008 0.001632
21514.25977 0.00164
21514.68945 0.001648
21515.11914 0.00165
21515.55078 0.001639
21515.99023 0.001628
21516.41992 0.001617
21516.84961 0.001606
21517.27930 0.001595
21517.71094 0.001584
21518.14062 0.001573
21518.57031 0.001562
21519.00000 0.001551
21519.43945 0.00154
21519.86914 0.00153
21520.30078 0.001521
21520.73047 0.001514
21521.16016 0.001506
21521.58984 0.001499
21522.01953 0.001491
21522.46094 0.001484
21522.89062 0.001477
21523.32031 0.001469
21523.75000 0.001462
21524.17969 0.001455
21524.60938 0.001447
21525.03906 0.00144
21525.47070 0.001433
21525.91016 0.001426
21526.33984 0.001419
21526.76953 0.001412
21527.19922 0.001406
21527.63086 0.001399
21528.06055 0.001392
21528.49023 0.001385
21528.92969 0.001378
21529.35938 0.001371
21529.78906 0.001365
21530.22070 0.001366
21530.65039 0.001375
21531.08008 0.001384
21531.51953 0.001392
21531.94922 0.001401
21532.38086 0.00141
21532.81055 0.001419
21533.24023 0.001428
21533.66992 0.001437
21534.09961 0.001446
21534.53906 0.001455
21534.97070 0.001464
21535.40039 0.001455
21535.83008 0.001445
21536.25977 0.001435
21536.68945 0.001425
21537.13086 0.001415
21537.56055 0.001405
21537.99023 0.001395
21538.41992 0.001385
21538.84961 0.001375
21539.27930 0.001365
21539.71094 0.001355
21540.15039 0.001348
21540.58008 0.001347
21541.00977 0.001346
21541.43945 0.001345
21541.86914 0.001344
21542.30078 0.001343
21542.74023 0.001342
21543.16992 0.001341
21543.59961 0.00134
21544.02930 0.001338
21544.46094 0.001337
21544.90039 0.001336
21545.33008 0.001331
21545.75977 0.001325
21546.18945 0.001319
21546.61914 0.001313
21547.05078 0.001307
21547.49023 0.0013
21547.91992 0.001294
21548.34961 0.001288
21548.77930 0.001282
21549.21094 0.001276
21549.65039 0.001269
21550.08008 0.001265
21550.50977 0.001267
21550.93945 0.001269
21551.36914 0.001272
21551.81055 0.001274
21552.24023 0.001276
21552.66992 0.001279
21553.09961 0.001281
21553.52930 0.001283
21553.96094 0.001286
21554.40039 0.001288
21554.83008 0.00129
21555.25977 0.001281
21555.68945 0.001265
21556.13086 0.001248
21556.56055 0.001232
21556.99023 0.001216
21557.41992 0.001199
21557.84961 0.001183
21558.28906 0.001166
21558.72070 0.00115
21559.15039 0.001133
21559.58008 0.001117
21560.00977 0.001101
21560.44922 0.001114
21560.88086 0.001126
21561.31055 0.001138
21561.74023 0.001151
21562.16992 0.001163
21562.60938 0.001175
21563.03906 0.001188
21563.47070 0.0012
21563.90039 0.001212
21564.33984 0.001225
21564.76953 0.001237
21565.19922 0.001241
21565.63086 0.001236
21566.06055 0.001231
21566.50000 0.001226
21566.92969 0.00122
21567.35938 0.001215
21567.78906 0.00121
21568.22070 0.001204
21568.66016 0.001199
21569.08984 0.001194
21569.51953 0.001189
21569.96094 0.001183
21570.39062 0.001188
21570.82031 0.001194
21571.25000 0.0012
21571.67969 0.001206
21572.11914 0.001211
21572.55078 0.001217
21572.98047 0.001223
21573.41016 0.001229
21573.84961 0.001235
21574.27930 0.001241
21574.71094 0.001247
21575.14062 0.001246
21575.57031 0.00123
21576.00977 0.001215
21576.43945 0.0012
21576.86914 0.001184
21577.30078 0.001169
21577.74023 0.001154
21578.16992 0.001138
21578.59961 0.001123
21579.03906 0.001107
21579.47070 0.001092
21579.90039 0.001077
21580.33008 0.001077
21580.75977 0.001083
21581.19922 0.001088
21581.63086 0.001093
21582.06055 0.001099
21582.49023 0.001104
21582.92969 0.001109
21583.35938 0.001115
21583.78906 0.00112
21584.22070 0.001126
21584.66016 0.001131
21585.08984 0.001133
21585.51953 0.001124
21585.96094 0.001114
21586.39062 0.001105
21586.82031 0.001096
21587.25000 0.001086
21587.68945 0.001077
21588.11914 0.001067
21588.55078 0.001058
21588.98047 0.001049
21589.41992 0.001039
21589.84961 0.00103
21590.27930 0.001023
21590.71094 0.001018
21591.15039 0.001013
21591.58008 0.001008
21592.00977 0.001003
21592.44922 0.000998
21592.88086 0.000993
21593.31055 0.000988
21593.74023 0.000983
21594.17969 0.000978
21594.60938 0.000973
21595.03906 0.000969
21595.47070 0.000976
21595.91016 0.000983
21596.33984 0.00099
21596.76953 0.000997
21597.21094 0.001004
21597.64062 0.001011
21598.07031 0.001018
21598.50000 0.001024
21598.93945 0.001031
21599.36914 0.001038
21599.80078 0.001045
21600.24023 0.001042
21600.66992 0.001031
21601.09961 0.001019
21601.53906 0.001007
21601.97070 0.000996
21602.40039 0.000984
21602.83008 0.000972
21603.26953 0.000961
21603.69922 0.000949
21604.13086 0.000937
21604.56055 0.000926
21605.00000 0.000914
21605.42969 0.000919
21605.85938 0.000924
21606.30078 0.000928
21606.73047 0.000933
21607.16016 0.000938
21607.59961 0.000943
21608.02930 0.000948
21608.46094 0.000953
21608.90039 0.000958
21609.33008 0.000962
21609.75977 0.000967
21610.19922 0.000965
21610.63086 0.000954
21611.06055 0.000943
21611.49023 0.000932
21611.92969 0.000921
21612.35938 0.00091
21612.78906 0.000899
21613.23047 0.000888
21613.66016 0.000877
21614.08984 0.000866
21614.52930 0.000855
21614.96094 0.000844
21615.39062 0.000853
21615.83008 0.000865
21616.25977 0.000876
21616.68945 0.000887
21617.13086 0.000898
21617.56055 0.000909
21617.99023 0.00092
21618.42969 0.000932
21618.85938 0.000943
21619.28906 0.000954
21619.72070 0.000965
21620.16016 0.000969
21620.58984 0.00096
21621.02930 0.000951
21621.46094 0.000942
21621.89062 0.000934
21622.32031 0.000925
21622.75977 0.000916
21623.18945 0.000907
21623.61914 0.000898
21624.06055 0.000889
21624.49023 0.00088
21624.92969 0.000871
21625.35938 0.000864
21625.78906 0.000857
21626.22070 0.00085
21626.66016 0.000843
21627.08984 0.000835
21627.52930 0.000828
21627.96094 0.000821
21628.39062 0.000814
21628.83008 0.000807
21629.25977 0.0008
21629.68945 0.000792
21630.13086 0.00079
21630.56055 0.000797
21630.99023 0.000804
21631.42969 0.000811
21631.85938 0.000818
21632.28906 0.000826
21632.73047 0.000833
21633.16016 0.00084
21633.58984 0.000847
21634.02930 0.000855
21634.46094 0.000862
21634.89062 0.000869
21635.33008 0.000866
21635.75977 0.00086
21636.19922 0.000854
21636.63086 0.000848
21637.06055 0.000842
21637.50000 0.000837
21637.92969 0.000831
21638.36914 0.000825
21638.80078 0.000819
21639.23047 0.000813
21639.66992 0.000807
21640.09961 0.000802
21640.52930 0.000803
21640.97070 0.000804
21641.40039 0.000804
21641.83008 0.000805
21642.26953 0.000805
21642.69922 0.000806
21643.13086 0.000806
21643.57031 0.000807
21644.00000 0.000808
21644.43945 0.000808
21644.86914 0.000809
21645.30078 0.000806
21645.74023 0.000801
21646.16992 0.000797
21646.60938 0.000792
21647.03906 0.000788
21647.47070 0.000783
21647.91016 0.000779
21648.33984 0.000774
21648.77930 0.00077
21649.21094 0.000765
21649.64062 0.000761
21650.08008 0.000759
21650.50977 0.000768
21650.93945 0.000778
21651.38086 0.000788
21651.81055 0.000797
21652.25000 0.000807
21652.67969 0.000817
21653.10938 0.000827
21653.55078 0.000836
21653.98047 0.000846
21654.41992 0.000856
21654.84961 0.000866
21655.27930 0.000869
21655.72070 0.00087
21656.15039 0.00087
21656.58984 0.000871
21657.01953 0.000871
21657.44922 0.000872
21657.89062 0.000873
21658.32031 0.000873
21658.75977 0.000874
21659.18945 0.000874
21659.61914 0.000875
21660.06055 0.000873
21660.49023 0.000855
21660.92969 0.000837
21661.35938 0.00082
21661.78906 0.000802
21662.23047 0.000784
21662.66016 0.000767
21663.09961 0.000749
21663.52930 0.000731
21663.96094 0.000714
21664.40039 0.000696
21664.83008 0.000678
21665.26953 0.000674
21665.69922 0.000677
21666.14062 0.000681
21666.57031 0.000684
21667.00977 0.000688
21667.43945 0.000691
21667.86914 0.000695
21668.31055 0.000698
21668.74023 0.000702
21669.17969 0.000705
21669.60938 0.000709
21670.03906 0.00071
21670.48047 0.000694
21670.91016 0.000678
21671.34961 0.000661
21671.77930 0.000645
21672.22070 0.000628
21672.65039 0.000612
21673.08984 0.000596
21673.51953 0.000579
21673.94922 0.000563
21674.39062 0.000546
21674.82031 0.00053
21675.25977 0.000529
21675.68945 0.000538
21676.13086 0.000548
21676.56055 0.000557
21676.99023 0.000567
21677.42969 0.000576
21677.85938 0.000586
21678.30078 0.000595
21678.73047 0.000605
21679.16992 0.000614
21679.59961 0.000624
21680.03906 0.000633
21680.47070 0.000634
21680.90039 0.000635
21681.33984 0.000636
21681.76953 0.000637
21682.21094 0.000639
21682.64062 0.00064
21683.08008 0.000641
21683.50977 0.000642
21683.94922 0.000644
21684.38086 0.000645
21684.82031 0.000646
21685.25000 0.000649
21685.68945 0.000654
21686.11914 0.000659
21686.55078 0.000664
21686.99023 0.000669
21687.41992 0.000674
21687.85938 0.000678
21688.28906 0.000683
21688.73047 0.000688
21689.16016 0.000693
21689.59961 0.000698
21690.02930 0.000702
21690.47070 0.000695
21690.90039 0.000688
21691.33984 0.000681
21691.76953 0.000674
21692.21094 0.000667
21692.64062 0.00066
21693.07031 0.000653
21693.50977 0.000647
21693.93945 0.00064
21694.38086 0.000633
21694.81055 0.000626
21695.25000 0.000618
21695.67969 0.000609
21696.11914 0.0006
21696.55078 0.000591
21696.99023 0.000582
21697.41992 0.000573
21697.85938 0.000564
21698.28906 0.000556
21698.73047 0.000547
21699.16016 0.000538
21699.59961 0.000529
21700.02930 0.000521
21700.47070 0.000519
21700.90039 0.000517
21701.33984 0.000516
21701.76953 0.000514
21702.21094 0.000512
21702.64062 0.000511
21703.08008 0.000509
21703.50977 0.000508
21703.94922 0.000506
21704.38086 0.000504
21704.82031 0.000503
21705.25000 0.000506
21705.68945 0.000512
21706.11914 0.000519
21706.56055 0.000525
21706.99023 0.000532
21707.42969 0.000538
21707.85938 0.000545
21708.30078 0.000551
21708.73047 0.000558
21709.16992 0.000564
21709.59961 0.000571
21710.03906 0.000577
21710.47070 0.000579
21710.91016 0.00058
21711.33984 0.000582
21711.77930 0.000584
21712.21094 0.000586
21712.65039 0.000588
21713.08008 0.00059
21713.51953 0.000592
21713.94922 0.000594
21714.39062 0.000596
21714.82031 0.000598
21715.25977 0.000595
21715.68945 0.000589
21716.13086 0.000583
21716.56055 0.000577
21717.00000 0.000571
21717.43945 0.000566
21717.86914 0.00056
21718.30078 0.000554
21718.74023 0.000548
21719.17969 0.000542
21719.60938 0.000536
21720.05078 0.000532
21720.48047 0.000538
21720.91992 0.000545
21721.34961 0.000551
21721.78906 0.000557
21722.22070 0.000564
21722.66016 0.00057
21723.08984 0.000577
21723.52930 0.000583
21723.96094 0.00059
21724.40039 0.000596
21724.83984 0.000602
21725.26953 0.000599
21725.71094 0.000589
21726.14062 0.000579
21726.58008 0.00057
21727.00977 0.00056
21727.44922 0.00055
21727.88086 0.00054
21728.32031 0.000531
21728.75000 0.000521
21729.18945 0.000511
21729.63086 0.000502
21730.06055 0.000491
21730.50000 0.000478
21730.92969 0.000464
21731.36914 0.000451
21731.80078 0.000438
21732.24023 0.000424
21732.66992 0.000411
23905.93750 0.0
