# %ECSV 0.9
# ---
# datatype:
# - {name: wavelength, unit: Angstrom, datatype: float32}
# - {name: response, datatype: float32}
# meta: !!omap
# - {band_name: F953N}
# - {group_name: WFC3_UVIS2}
wavelength response
8370.62012 0.0
9300.68945 0.00041
9302.28027 0.000426
9303.87207 0.000442
9305.46387 0.000458
9307.05566 0.000474
9308.64844 0.00049
9310.24121 0.000506
9311.83398 0.000522
9313.42676 0.000537
9315.02148 0.000553
9316.61426 0.000569
9318.20801 0.000584
9319.80273 0.0006
9321.39746 0.000615
9322.99219 0.000631
9324.58691 0.000646
9326.18262 0.000661
9327.77832 0.000677
9329.37402 0.000692
9330.97070 0.000707
9332.56738 0.000722
9334.16406 0.000737
9335.76074 0.000752
9337.35840 0.000767
9338.95605 0.000782
9340.55371 0.000797
9342.15137 0.000812
9343.75000 0.000826
9345.34863 0.000841
9346.94727 0.000856
9348.54688 0.00087
9350.14648 0.000885
9351.74609 0.000899
9353.34570 0.000914
9354.94629 0.000928
9356.54688 0.000943
9358.14746 0.000957
9359.74902 0.000971
9361.35059 0.000985
9362.95215 0.000999
9364.55371 0.001013
9366.15625 0.001028
9367.75879 0.001041
9369.36133 0.001055
9370.96484 0.001069
9372.56738 0.001083
9374.17188 0.001097
9375.77539 0.00111
9377.37988 0.001124
9378.98340 0.001138
9380.58887 0.001151
9382.19336 0.001165
9383.79883 0.001178
9385.40430 0.001191
9387.00977 0.001205
9388.61621 0.001218
9390.22266 0.001231
9391.82910 0.001244
9393.43555 0.001257
9395.04297 0.00127
9396.65039 0.001283
9398.25781 0.001296
9399.86621 0.001309
9401.47461 0.001322
9403.08301 0.001334
9404.69141 0.001347
9406.30078 0.001359
9407.91016 0.001372
9409.51953 0.001384
9411.12988 0.001396
9412.74023 0.001408
9414.35059 0.00142
9415.96094 0.001432
9417.57227 0.001444
9419.18359 0.001456
9420.79492 0.001468
9422.40723 0.00148
9424.01953 0.001492
9425.63184 0.001503
9427.24414 0.001515
9428.85742 0.001527
9430.47070 0.001538
9432.08398 0.00155
9433.69727 0.001561
9435.31152 0.001573
9436.92578 0.001584
9438.54102 0.001595
9440.15527 0.001607
9441.77148 0.001618
9443.38574 0.001629
9445.00195 0.00164
9446.61816 0.001651
9448.23438 0.001662
9449.85059 0.001673
9451.46777 0.001684
9453.08496 0.001695
9454.70215 0.001706
9456.31934 0.001716
9457.93848 0.001727
9459.55566 0.001738
9461.17383 0.001748
9462.79297 0.001758
9464.41211 0.001769
9466.03125 0.001779
9467.65137 0.001789
9469.27148 0.0018
9470.89062 0.002014
9472.51172 0.001925
9474.13184 0.002584
9475.75293 0.00378
9477.37402 0.004268
9478.99609 0.007275
9480.61719 0.010475
9482.23926 0.016295
9483.86230 0.023245
9485.48438 0.031981
9487.10742 0.041329
9488.73047 0.048638
9490.35352 0.05384
9491.97754 0.057882
9493.60156 0.059382
9495.22656 0.060291
9496.85059 0.059531
9498.47559 0.059984
9500.10059 0.059495
9501.72656 0.05905
9503.35156 0.05857
9504.97754 0.058162
9506.60352 0.057192
9508.23047 0.056965
9509.85742 0.057276
9511.48438 0.057847
9513.11230 0.056906
9514.73926 0.057497
9516.36719 0.057166
9517.99609 0.057763
9519.62402 0.056944
9521.25293 0.058283
9522.88184 0.057395
9524.51172 0.057583
9526.14062 0.057199
9527.77148 0.058142
9529.40137 0.056381
9531.03125 0.056934
9532.66211 0.056536
9534.29297 0.056498
9535.92480 0.056386
9537.55566 0.056451
9539.18848 0.056231
9540.81934 0.055668
9542.45215 0.055964
9544.08496 0.054951
9545.71777 0.055729
9547.35059 0.054493
9548.98438 0.055292
9550.61816 0.055515
9552.25195 0.055298
9553.88672 0.054951
9555.52148 0.054832
9557.15625 0.054533
9558.79102 0.053541
9560.42676 0.053804
9562.06152 0.052335
9563.69824 0.05272
9565.33496 0.051901
9566.97168 0.051672
9568.60840 0.050997
9570.24512 0.050713
9571.88281 0.051654
9573.52148 0.051493
9575.15820 0.04999
9576.79688 0.045448
9578.43555 0.039661
9580.07422 0.032098
9581.71289 0.022017
9583.35254 0.016518
9584.99219 0.010943
9586.63184 0.005478
9588.27246 0.003832
9589.91309 0.002305
9591.55371 0.001615
9593.19434 0.001627
9594.83594 0.001833
9596.47754 0.001815
9598.12012 0.001797
9599.76172 0.001779
9601.40430 0.001761
9603.04688 0.001743
9604.69043 0.001725
9606.33301 0.001708
9607.97656 0.00169
9609.62109 0.001672
9611.26465 0.001654
9612.90918 0.001636
9614.55371 0.001618
9616.19922 0.0016
9617.84473 0.001583
9619.49023 0.001565
9621.13574 0.001547
9622.78223 0.00153
9624.42871 0.001512
9626.07520 0.001495
9627.72168 0.001478
9629.36914 0.001461
9631.01660 0.001444
9632.66504 0.001427
9634.31152 0.00141
9635.96094 0.001393
9637.60938 0.001376
9639.25879 0.001359
9640.90820 0.001342
9642.55762 0.001325
9644.20703 0.001309
9645.85742 0.001292
9647.50781 0.001276
9649.15820 0.001259
9650.80957 0.001243
9652.45996 0.001226
9654.11230 0.00121
9655.76367 0.001194
9657.41602 0.001177
9659.06836 0.001161
9660.72070 0.001145
9662.37402 0.001129
9664.02637 0.001113
9665.68066 0.001097
9667.33398 0.001082
9668.98828 0.001066
9670.64258 0.00105
9672.29688 0.001034
9673.95215 0.001019
9675.60645 0.001003
9677.26270 0.000988
9678.91797 0.000972
9680.57422 0.000957
9682.23047 0.000942
9683.88672 0.000926
9685.54395 0.000911
9687.20117 0.000896
9688.85840 0.000881
9690.51660 0.000866
9692.17383 0.000851
9693.83203 0.000836
9695.49121 0.000821
9697.14941 0.000807
9698.80859 0.000792
9700.46875 0.000777
9702.12793 0.000763
9703.78809 0.000748
9705.44824 0.000734
9707.10840 0.000719
9708.76953 0.000705
9710.43066 0.000691
9712.09180 0.000677
9713.75391 0.000662
9715.41602 0.000648
9717.07812 0.000634
9718.74023 0.00062
9720.40332 0.000607
9722.06641 0.000593
9723.72852 0.000579
9725.39355 0.000565
9727.05762 0.000552
9728.72168 0.000538
9730.38672 0.000525
9732.05078 0.000511
9733.71582 0.000498
9735.38184 0.000484
9737.04688 0.000471
9738.71289 0.000458
9740.37988 0.000445
9742.04590 0.000432
9743.71289 0.000419
9745.37988 0.000406
10719.91797 0.0
