# %ECSV 0.9
# ---
# datatype:
# - {name: wavelength, unit: Angstrom, datatype: float32}
# - {name: response, datatype: float32}
# meta: !!omap
# - {band_name: F218W}
# - {group_name: WFC3_UVIS2}
wavelength response
1790.71021 0.0
1989.67798 0.002121
1990.01794 0.014836
1990.35706 0.014922
1990.69702 0.015007
1991.03601 0.015084
1991.37598 0.015162
1991.71497 0.015239
1992.05505 0.015317
1992.39502 0.015395
1992.73401 0.015473
1993.07397 0.015551
1993.41394 0.01563
1993.75403 0.015709
1994.09399 0.015788
1994.43396 0.015867
1994.77502 0.015947
1995.11499 0.016026
1995.45496 0.016106
1995.79504 0.016186
1996.13599 0.016267
1996.47595 0.016348
1996.81702 0.016428
1997.15698 0.01651
1997.49805 0.016591
1997.83899 0.016672
1998.17896 0.016754
1998.52002 0.016836
1998.86096 0.016918
1999.20203 0.017001
1999.54297 0.017084
1999.88403 0.017167
2000.22498 0.017235
2000.56604 0.017296
2000.90698 0.017355
2001.24805 0.017413
2001.58997 0.017471
2001.93103 0.017529
2002.27197 0.017587
2002.61401 0.017645
2002.95496 0.017703
2003.29700 0.017762
2003.63904 0.01782
2003.97998 0.017879
2004.32202 0.017937
2004.66394 0.017996
2005.00598 0.018055
2005.34802 0.018113
2005.68994 0.018172
2006.03198 0.018231
2006.37402 0.01829
2006.71594 0.018349
2007.05798 0.018408
2007.40100 0.018467
2007.74304 0.018527
2008.08606 0.018586
2008.42798 0.018645
2008.77100 0.018705
2009.11304 0.018764
2009.45605 0.018824
2009.79797 0.018884
2010.14099 0.018943
2010.48401 0.019003
2010.82703 0.019063
2011.17004 0.019123
2011.51294 0.019183
2011.85596 0.019244
2012.19897 0.019304
2012.54199 0.019365
2012.88501 0.019425
2013.22900 0.019486
2013.57202 0.019546
2013.91602 0.019607
2014.25903 0.019668
2014.60303 0.019729
2014.94604 0.01979
2015.29004 0.019851
2015.63403 0.019912
2015.97705 0.019973
2016.32104 0.020034
2016.66504 0.020095
2017.00903 0.020157
2017.35303 0.020218
2017.69702 0.02028
2018.04102 0.020341
2018.38501 0.020403
2018.72900 0.020465
2019.07397 0.020526
2019.41797 0.020588
2019.76196 0.02065
2020.10706 0.020712
2020.45203 0.020773
2020.79602 0.020837
2021.14099 0.020904
2021.48499 0.02097
2021.82996 0.021037
2022.17505 0.021104
2022.52002 0.021171
2022.86499 0.021238
2023.20996 0.021305
2023.55505 0.021372
2023.90002 0.021439
2024.24500 0.021506
2024.58997 0.021573
2024.93604 0.021641
2025.28101 0.021708
2025.62598 0.021776
2025.97205 0.021843
2026.31702 0.021911
2026.66296 0.021979
2027.00903 0.022047
2027.35400 0.022115
2027.69995 0.022183
2028.04602 0.022251
2028.39197 0.022319
2028.73804 0.022387
2029.08398 0.022455
2029.43005 0.022524
2029.77600 0.022592
2030.12195 0.022661
2030.46802 0.02273
2030.81494 0.022801
2031.16101 0.022874
2031.50696 0.022947
2031.85400 0.02302
2032.19995 0.023093
2032.54700 0.023166
2032.89404 0.023239
2033.23999 0.023312
2033.58704 0.023385
2033.93396 0.023459
2034.28101 0.023532
2034.62805 0.023606
2034.97498 0.023679
2035.32202 0.023753
2035.66895 0.023827
2036.01599 0.023901
2036.36304 0.023975
2036.71106 0.024049
2037.05798 0.024123
2037.40503 0.024197
2037.75305 0.024272
2038.09998 0.024346
2038.44800 0.024421
2038.79602 0.024495
2039.14294 0.02457
2039.49097 0.024645
2039.83899 0.02472
2040.18701 0.024795
2040.53503 0.024869
2040.88306 0.024947
2041.23096 0.025026
2041.57898 0.025106
2041.92700 0.025185
2042.27502 0.025264
2042.62402 0.025344
2042.97205 0.025424
2043.31995 0.025503
2043.66895 0.025583
2044.01697 0.025663
2044.36597 0.025743
2044.71497 0.025823
2045.06299 0.025903
2045.41199 0.025984
2045.76099 0.026064
2046.10999 0.026145
2046.45898 0.026225
2046.80798 0.026306
2047.15698 0.026387
2047.50598 0.026467
2047.85498 0.026548
2048.20508 0.026629
2048.55396 0.026711
2048.90308 0.026792
2049.25293 0.026873
2049.60205 0.026955
2049.95190 0.027036
2050.30200 0.027119
2050.65088 0.027203
2051.00098 0.027288
2051.35107 0.027373
2051.69995 0.027458
2052.05103 0.027543
2052.39990 0.027628
2052.75000 0.027714
2053.10107 0.027799
2053.45093 0.027885
2053.80103 0.027971
2054.15088 0.028056
2054.50098 0.028142
2054.85205 0.028229
2055.20190 0.028315
2055.55298 0.028401
2055.90308 0.028487
2056.25391 0.028574
2056.60498 0.028661
2056.95605 0.028747
2057.30591 0.028834
2057.65698 0.028921
2058.00806 0.029008
2058.35889 0.029095
2058.70996 0.029183
2059.06104 0.02927
2059.41211 0.029357
2059.76392 0.029445
2060.11499 0.029533
2060.46606 0.029621
2060.81812 0.029707
2061.16895 0.029791
2061.52100 0.029876
2061.87207 0.02996
2062.22412 0.030045
2062.57593 0.03013
2062.92700 0.030215
2063.27905 0.0303
2063.63110 0.030385
2063.98291 0.03047
2064.33496 0.030555
2064.68701 0.030641
2065.03906 0.030726
2065.39111 0.030812
2065.74390 0.030898
2066.09595 0.030984
2066.44800 0.031069
2066.80103 0.031156
2067.15308 0.031242
2067.50610 0.031328
2067.85791 0.031414
2068.21094 0.031501
2068.56396 0.031588
2068.91699 0.031674
2069.27002 0.031761
2069.62207 0.031848
2069.97510 0.031935
2070.32788 0.032021
2070.68091 0.032107
2071.03491 0.032189
2071.38794 0.032271
2071.74097 0.032353
2072.09399 0.032436
2072.44800 0.032518
2072.80103 0.032601
2073.15503 0.032683
2073.50806 0.032766
2073.86206 0.032849
2074.21606 0.032931
2074.56909 0.033014
2074.92310 0.033098
2075.27710 0.033181
2075.63110 0.033264
2075.98511 0.033347
2076.33911 0.033431
2076.69312 0.033514
2077.04712 0.033598
2077.40210 0.033682
2077.75610 0.033766
2078.11011 0.03385
2078.46509 0.033934
2078.81909 0.034018
2079.17407 0.034102
2079.52808 0.034187
2079.88306 0.034271
2080.23804 0.034356
2080.59302 0.034442
2080.94702 0.034519
2081.30200 0.034594
2081.65698 0.034669
2082.01196 0.034744
2082.36694 0.03482
2082.72192 0.034895
2083.07788 0.034971
2083.43311 0.035046
2083.78809 0.035122
2084.14404 0.035198
2084.49902 0.035274
2084.85400 0.03535
2085.20996 0.035426
2085.56592 0.035502
2085.92090 0.035578
2086.27710 0.035654
2086.63306 0.035731
2086.98901 0.035807
2087.34497 0.035884
2087.70093 0.035961
2088.05688 0.036037
2088.41309 0.036114
2088.76904 0.036191
2089.12500 0.036268
2089.48193 0.036345
2089.83789 0.036423
2090.19409 0.0365
2090.55103 0.036577
2090.90698 0.03665
2091.26392 0.03672
2091.62109 0.03679
2091.97705 0.03686
2092.33398 0.036931
2092.69092 0.037001
2093.04810 0.037072
2093.40503 0.037143
2093.76196 0.037214
2094.11890 0.037284
2094.47607 0.037355
2094.83301 0.037427
2095.19092 0.037498
2095.54810 0.037569
2095.90503 0.03764
2096.26294 0.037712
2096.62012 0.037783
2096.97803 0.037855
2097.33496 0.037926
2097.69312 0.037998
2098.05103 0.03807
2098.40894 0.038142
2098.76709 0.038213
2099.12500 0.038286
2099.48291 0.038358
2099.84106 0.03843
2100.19897 0.038515
2100.55688 0.038609
2100.91504 0.038697
2101.27295 0.038782
2101.63208 0.038867
2101.98999 0.038953
2102.34912 0.039038
2102.70703 0.039124
2103.06592 0.039209
2103.42505 0.039295
2103.78296 0.039381
2104.14209 0.039467
2104.50098 0.039553
2104.86011 0.03964
2105.21899 0.039726
2105.57788 0.039813
2105.93701 0.0399
2106.29590 0.039987
2106.65601 0.040074
2107.01489 0.040161
2107.37402 0.040249
2107.73291 0.040336
2108.09302 0.040424
2108.45190 0.040512
2108.81201 0.0406
2109.17212 0.040688
2109.53101 0.040776
2109.89111 0.040865
2110.25098 0.040953
2110.61108 0.041042
2110.97095 0.041123
2111.33105 0.041202
2111.69092 0.041282
2112.05103 0.041361
2112.41089 0.041441
2112.77100 0.041521
2113.13208 0.041601
2113.49194 0.041682
2113.85303 0.041762
2114.21289 0.041843
2114.57397 0.041923
2114.93506 0.042004
2115.29492 0.042085
2115.65601 0.042166
2116.01709 0.042247
2116.37793 0.042328
2116.73901 0.04241
2117.10010 0.042491
2117.46094 0.042573
2117.82202 0.042655
2118.18311 0.042737
2118.54395 0.042819
2118.90601 0.042901
2119.26709 0.042983
2119.62793 0.043066
2119.98999 0.043148
2120.35107 0.043229
2120.71289 0.043309
2121.07495 0.043382
2121.43701 0.043454
2121.79810 0.043527
2122.15991 0.0436
2122.52197 0.043673
2122.88403 0.043746
2123.24609 0.043819
2123.60791 0.043893
2123.96997 0.043966
2124.33301 0.044039
2124.69507 0.044113
2125.05688 0.044187
2125.41992 0.04426
2125.78198 0.044334
2126.14502 0.044408
2126.50708 0.044482
2126.87012 0.044557
2127.23291 0.044631
2127.59497 0.044705
2127.95801 0.04478
2128.32104 0.044854
2128.68408 0.044929
2129.04712 0.045004
2129.40991 0.045079
2129.77393 0.045154
2130.13696 0.04523
2130.50000 0.045306
2130.86401 0.045378
2131.22705 0.045446
2131.59009 0.045514
2131.95410 0.045583
2132.31689 0.045651
2132.68091 0.045719
2133.04492 0.045788
2133.40894 0.045857
2133.77197 0.045925
2134.13599 0.045994
2134.50000 0.046063
2134.86499 0.046132
2135.22900 0.046201
2135.59302 0.04627
2135.95703 0.046339
2136.32104 0.046408
2136.68604 0.046478
2137.05005 0.046547
2137.41406 0.046617
2137.77905 0.046687
2138.14404 0.046756
2138.50806 0.046826
2138.87305 0.046896
2139.23804 0.046966
2139.60303 0.047036
2139.96802 0.047107
2140.33203 0.047177
2140.69800 0.047246
2141.06201 0.047309
2141.42798 0.047373
2141.79297 0.047436
2142.15796 0.0475
2142.52295 0.047564
2142.88892 0.047627
2143.25391 0.047691
2143.62012 0.047755
2143.98608 0.047819
2144.35107 0.047883
2144.71704 0.047947
2145.08301 0.048011
2145.44800 0.048075
2145.81396 0.048139
2146.17993 0.048204
2146.54590 0.048268
2146.91211 0.048333
2147.27905 0.048397
2147.64502 0.048462
2148.01099 0.048527
2148.37695 0.048591
2148.74390 0.048656
2149.11011 0.048721
2149.47705 0.048786
2149.84399 0.048851
2150.20996 0.048916
2150.57690 0.048981
2150.94409 0.049041
2151.31006 0.0491
2151.67700 0.049158
2152.04395 0.049217
2152.41089 0.049275
2152.77808 0.049334
2153.14600 0.049393
2153.51294 0.049451
2153.87988 0.04951
2154.24707 0.049569
2154.61499 0.049628
2154.98193 0.049687
2155.35010 0.049746
2155.71704 0.049805
2156.08496 0.049864
2156.45288 0.049923
2156.82104 0.049983
2157.18799 0.050042
2157.55591 0.050101
2157.92407 0.050161
2158.29199 0.05022
2158.65991 0.05028
2159.02808 0.050339
2159.39697 0.050399
2159.76489 0.050459
2160.13306 0.050518
2160.50195 0.050576
2160.87012 0.050628
2161.23901 0.050675
2161.60693 0.050723
2161.97607 0.05077
2162.34497 0.050818
2162.71289 0.050865
2163.08203 0.050912
2163.45093 0.05096
2163.82007 0.051008
2164.18896 0.051055
2164.55811 0.051103
2164.92700 0.05115
2165.29712 0.051198
2165.66602 0.051246
2166.03491 0.051293
2166.40503 0.051341
2166.77393 0.051389
2167.14404 0.051437
2167.51294 0.051485
2167.88306 0.051533
2168.25293 0.05158
2168.62305 0.051628
2168.99194 0.051676
2169.36206 0.051724
2169.73193 0.051772
2170.10205 0.051821
2170.47192 0.05187
2170.84302 0.051918
2171.21289 0.051962
2171.58301 0.052006
2171.95288 0.052051
2172.32397 0.052095
2172.69409 0.05214
2173.06494 0.052184
2173.43604 0.052229
2173.80591 0.052273
2174.17700 0.052318
2174.54810 0.052362
2174.91895 0.052407
2175.29004 0.052452
2175.65991 0.052496
2176.03101 0.052541
2176.40308 0.052586
2176.77393 0.05263
2177.14502 0.052675
2177.51611 0.05272
2177.88794 0.052765
2178.25903 0.052809
2178.63110 0.052854
2179.00195 0.052899
2179.37402 0.052944
2179.74609 0.052989
2180.11694 0.053034
2180.48901 0.053078
2180.86108 0.053118
2181.23291 0.053153
2181.60498 0.053188
2181.97705 0.053222
2182.34912 0.053257
2182.72095 0.053292
2183.09399 0.053327
2183.46606 0.053362
2183.83789 0.053396
2184.21094 0.053431
2184.58301 0.053466
2184.95605 0.053501
2185.32910 0.053536
2185.70093 0.05357
2186.07397 0.053605
2186.44702 0.05364
2186.82007 0.053675
2187.19312 0.053709
2187.56592 0.053744
2187.93896 0.053779
2188.31201 0.053814
2188.68506 0.053849
2189.05811 0.053883
2189.43188 0.053918
2189.80493 0.053953
2190.17896 0.053987
2190.55200 0.054022
2190.92603 0.05405
2191.29907 0.054075
2191.67310 0.054099
2192.04712 0.054124
2192.42090 0.054149
2192.79492 0.054173
2193.16895 0.054198
2193.54297 0.054223
2193.91699 0.054247
2194.29102 0.054272
2194.66504 0.054296
2195.04004 0.054321
2195.41406 0.054345
2195.78809 0.05437
2196.16309 0.054394
2196.53711 0.054418
2196.91211 0.054443
2197.28711 0.054467
2197.66089 0.054491
2198.03589 0.054516
2198.41089 0.05454
2198.78589 0.054564
2199.16089 0.054588
2199.53589 0.054613
2199.91089 0.054637
2200.28589 0.054655
2200.66211 0.054672
2201.03711 0.054681
2201.41211 0.054689
2201.78809 0.054697
2202.16309 0.054705
2202.53906 0.054714
2202.91406 0.054722
2203.29004 0.05473
2203.66602 0.054738
2204.04199 0.054746
2204.41699 0.054754
2204.79297 0.054762
2205.16992 0.05477
2205.54590 0.054778
2205.92212 0.054786
2206.29810 0.054793
2206.67407 0.054801
2207.05103 0.054809
2207.42700 0.054816
2207.80298 0.054824
2208.17993 0.054832
2208.55688 0.054839
2208.93311 0.054846
2209.31006 0.054854
2209.68701 0.054861
2210.06396 0.054869
2210.44092 0.054877
2210.81812 0.054882
2211.19507 0.05488
2211.57202 0.054878
2211.94897 0.054876
2212.32593 0.054873
2212.70410 0.054871
2213.08105 0.054868
2213.45801 0.054866
2213.83594 0.054863
2214.21289 0.05486
2214.59106 0.054858
2214.96899 0.054855
2215.34595 0.054852
2215.72412 0.054849
2216.10205 0.054846
2216.47998 0.054843
2216.85791 0.05484
2217.23608 0.054836
2217.61401 0.054833
2217.99292 0.05483
2218.37109 0.054826
2218.74902 0.054823
2219.12793 0.054819
2219.50610 0.054815
2219.88501 0.054811
2220.26294 0.054807
2220.64209 0.054803
2221.02100 0.054791
2221.39893 0.054779
2221.77808 0.054767
2222.15698 0.054754
2222.53589 0.054741
2222.91504 0.054729
2223.29395 0.054716
2223.67310 0.054703
2224.05298 0.05469
2224.43188 0.054677
2224.81104 0.054664
2225.19092 0.05465
2225.57007 0.054637
2225.94995 0.054624
2226.33008 0.05461
2226.70898 0.054596
2227.08911 0.054583
2227.46899 0.054569
2227.84912 0.054555
2228.22900 0.054541
2228.60889 0.054527
2228.98901 0.054513
2229.36890 0.054498
2229.74902 0.054484
2230.12891 0.054466
2230.51001 0.05444
2230.88989 0.054409
2231.27100 0.054375
2231.65088 0.05434
2232.03198 0.054305
2232.41211 0.05427
2232.79297 0.054235
2233.17407 0.0542
2233.55493 0.054165
2233.93604 0.05413
2234.31689 0.054094
2234.69800 0.054059
2235.07910 0.054023
2235.45996 0.053988
2235.84106 0.053952
2236.22290 0.053916
2236.60400 0.05388
2236.98511 0.053844
2237.36694 0.053808
2237.74902 0.053772
2238.12988 0.053735
2238.51196 0.053699
2238.89404 0.053662
2239.27490 0.053625
2239.65698 0.053589
2240.03906 0.053552
2240.42090 0.053512
2240.80298 0.053471
2241.18604 0.053427
2241.56812 0.053382
2241.94995 0.053337
2242.33301 0.053293
2242.71509 0.053248
2243.09692 0.053203
2243.47998 0.053158
2243.86304 0.053112
2244.24512 0.053067
2244.62793 0.053022
2245.01099 0.052976
2245.39404 0.05293
2245.77710 0.052885
2246.15991 0.052839
2246.54297 0.052793
2246.92603 0.052747
2247.30908 0.052701
2247.69189 0.052654
2248.07593 0.052608
2248.45898 0.052562
2248.84302 0.052515
2249.22607 0.052468
2249.61011 0.052421
2249.99292 0.052374
2250.37695 0.052329
2250.76099 0.052282
2251.14502 0.052234
2251.52905 0.052186
2251.91309 0.052137
2252.29712 0.052088
2252.68091 0.052039
2253.06494 0.051991
2253.44897 0.051941
2253.83398 0.051892
2254.21802 0.051843
2254.60303 0.051794
2254.98706 0.051744
2255.37207 0.051694
2255.75610 0.051645
2256.14111 0.051595
2256.52588 0.051545
2256.91089 0.051495
2257.29492 0.051445
2257.67993 0.051394
2258.06494 0.051344
2258.45093 0.051293
2258.83594 0.051243
2259.22095 0.051192
2259.60596 0.051141
2259.99194 0.05109
2260.37695 0.051038
2260.76294 0.050986
2261.14795 0.05093
2261.53394 0.050875
2261.91992 0.050819
2262.30493 0.050763
2262.69092 0.050707
2263.07690 0.050651
2263.46289 0.050594
2263.84912 0.050538
2264.23511 0.050481
2264.62109 0.050425
2265.00806 0.050368
2265.39404 0.050311
2265.78003 0.050254
2266.16699 0.050197
2266.55298 0.05014
2266.93994 0.050082
2267.32593 0.050025
2267.71289 0.049967
2268.10010 0.049909
2268.48706 0.049851
2268.87402 0.049793
2269.26001 0.049735
2269.64697 0.049677
2270.03394 0.049619
2270.42212 0.04956
2270.80908 0.0495
2271.19604 0.04944
2271.58301 0.04938
2271.97095 0.049319
2272.35791 0.049259
2272.74609 0.049198
2273.13403 0.049137
2273.52100 0.049076
2273.90894 0.049015
2274.29712 0.048954
2274.68506 0.048893
2275.07300 0.048832
2275.45996 0.04877
2275.84912 0.048708
2276.23706 0.048647
2276.62500 0.048585
2277.01294 0.048523
2277.40210 0.048461
2277.79004 0.048398
2278.17798 0.048336
2278.56689 0.048273
2278.95605 0.048211
2279.34399 0.048148
2279.73291 0.048085
2280.12207 0.048021
2280.51099 0.047956
2280.89990 0.047891
2281.28906 0.047826
2281.67798 0.047761
2282.06689 0.047696
2282.45605 0.047631
2282.84497 0.047565
2283.23511 0.0475
2283.62402 0.047434
2284.01294 0.047369
2284.40308 0.047303
2284.79297 0.047237
2285.18188 0.047171
2285.57202 0.047105
2285.96191 0.047039
2286.35205 0.046972
2286.74194 0.046906
2287.13208 0.046839
2287.52197 0.046772
2287.91211 0.046706
2288.30200 0.046639
2288.69189 0.046571
2289.08301 0.046504
2289.47290 0.046437
2289.86401 0.046369
2290.25391 0.046303
2290.64502 0.046236
2291.03491 0.046171
2291.42603 0.046106
2291.81689 0.046041
2292.20801 0.045976
2292.59912 0.045911
2292.98999 0.045845
2293.38110 0.04578
2293.77197 0.045714
2294.16309 0.045648
2294.55396 0.045582
2294.94604 0.045516
2295.33691 0.04545
2295.72900 0.045384
2296.12012 0.045318
2296.51099 0.045251
2296.90308 0.045184
2297.29492 0.045118
2297.68701 0.045051
2298.07910 0.044984
2298.46997 0.044917
2298.86304 0.044849
2299.25488 0.044782
2299.64697 0.044714
2300.03906 0.044645
2300.43091 0.044565
2300.82300 0.044485
2301.21606 0.044405
2301.60791 0.044325
2302.00098 0.044244
2302.39404 0.044164
2302.78589 0.044083
2303.17896 0.044003
2303.57202 0.043922
2303.96509 0.043841
2304.35791 0.043761
2304.75000 0.04368
2305.14404 0.043599
2305.53711 0.043518
2305.92993 0.043437
2306.32300 0.043355
2306.71704 0.043274
2307.11011 0.043193
2307.50293 0.043111
2307.89697 0.04303
2308.29102 0.042948
2308.68408 0.042866
2309.07788 0.042785
2309.47192 0.042703
2309.86597 0.042621
2310.26001 0.042539
2310.65405 0.042456
2311.04810 0.042375
2311.44189 0.042295
2311.83594 0.042214
2312.22998 0.042133
2312.62500 0.042053
2313.01904 0.041972
2313.41406 0.041891
2313.80811 0.04181
2314.20288 0.041729
2314.59692 0.041647
2314.99194 0.041566
2315.38696 0.041485
2315.78198 0.041403
2316.17700 0.041322
2316.57202 0.04124
2316.96704 0.041159
2317.36206 0.041077
2317.75708 0.040995
2318.15308 0.040913
2318.54810 0.040831
2318.94312 0.040749
2319.33911 0.040667
2319.73389 0.040585
2320.12988 0.040502
2320.52588 0.040418
2320.92090 0.040335
2321.31689 0.040253
2321.71289 0.040172
2322.10889 0.04009
2322.50488 0.040008
2322.90088 0.039926
2323.29712 0.039844
2323.69409 0.039762
2324.09009 0.03968
2324.48608 0.039598
2324.88306 0.039516
2325.27905 0.039433
2325.67603 0.039351
2326.07300 0.039268
2326.46899 0.039186
2326.86597 0.039103
2327.26294 0.039021
2327.65991 0.038938
2328.05688 0.038855
2328.45410 0.038772
2328.85107 0.038689
2329.24805 0.038606
2329.64502 0.038523
2330.04297 0.03844
2330.43994 0.038358
2330.83691 0.038275
2331.23511 0.038191
2331.63306 0.038107
2332.03003 0.038023
2332.42798 0.037939
2332.82593 0.037855
2333.22412 0.037771
2333.62207 0.037686
2334.02002 0.037602
2334.41699 0.037517
2334.81592 0.037433
2335.21411 0.037348
2335.61206 0.037263
2336.01001 0.037179
2336.40894 0.037094
2336.80688 0.037009
2337.20605 0.036924
2337.60400 0.036838
2338.00293 0.036753
2338.40210 0.036668
2338.80103 0.036583
2339.19995 0.036497
2339.59912 0.036412
2339.99805 0.036326
2340.39697 0.03624
2340.79590 0.036154
2341.19507 0.03607
2341.59399 0.035985
2341.99390 0.035901
2342.39307 0.035816
2342.79199 0.035731
2343.19189 0.035646
2343.59204 0.035561
2343.99097 0.035477
2344.39111 0.035391
2344.79102 0.035306
2345.19092 0.035221
2345.59106 0.035136
2345.99097 0.03505
2346.39111 0.034965
2346.79102 0.034879
2347.19092 0.034794
2347.59204 0.034708
2347.99194 0.034622
2348.39307 0.034536
2348.79297 0.034451
2349.19409 0.034364
2349.59399 0.034278
2349.99512 0.034192
2350.39600 0.034106
2350.79712 0.03402
2351.19800 0.033935
2351.59912 0.03385
2352.00000 0.033766
2352.40088 0.033681
2352.80200 0.033596
2353.20288 0.033511
2353.60400 0.033426
2354.00610 0.033341
2354.40698 0.033255
2354.80908 0.03317
2355.20996 0.033085
2355.61206 0.032999
2356.01392 0.032914
2356.41602 0.032828
2356.81812 0.032742
2357.21997 0.032657
2357.62207 0.032571
2358.02393 0.032485
2358.42603 0.032399
2358.82788 0.032313
2359.22998 0.032227
2359.63306 0.03214
2360.03491 0.032054
2360.43799 0.031966
2360.84009 0.031878
2361.24292 0.031787
2361.64600 0.031696
2362.04810 0.031606
2362.45093 0.031515
2362.85400 0.031424
2363.25708 0.031333
2363.65991 0.031242
2364.06299 0.031151
2364.46704 0.03106
2364.87012 0.030968
2365.27295 0.030877
2365.67700 0.030786
2366.08008 0.030694
2366.48291 0.030603
2366.88696 0.030511
2367.29102 0.03042
2367.69409 0.030328
2368.09790 0.030236
2368.50195 0.030144
2368.90601 0.030052
2369.31006 0.02996
2369.71411 0.029868
2370.11792 0.029776
2370.52197 0.029685
2370.92700 0.029593
2371.33105 0.0295
2371.73608 0.029407
2372.13989 0.029315
2372.54492 0.029222
2372.94897 0.029129
2373.35400 0.029036
2373.75903 0.028943
2374.16406 0.028849
2374.56812 0.028756
2374.97290 0.028663
2375.37793 0.028569
2375.78394 0.028476
2376.18896 0.028382
2376.59399 0.028288
2376.99902 0.028195
2377.40503 0.028101
2377.81006 0.028007
2378.21606 0.027913
2378.62109 0.027819
2379.02710 0.027724
2379.43311 0.02763
2379.83911 0.027536
2380.24390 0.027441
2380.64990 0.027347
2381.05591 0.027251
2381.46191 0.027155
2381.86890 0.027059
2382.27490 0.026963
2382.68091 0.026867
2383.08691 0.026771
2383.49390 0.026675
2383.89990 0.026579
2384.30688 0.026482
2384.71411 0.026386
2385.12012 0.026289
2385.52710 0.026193
2385.93408 0.026096
2386.34106 0.025999
2386.74805 0.025902
2387.15503 0.025805
2387.56201 0.025708
2387.96899 0.025611
2388.37598 0.025514
2388.78394 0.025417
2389.19092 0.025319
2389.59912 0.025222
2390.00610 0.025124
2390.41406 0.025026
2390.82202 0.024927
2391.22900 0.024828
2391.63696 0.02473
2392.04492 0.024631
2392.45288 0.024532
2392.86108 0.024434
2393.26904 0.024335
2393.67700 0.024236
2394.08496 0.024137
2394.49390 0.024038
2394.90210 0.023938
2395.31104 0.023839
2395.71899 0.02374
2396.12793 0.02364
2396.53589 0.023541
2396.94507 0.023441
2397.35400 0.023342
2397.76294 0.023242
2398.17212 0.023142
2398.58105 0.023042
2398.98999 0.022942
2399.39893 0.022842
2399.80811 0.022742
2400.21704 0.022636
2400.62695 0.022523
2401.03589 0.022412
2401.44604 0.022301
2401.85498 0.022189
2402.26489 0.022078
2402.67505 0.021967
2403.08398 0.021856
2403.49390 0.021744
2403.90405 0.021633
2404.31396 0.021522
2404.72412 0.021411
2405.13403 0.0213
2405.54395 0.021189
2405.95508 0.021078
2406.36499 0.020967
2406.77490 0.020856
2407.18604 0.020745
2407.59595 0.020635
2408.00708 0.020524
2408.41797 0.020413
2408.82788 0.020302
2409.23901 0.020192
2409.64990 0.020081
2410.06104 0.019971
2410.47192 0.01986
2410.88306 0.019751
2411.29395 0.019644
2411.70605 0.019537
2412.11694 0.01943
2412.52808 0.019323
2412.93994 0.019216
2413.35107 0.019109
2413.76294 0.019002
2414.17505 0.018895
2414.58594 0.018788
2414.99805 0.018682
2415.40991 0.018575
2415.82202 0.018468
2416.23389 0.018362
2416.64600 0.018255
2417.05811 0.018149
2417.46997 0.018042
2417.88306 0.017936
2418.29492 0.017829
2418.70801 0.017723
2419.12012 0.017616
2419.53198 0.01751
2419.94507 0.017404
2420.35791 0.017297
2420.77100 0.017192
2421.18408 0.01709
2421.59595 0.016989
2422.01001 0.016888
2422.42310 0.016787
2422.83594 0.016686
2423.24902 0.016585
2423.66211 0.016485
2424.07495 0.016384
2424.48901 0.016283
2424.90210 0.016182
2425.31592 0.016081
2425.72900 0.015981
2426.14307 0.01588
2426.55688 0.015779
2426.97095 0.015679
2427.38501 0.015578
2427.79907 0.015478
2428.21289 0.015377
2428.62695 0.015277
2429.04102 0.015176
2429.45605 0.015076
2429.87012 0.014975
2430.28394 0.014874
2430.69897 0.014772
2431.11304 0.014676
2431.52808 0.014581
2431.94312 0.014486
2432.35693 0.01439
2432.77197 0.014295
2433.18701 0.0142
2433.60205 0.014105
2434.01709 0.01401
2434.43188 0.013915
2434.84692 0.01382
2435.26294 0.013725
2435.67798 0.01363
2436.09302 0.013535
2436.50903 0.01344
2436.92407 0.013345
2437.34009 0.013251
2437.75610 0.013156
2438.17090 0.013062
2438.58691 0.012967
2439.00293 0.012873
2439.41895 0.012778
2439.83496 0.012684
2440.25098 0.01259
2440.66699 0.012496
2441.08398 0.012409
2441.50000 0.012324
2441.91602 0.012239
2442.33301 0.012154
2442.74902 0.012069
2443.16602 0.011984
2443.58301 0.011899
2444.00000 0.011814
2444.41602 0.011729
2444.83301 0.011644
2445.25000 0.01156
2445.66699 0.011475
2446.08398 0.01139
2446.50098 0.011305
2446.91895 0.011221
2447.33594 0.011136
2447.75293 0.011052
2448.17090 0.010967
2448.58789 0.010883
2449.00610 0.010798
2449.42407 0.010714
2449.84106 0.01063
2450.25903 0.010545
2450.67700 0.010461
2451.09497 0.010385
2451.51294 0.010311
2451.93091 0.010237
2452.34912 0.010162
2452.76807 0.010088
2453.18604 0.010014
2453.60400 0.00994
2454.02295 0.009866
2454.44092 0.009792
2454.86011 0.009718
2455.27905 0.009644
2455.69702 0.00957
2456.11597 0.009496
2456.53491 0.009422
2456.95410 0.009349
2457.37305 0.009275
2457.79199 0.009201
2458.21094 0.009127
2458.62988 0.009054
2459.05005 0.00898
2459.46899 0.008907
2459.88892 0.008833
2460.30811 0.008759
2460.72803 0.008686
2461.14697 0.008621
2461.56689 0.008557
2461.98706 0.008493
2462.40698 0.008429
2462.82690 0.008365
2463.24707 0.008301
2463.66699 0.008237
2464.08691 0.008173
2464.50708 0.00811
2464.92798 0.008046
2465.34790 0.007982
2465.76904 0.007918
2466.18896 0.007855
2466.61011 0.007791
2467.03003 0.007727
2467.45093 0.007664
2467.87207 0.0076
2468.29297 0.007537
2468.71411 0.007474
2469.13501 0.00741
2469.55591 0.007347
2469.97705 0.007284
2470.39795 0.007221
2470.82007 0.007159
2471.24097 0.007105
2471.66211 0.007051
2472.08398 0.006996
2472.50610 0.006942
2472.92700 0.006888
2473.34912 0.006834
2473.77100 0.00678
2474.19312 0.006726
2474.61499 0.006672
2475.03711 0.006618
2475.45898 0.006564
2475.88110 0.00651
2476.30298 0.006456
2476.72607 0.006402
2477.14795 0.006349
2477.57104 0.006295
2477.99292 0.006241
2478.41602 0.006187
2478.83789 0.006134
2479.26099 0.00608
2479.68408 0.006026
2480.10693 0.005973
2480.53003 0.005919
2480.95288 0.005869
2481.37598 0.005824
2481.79907 0.005779
2482.22192 0.005734
2482.64600 0.005689
2483.06909 0.005643
2483.49292 0.005598
2483.91602 0.005553
2484.34009 0.005508
2484.76294 0.005463
2485.18701 0.005418
2485.61108 0.005373
2486.03491 0.005328
2486.45898 0.005283
2486.88306 0.005238
2487.30688 0.005193
2487.73096 0.005148
2488.15601 0.005104
2488.58008 0.005059
2489.00391 0.005014
2489.42896 0.004969
2489.85400 0.004924
2490.27808 0.00488
2490.70288 0.004835
2491.12793 0.004796
2491.55200 0.004757
2491.97803 0.004719
2492.40210 0.004681
2492.82788 0.004643
2493.25293 0.004605
2493.67798 0.004567
2494.10303 0.004529
2494.52905 0.004491
2494.95410 0.004453
2495.37891 0.004415
2495.80493 0.004377
2496.23096 0.004339
2496.65601 0.004301
2497.08203 0.004263
2497.50806 0.004225
2497.93408 0.004187
2498.36011 0.004149
2498.78589 0.004111
2499.21191 0.004074
2499.63892 0.004036
2500.06494 0.003998
2500.49097 0.00396
2500.91797 0.003925
2501.34399 0.003894
2501.77100 0.003863
2502.19800 0.003832
2502.62402 0.003801
2503.05103 0.00377
2503.47803 0.00374
2503.90503 0.003709
2504.33203 0.003678
2504.75903 0.003647
2505.18604 0.003617
2505.61401 0.003586
2506.04102 0.003555
2506.46802 0.003524
2506.89600 0.003494
2507.32300 0.003463
2507.75098 0.003433
2508.17798 0.003402
2508.60596 0.003372
2509.03394 0.003341
2509.46191 0.003311
2509.88989 0.00328
2510.31812 0.00325
2510.74609 0.003219
2511.17407 0.003194
2511.60303 0.003168
2512.03101 0.003142
2512.45898 0.003117
2512.88794 0.003091
2513.31592 0.003066
2513.74512 0.00304
2514.17407 0.003015
2514.60303 0.002989
2515.03101 0.002964
2515.45996 0.002939
2515.88892 0.002913
2516.31909 0.002888
2516.74805 0.002862
2517.17700 0.002837
2517.60596 0.002812
2518.03589 0.002786
2518.46509 0.002761
2518.89502 0.002736
2519.32397 0.002711
2519.75391 0.002685
2520.18408 0.00266
2520.61304 0.002635
2521.04297 0.002612
2521.47290 0.002591
2521.90308 0.002569
2522.33301 0.002547
2522.76294 0.002526
2523.19409 0.002504
2523.62402 0.002483
2524.05396 0.002461
2524.48511 0.00244
2524.91602 0.002418
2525.34595 0.002397
2525.77710 0.002375
2526.20801 0.002354
2526.63794 0.002333
2527.06909 0.002311
2527.50000 0.00229
2527.93091 0.002269
2528.36304 0.002247
2528.79395 0.002226
2529.22510 0.002205
2529.65601 0.002183
2530.08789 0.002162
2530.51904 0.002141
2530.95093 0.002122
2531.38306 0.002106
2531.81396 0.002089
2532.24609 0.002073
2532.67798 0.002057
2533.11011 0.002041
2533.54199 0.002024
2533.97412 0.002008
2534.40601 0.001992
2534.83789 0.001976
2535.27100 0.001959
2535.70288 0.001943
2536.13501 0.001927
2536.56812 0.001911
2537.00000 0.001895
2537.43311 0.001878
2537.86597 0.001862
2538.29907 0.001846
2538.73193 0.00183
2539.16504 0.001814
2539.59790 0.001798
2540.03101 0.001782
2540.46411 0.001766
2540.89697 0.001751
2541.33105 0.001737
2541.76392 0.001723
2542.19800 0.00171
2542.63110 0.001696
2543.06494 0.001683
2543.49902 0.001669
2543.93188 0.001656
2544.36597 0.001642
2544.80005 0.001629
2545.23389 0.001615
2545.66797 0.001602
2546.10205 0.001588
2546.53711 0.001575
2546.97095 0.001561
2547.40503 0.001548
2547.84009 0.001535
2548.27393 0.001521
2548.70898 0.001508
2549.14404 0.001494
2549.57788 0.001481
2550.01294 0.001468
2550.44800 0.001454
2550.88306 0.001441
2551.31812 0.00143
2551.75293 0.001419
2552.18799 0.001408
2552.62402 0.001396
2553.05908 0.001385
2553.49390 0.001374
2553.92993 0.001363
2554.36499 0.001352
2554.80103 0.00134
2555.23706 0.001329
2555.67310 0.001318
2556.10791 0.001307
2556.54395 0.001296
2556.97998 0.001285
2557.41699 0.001273
2557.85303 0.001262
2558.28906 0.001251
2558.72510 0.00124
2559.16211 0.001229
2559.59790 0.001218
2560.03491 0.001207
2560.47095 0.001196
2560.90796 0.001186
2561.34497 0.001176
2561.78101 0.001167
2562.21802 0.001158
2562.65503 0.001149
2563.09204 0.00114
2563.53003 0.00113
2563.96704 0.001121
2564.40405 0.001112
2564.84106 0.001103
2565.27905 0.001094
2565.71606 0.001085
2566.15405 0.001076
2566.59204 0.001067
2567.02905 0.001057
2567.46704 0.001048
2567.90503 0.001039
2568.34302 0.00103
2568.78101 0.001021
2569.21899 0.001012
2569.65698 0.001003
2570.09497 0.000994
2570.53394 0.000985
2570.97192 0.000977
2571.41089 0.00097
2571.84912 0.000962
2572.28809 0.000955
2572.72705 0.000948
2573.16504 0.000941
2573.60400 0.000934
2574.04297 0.000927
2574.48193 0.00092
2574.92090 0.000913
2575.36011 0.000906
2575.79907 0.000899
2576.23901 0.000892
2576.67798 0.000884
2577.11694 0.000877
2577.55688 0.00087
2577.99707 0.000863
2578.43604 0.000856
2578.87598 0.000849
2579.31592 0.000842
2579.75610 0.000835
2580.19604 0.000828
2580.63599 0.000821
2581.07593 0.000815
2581.51611 0.000809
2581.95605 0.000803
2582.39697 0.000797
2582.83691 0.000791
2583.27808 0.000785
2583.71802 0.000779
2584.15894 0.000774
2584.60010 0.000768
2585.04102 0.000762
2585.48096 0.000756
2585.92212 0.00075
2586.36304 0.000744
2586.80396 0.000738
2587.24609 0.000732
2587.68701 0.000727
2588.12793 0.000721
2588.57007 0.000715
2589.01099 0.000709
2589.45288 0.000703
2589.89404 0.000697
2590.33594 0.000692
2590.77808 0.000686
2591.21899 0.000681
2591.66089 0.000675
2592.10400 0.00067
2592.54492 0.000665
2592.98804 0.00066
2593.42993 0.000654
2593.87207 0.000649
2594.31396 0.000644
2594.75708 0.000639
2595.19897 0.000634
2595.64209 0.000628
2596.08496 0.000623
2596.52808 0.000618
2596.96997 0.000613
2597.41309 0.000608
2597.85596 0.000602
2598.29907 0.000597
2598.74194 0.000592
2599.18604 0.000587
2599.62891 0.000582
2600.07202 0.000577
2600.51611 0.000571
2600.95898 0.000567
2601.40308 0.000563
2601.84595 0.000559
2602.29004 0.000555
2602.73389 0.000551
2603.17798 0.000547
2603.62207 0.000543
2604.06592 0.000539
2604.51001 0.000535
2604.95410 0.000531
2605.39795 0.000527
2605.84302 0.000523
2606.28711 0.000519
2606.73193 0.000515
2607.17603 0.000511
2607.62109 0.000507
2608.06592 0.000503
2608.51001 0.000499
2608.95508 0.000496
2609.39990 0.000492
2609.84497 0.000488
2610.29102 0.000484
2610.73608 0.00048
2611.18091 0.000476
2611.62598 0.000473
2612.07202 0.00047
2612.51709 0.000466
2612.96289 0.000463
2613.40796 0.000459
2613.85400 0.000456
2614.30005 0.000452
2614.74609 0.000449
2615.19189 0.000446
2615.63794 0.000442
2616.08398 0.000439
2616.53003 0.000436
2616.97607 0.000432
2617.42212 0.000429
2617.86890 0.000425
2618.31494 0.000422
2618.76196 0.000419
2619.20801 0.000415
2619.65503 0.000412
2620.10205 0.000409
2620.54907 0.000405
2620.99609 0.000402
2883.09570 0.0
