# %ECSV 0.9
# ---
# datatype:
# - {name: wavelength, unit: Angstrom, datatype: float32}
# - {name: response, datatype: float32}
# meta: !!omap
# - {band_name: F547M}
# - {group_name: WFC3_UVIS2}
wavelength response
4509.89648 0.0
5010.99609 0.000415
5011.85303 0.00044
5012.70996 0.000467
5013.56787 0.000489
5014.42578 0.000521
5015.28418 0.000541
5016.14209 0.000578
5017.00000 0.000612
5017.85791 0.000645
5018.71680 0.000681
5019.57617 0.000721
5020.43506 0.000764
5021.29297 0.000815
5022.15186 0.000855
5023.01221 0.000906
5023.87109 0.000958
5024.73096 0.001009
5025.58984 0.001063
5026.45020 0.001121
5027.31104 0.001188
5028.16992 0.001255
5029.03076 0.001319
5029.89111 0.001399
5030.75195 0.001484
5031.61279 0.001563
5032.47412 0.001659
5033.33398 0.001751
5034.19580 0.001866
5035.05713 0.001965
5035.91797 0.002081
5036.77979 0.002205
5037.64209 0.002322
5038.50391 0.002456
5039.36621 0.002606
5040.22803 0.002759
5041.08984 0.002901
5041.95312 0.003064
5042.81494 0.00324
5043.67822 0.00342
5044.54102 0.00362
5045.40381 0.003857
5046.26807 0.004103
5047.13086 0.004337
5047.99512 0.004595
5048.85791 0.004862
5049.72217 0.005144
5050.58594 0.005458
5051.45020 0.005762
5052.31396 0.006106
5053.17920 0.006461
5054.04297 0.006832
5054.90820 0.007221
5055.77295 0.007641
5056.63818 0.008093
5057.50293 0.008559
5058.36914 0.009104
5059.23389 0.009618
5060.10010 0.010219
5060.96484 0.010823
5061.83105 0.011452
5062.69678 0.012134
5063.56299 0.012852
5064.43018 0.013594
5065.29590 0.014361
5066.16309 0.015219
5067.02979 0.0161
5067.89600 0.017026
5068.76416 0.017972
5069.63086 0.01895
5070.49902 0.02008
5071.36621 0.021265
5072.23291 0.02252
5073.10205 0.02381
5073.96924 0.025193
5074.83691 0.026626
5075.70605 0.0281
5076.57422 0.029656
5077.44287 0.031272
5078.31201 0.032938
5079.18115 0.034827
5080.04883 0.036675
5080.91797 0.038614
5081.78809 0.040561
5082.65723 0.042508
5083.52686 0.04473
5084.39697 0.046973
5085.26709 0.049544
5086.13721 0.052094
5087.00684 0.054676
5087.87695 0.057347
5088.74805 0.060084
5089.61914 0.062865
5090.48877 0.065763
5091.35986 0.068697
5092.23096 0.071778
5093.10303 0.074933
5093.97412 0.078218
5094.84619 0.081358
5095.71680 0.084461
5096.58887 0.087888
5097.46094 0.091228
5098.33301 0.095145
5099.20605 0.098671
5100.07812 0.10208
5100.95117 0.105734
5101.82324 0.10955
5102.69580 0.113284
5103.56885 0.116843
5104.44189 0.120274
5105.31592 0.124237
5106.18896 0.127747
5107.06299 0.13129
5107.93701 0.134687
5108.81104 0.138063
5109.68506 0.141535
5110.55908 0.144948
5111.43408 0.148495
5112.30811 0.151892
5113.18311 0.155385
5114.05811 0.158616
5114.93311 0.161668
5115.80811 0.164841
5116.68311 0.168046
5117.55811 0.170846
5118.43408 0.173974
5119.31006 0.176574
5120.18604 0.179518
5121.06201 0.181955
5121.93799 0.184259
5122.81396 0.186757
5123.68994 0.189319
5124.56689 0.191706
5125.44385 0.194495
5126.32080 0.19665
5127.19824 0.198801
5128.07520 0.200996
5128.95312 0.202952
5129.83008 0.204951
5130.70801 0.207045
5131.58496 0.208809
5132.46387 0.210785
5133.34180 0.212599
5134.22021 0.213829
5135.09912 0.215665
5135.97705 0.21709
5136.85596 0.218541
5137.73486 0.220321
5138.61377 0.221818
5139.49316 0.222989
5140.37207 0.22448
5141.25195 0.225456
5142.13086 0.22682
5143.01123 0.228166
5143.89111 0.229272
5144.77100 0.230283
5145.65088 0.231438
5146.53223 0.23268
5147.41309 0.233639
5148.29297 0.234809
5149.17383 0.235698
5150.05518 0.236545
5150.93604 0.237588
5151.81689 0.238471
5152.69922 0.238981
5153.58105 0.239612
5154.46191 0.240609
5155.34424 0.241711
5156.22607 0.242442
5157.10791 0.242957
5157.99121 0.243741
5158.87305 0.244519
5159.75586 0.245069
5160.63916 0.2456
5161.52100 0.246202
5162.40479 0.246584
5163.28809 0.247612
5164.17090 0.248121
5165.05518 0.248418
5165.93799 0.249119
5166.82324 0.249683
5167.70703 0.249932
5168.59082 0.250854
5169.47510 0.25154
5170.35889 0.251777
5171.24414 0.251767
5172.12891 0.252242
5173.01416 0.25276
5173.89893 0.253216
5174.78418 0.25365
5175.66895 0.254057
5176.55518 0.254422
5177.44092 0.254552
5178.32715 0.254473
5179.21191 0.255307
5180.09912 0.255558
5180.98486 0.255667
5181.87207 0.255865
5182.75781 0.256102
5183.64502 0.256348
5184.53223 0.256576
5185.41797 0.257212
5186.30615 0.257151
5187.19287 0.257384
5188.08105 0.257592
5188.96777 0.257963
5189.85596 0.257966
5190.74414 0.257732
5191.63184 0.258104
5192.52100 0.258195
5193.40918 0.258559
5194.29688 0.258717
5195.18604 0.25884
5196.07520 0.259164
5196.96387 0.259175
5197.85303 0.259176
5198.74316 0.259446
5199.63184 0.259544
5200.52100 0.259398
5201.41211 0.259107
5202.30078 0.259579
5203.19092 0.260059
5204.08203 0.259941
5204.97217 0.259813
5205.86279 0.260057
5206.75293 0.260401
5207.64404 0.260504
5208.53516 0.260679
5209.42578 0.260558
5210.31787 0.260553
5211.20898 0.261025
5212.10107 0.260752
5212.99316 0.260839
5213.88379 0.260929
5214.77588 0.260883
5215.66797 0.261313
5216.56104 0.261445
5217.45410 0.261298
5218.34619 0.261247
5219.23877 0.261134
5220.13184 0.261444
5221.02490 0.261754
5221.91797 0.261739
5222.81201 0.261688
5223.70605 0.261792
5224.59912 0.261735
5225.49316 0.262603
5226.38721 0.262303
5227.28076 0.261935
5228.17578 0.262091
5229.06982 0.2622
5229.96484 0.262272
5230.85986 0.262406
5231.75488 0.26256
5232.64990 0.262632
5233.54492 0.262554
5234.43994 0.26294
5235.33594 0.262749
5236.23193 0.262825
5237.12793 0.263062
5238.02393 0.263095
5238.91992 0.263119
5239.81592 0.26329
5240.71289 0.263533
5241.60889 0.263776
5242.50586 0.263556
5243.40283 0.263234
5244.29980 0.26381
5245.19824 0.264143
5246.09521 0.264183
5246.99316 0.263976
5247.89111 0.264083
5248.78906 0.264428
5249.68701 0.26441
5250.58398 0.264453
5251.48291 0.264659
5252.38086 0.264892
5253.27979 0.264459
5254.17920 0.264498
5255.07812 0.264816
5255.97705 0.265192
5256.87598 0.265217
5257.77588 0.265105
5258.67480 0.265541
5259.57520 0.265938
5260.47510 0.26501
5261.37500 0.26551
5262.27490 0.26567
5263.17480 0.265721
5264.07617 0.265718
5264.97705 0.265806
5265.87695 0.26584
5266.77783 0.265789
5267.68018 0.265898
5268.58105 0.266086
5269.48193 0.266314
5270.38379 0.266341
5271.28613 0.266364
5272.18701 0.266443
5273.08887 0.266425
5273.99219 0.266422
5274.89404 0.266594
5275.79590 0.266836
5276.69922 0.266885
5277.60205 0.266749
5278.50488 0.266588
5279.40820 0.266766
5280.31201 0.266968
5281.21484 0.266415
5282.11816 0.26673
5283.02197 0.266885
5283.92578 0.266906
5284.83008 0.266986
5285.73389 0.266925
5286.63916 0.267069
5287.54297 0.267064
5288.44824 0.2673
5289.35303 0.26689
5290.25781 0.266802
5291.16309 0.266837
5292.06787 0.266889
5292.97412 0.266621
5293.87891 0.266497
5294.78516 0.266693
5295.69092 0.266521
5296.59717 0.266259
5297.50293 0.26626
5298.40918 0.266385
5299.31592 0.26628
5300.22314 0.266212
5301.12891 0.266444
5302.03711 0.266461
5302.94287 0.2663
5303.85107 0.266434
5304.75781 0.266516
5305.66602 0.2658
5306.57422 0.265734
5307.48096 0.265527
5308.39014 0.265762
5309.29785 0.265624
5310.20703 0.265204
5311.11523 0.265009
5312.02295 0.265059
5312.93311 0.265033
5313.84082 0.264927
5314.75000 0.264868
5315.66016 0.264679
5316.56885 0.264645
5317.47900 0.264482
5318.38916 0.264902
5319.29883 0.264058
5320.20898 0.263631
5321.11914 0.263782
5322.02979 0.263695
5322.93994 0.263603
5323.85107 0.263527
5324.76221 0.263215
5325.67285 0.263278
5326.58398 0.263545
5327.49512 0.263045
5328.40723 0.262899
5329.31787 0.262905
5330.22998 0.262557
5331.14209 0.262483
5332.05420 0.262237
5332.96680 0.262014
5333.87891 0.261862
5334.79199 0.261655
5335.70508 0.261634
5336.61719 0.261543
5337.52979 0.260885
5338.44385 0.260983
5339.35693 0.26082
5340.27100 0.260637
5341.18408 0.260679
5342.09814 0.260318
5343.01221 0.26035
5343.92578 0.260196
5344.84082 0.259775
5345.75488 0.259804
5346.66992 0.259383
5347.58398 0.259368
5348.50000 0.259455
5349.41504 0.258871
5350.33008 0.258793
5351.24512 0.258929
5352.16113 0.258873
5353.07715 0.258572
5353.99219 0.258251
5354.90918 0.258239
5355.82520 0.258387
5356.74121 0.258153
5357.65820 0.257612
5358.57422 0.257464
5359.49121 0.257443
5360.40820 0.257535
5361.32520 0.257229
5362.24219 0.257267
5363.16016 0.256921
5364.07812 0.256683
5364.99512 0.256496
5365.91309 0.256296
5366.83105 0.256302
5367.75000 0.256317
5368.66797 0.255892
5369.58594 0.255731
5370.50488 0.255619
5371.42383 0.255588
5372.34277 0.255373
5373.26221 0.255481
5374.18213 0.255324
5375.10107 0.25509
5376.02100 0.254867
5376.93994 0.254834
5377.85986 0.254917
5378.78076 0.254823
5379.70117 0.254645
5380.62109 0.254524
5381.54199 0.254911
5382.46191 0.254499
5383.38379 0.254085
5384.30518 0.254465
5385.22607 0.254243
5386.14697 0.253826
5387.06885 0.253883
5387.99023 0.253974
5388.91211 0.254078
5389.83398 0.254071
5390.75586 0.253514
5391.67920 0.253382
5392.60107 0.253356
5393.52393 0.25328
5394.44678 0.25356
5395.37012 0.252958
5396.29297 0.252912
5397.21582 0.252975
5398.14014 0.252634
5399.06299 0.252564
5399.98682 0.252721
5400.91113 0.252807
5401.83496 0.252817
5402.75879 0.252778
5403.68408 0.252785
5404.60791 0.252512
5405.53320 0.252635
5406.45801 0.252387
5407.38281 0.252844
5408.30811 0.252627
5409.23291 0.252557
5410.15918 0.25249
5411.08398 0.252374
5412.00977 0.252515
5412.93604 0.252547
5413.86182 0.252234
5414.78906 0.252051
5415.71484 0.251978
5416.64209 0.251773
5417.56787 0.251944
5418.49512 0.251712
5419.42188 0.2517
5420.35010 0.251948
5421.27686 0.251787
5422.20508 0.251674
5423.13184 0.251877
5424.06006 0.252026
5424.98779 0.251867
5425.91602 0.251594
5426.84521 0.251422
5427.77295 0.251493
5428.70215 0.251774
5429.62988 0.251139
5430.56006 0.251173
5431.48877 0.251592
5432.41797 0.251744
5433.34717 0.25132
5434.27686 0.251447
5435.20703 0.251502
5436.13721 0.25161
5437.06689 0.251468
5437.99707 0.251563
5438.92676 0.251666
5439.85791 0.251444
5440.78906 0.251452
5441.72021 0.251443
5442.65088 0.251707
5443.58203 0.251103
5444.51318 0.250943
5445.44482 0.251301
5446.37598 0.251233
5447.30811 0.250977
5448.24023 0.251141
5449.17188 0.251047
5450.10498 0.251066
5451.03711 0.251032
5451.97021 0.251068
5452.90283 0.251059
5453.83594 0.250933
5454.76904 0.251085
5455.70215 0.250648
5456.63623 0.250906
5457.56885 0.25096
5458.50293 0.251138
5459.43701 0.250731
5460.37109 0.250395
5461.30518 0.250473
5462.24023 0.250691
5463.17383 0.250632
5464.10889 0.250442
5465.04395 0.250461
5465.97900 0.250498
5466.91406 0.250476
5467.84912 0.250348
5468.78516 0.249927
5469.72119 0.249966
5470.65576 0.250349
5471.59180 0.249946
5472.52783 0.250293
5473.46484 0.250437
5474.40088 0.249942
5475.33789 0.250065
5476.27490 0.250166
5477.21191 0.249983
5478.14893 0.249741
5479.08594 0.249821
5480.02295 0.249793
5480.96094 0.249629
5481.89893 0.249634
5482.83691 0.249578
5483.77490 0.249543
5484.71289 0.249876
5485.65088 0.249584
5486.58984 0.249343
5487.52881 0.249232
5488.46777 0.249407
5489.40723 0.24949
5490.34619 0.249349
5491.28516 0.249155
5492.22510 0.249186
5493.16504 0.249051
5494.10400 0.24883
5495.04395 0.24879
5495.98486 0.248778
5496.92480 0.248593
5497.86523 0.248462
5498.80615 0.248514
5499.74707 0.24846
5500.68799 0.248483
5501.62891 0.248137
5502.56982 0.247867
5503.51221 0.248043
5504.45410 0.247972
5505.39502 0.248364
5506.33691 0.247914
5507.27881 0.247711
5508.22217 0.24741
5509.16406 0.247479
5510.10596 0.247592
5511.04883 0.247479
5511.99219 0.247365
5512.93506 0.247439
5513.87793 0.247264
5514.82178 0.246826
5515.76611 0.247067
5516.70898 0.246865
5517.65283 0.246718
5518.59717 0.246675
5519.54199 0.246705
5520.48584 0.24641
5521.43018 0.24678
5522.37500 0.246617
5523.31982 0.246098
5524.26514 0.245898
5525.20996 0.245786
5526.15479 0.245871
5527.10107 0.245856
5528.04590 0.245731
5528.99219 0.245596
5529.93799 0.245327
5530.88379 0.245092
5531.83105 0.245088
5532.77686 0.245077
5533.72412 0.245233
5534.66992 0.244848
5535.61816 0.244618
5536.56396 0.244683
5537.51221 0.244645
5538.45898 0.244272
5539.40723 0.244298
5540.35400 0.244235
5541.30322 0.243739
5542.25000 0.244042
5543.19922 0.24386
5544.14697 0.243665
5545.09619 0.24345
5546.04395 0.243364
5546.99414 0.243184
5547.94189 0.242987
5548.89209 0.243073
5549.84082 0.24301
5550.79102 0.243058
5551.74023 0.242424
5552.68994 0.242343
5553.64014 0.242209
5554.58984 0.242086
5555.54102 0.241807
5556.49121 0.241744
5557.44189 0.241503
5558.39307 0.241333
5559.34424 0.241187
5560.29492 0.241005
5561.24707 0.240948
5562.19824 0.240836
5563.14893 0.240767
5564.10205 0.240312
5565.05420 0.240081
5566.00586 0.240303
5566.95801 0.2402
5567.91113 0.239685
5568.86279 0.23936
5569.81592 0.239426
5570.76904 0.239271
5571.72217 0.238622
5572.67480 0.239006
5573.62891 0.238732
5574.58301 0.237974
5575.53613 0.238546
5576.49023 0.237827
5577.44385 0.237498
5578.39795 0.237431
5579.35303 0.237063
5580.30811 0.236853
5581.26221 0.236624
5582.21680 0.236515
5583.17188 0.236318
5584.12695 0.236398
5585.08301 0.236102
5586.03906 0.235668
5586.99414 0.235682
5587.95020 0.235596
5588.90576 0.235239
5589.86182 0.234968
5590.81885 0.234775
5591.77490 0.234696
5592.73193 0.234265
5593.68896 0.234303
5594.64600 0.233942
5595.60303 0.233634
5596.56104 0.233673
5597.51807 0.233249
5598.47607 0.23355
5599.43408 0.23298
5600.39209 0.232651
5601.35010 0.232428
5602.30811 0.232235
5603.26709 0.231898
5604.22607 0.231851
5605.18506 0.231682
5606.14404 0.23162
5607.10303 0.231485
5608.06201 0.231221
5609.02100 0.230775
5609.98096 0.230311
5610.94092 0.230139
5611.90088 0.22975
5612.86084 0.229325
5613.82080 0.229622
5614.78223 0.229495
5615.74316 0.229299
5616.70410 0.229002
5617.66504 0.228483
5618.62500 0.228181
5619.58691 0.227758
5620.54785 0.228141
5621.50977 0.227758
5622.47217 0.227191
5623.43408 0.226602
5624.39600 0.226556
5625.35791 0.226491
5626.32080 0.226258
5627.28320 0.225787
5628.24609 0.225548
5629.20898 0.225497
5630.17188 0.225263
5631.13477 0.225004
5632.09912 0.224804
5633.06201 0.224443
5634.02588 0.224127
5634.99023 0.223894
5635.95508 0.22346
5636.91797 0.223142
5637.88281 0.223214
5638.84814 0.223123
5639.81299 0.222444
5640.77686 0.222183
5641.74316 0.22179
5642.70801 0.221813
5643.67285 0.221326
5644.63916 0.221093
5645.60400 0.22078
5646.57080 0.220504
5647.53711 0.219935
5648.50293 0.219983
5649.46924 0.219673
5650.43604 0.219316
5651.40283 0.219185
5652.37012 0.219034
5653.33691 0.218697
5654.30420 0.218272
5655.27100 0.217914
5656.23877 0.21755
5657.20703 0.217331
5658.17480 0.217063
5659.14307 0.216981
5660.11084 0.216672
5661.08008 0.216503
5662.04785 0.21641
5663.01709 0.21597
5663.98584 0.215748
5664.95508 0.215452
5665.92383 0.21494
5666.89404 0.214812
5667.86279 0.214445
5668.83301 0.214272
5669.80322 0.21383
5670.77197 0.213917
5671.74316 0.213546
5672.71289 0.213115
5673.68408 0.213092
5674.65479 0.212789
5675.62500 0.212547
5676.59717 0.212065
5677.56787 0.211741
5678.53906 0.211666
5679.51123 0.211219
5680.48193 0.210964
5681.45508 0.21086
5682.42578 0.210694
5683.39893 0.210451
5684.37109 0.210196
5685.34424 0.209579
5686.31592 0.20928
5687.29004 0.209268
5688.26221 0.209128
5689.23584 0.208809
5690.20898 0.208662
5691.18311 0.208426
5692.15576 0.208
5693.12988 0.207648
5694.10400 0.207526
5695.07910 0.207277
5696.05322 0.2069
5697.02686 0.206519
5698.00195 0.206049
5698.97705 0.205955
5699.95215 0.20608
5700.92676 0.205827
5701.90283 0.20565
5702.87793 0.205517
5703.85400 0.205128
5704.83008 0.20474
5705.80615 0.204369
5706.78223 0.20442
5707.75879 0.203883
5708.73486 0.203769
5709.71191 0.203717
5710.68896 0.20326
5711.66602 0.203213
5712.64307 0.202579
5713.62109 0.203132
5714.59814 0.202396
5715.57617 0.20232
5716.55420 0.202327
5717.53223 0.201788
5718.50977 0.201667
5719.48779 0.201285
5720.46680 0.201319
5721.44580 0.200964
5722.42480 0.200773
5723.40381 0.200385
5724.38281 0.200348
5725.36182 0.200284
5726.34180 0.199642
5727.32178 0.199569
5728.30176 0.199627
5729.28223 0.199209
5730.26221 0.198845
5731.24316 0.19858
5732.22314 0.19817
5733.20410 0.198142
5734.18506 0.198087
5735.16602 0.197807
5736.14697 0.197706
5737.12793 0.197528
5738.10986 0.197206
5739.09180 0.197014
5740.07422 0.19684
5741.05615 0.196523
5742.03809 0.1962
5743.02100 0.196102
5744.00293 0.195865
5744.98584 0.195425
5745.96924 0.195214
5746.95215 0.195004
5747.93506 0.194872
5748.91797 0.194349
5749.90186 0.194115
5750.88623 0.193867
5751.87012 0.193611
5752.85400 0.193387
5753.83789 0.192943
5754.82324 0.192755
5755.80811 0.192379
5756.79199 0.19232
5757.77686 0.191765
5758.76221 0.191587
5759.74805 0.191301
5760.73291 0.191192
5761.71924 0.190607
5762.70508 0.190363
5763.68994 0.190087
5764.67676 0.189705
5765.66309 0.189463
5766.64893 0.189198
5767.63623 0.18863
5768.62305 0.188312
5769.60986 0.187758
5770.59717 0.187316
5771.58398 0.186772
5772.57178 0.186584
5773.56006 0.186088
5774.54688 0.185514
5775.53516 0.184713
5776.52295 0.185036
5777.51221 0.184027
5778.50000 0.183269
5779.48877 0.182978
5780.47803 0.182558
5781.46680 0.181861
5782.45605 0.181105
5783.44482 0.18057
5784.43506 0.179901
5785.42383 0.179175
5786.41504 0.17858
5787.40381 0.177794
5788.39502 0.177075
5789.38477 0.176355
5790.37500 0.175713
5791.36621 0.174861
5792.35693 0.174075
5793.34814 0.173236
5794.33887 0.172328
5795.33105 0.171399
5796.32178 0.170291
5797.31396 0.169353
5798.30615 0.168181
5799.29785 0.16735
5800.29004 0.166132
5801.28320 0.165022
5802.27490 0.163885
5803.26807 0.162622
5804.26123 0.161413
5805.25391 0.16007
5806.24707 0.15884
5807.24023 0.157527
5808.23389 0.156135
5809.22803 0.154643
5810.22217 0.152953
5811.21582 0.151504
5812.20996 0.149844
5813.20508 0.148085
5814.19922 0.146205
5815.19385 0.1444
5816.18896 0.142752
5817.18408 0.141029
5818.17920 0.139071
5819.17480 0.136927
5820.16992 0.134818
5821.16602 0.132631
5822.16211 0.130296
5823.15820 0.128054
5824.15479 0.125742
5825.15088 0.12334
5826.14697 0.120873
5827.14502 0.118406
5828.14209 0.115947
5829.13916 0.113449
5830.13623 0.111042
5831.13281 0.108412
5832.13086 0.105743
5833.12891 0.103075
5834.12695 0.100257
5835.12500 0.097479
5836.12402 0.094671
5837.12207 0.091818
5838.12109 0.089045
5839.12012 0.086361
5840.11914 0.083565
5841.11816 0.080825
5842.11719 0.07809
5843.11719 0.075472
5844.11719 0.072994
5845.11719 0.070324
5846.11719 0.067594
5847.11719 0.064999
5848.11719 0.062541
5849.11816 0.060027
5850.11914 0.057462
5851.12012 0.055055
5852.12109 0.052826
5853.12207 0.050581
5854.12305 0.048368
5855.12500 0.0462
5856.12598 0.044165
5857.12793 0.042291
5858.13086 0.040438
5859.13281 0.038484
5860.13623 0.0366
5861.13818 0.0349
5862.14111 0.033207
5863.14404 0.031533
5864.14697 0.02993
5865.14990 0.028458
5866.15381 0.027056
5867.15820 0.025684
5868.16211 0.024359
5869.16602 0.023169
5870.16895 0.022056
5871.17383 0.020995
5872.17920 0.019915
5873.18311 0.018838
5874.18799 0.017846
5875.19287 0.016907
5876.19824 0.016006
5877.20410 0.015141
5878.20898 0.014332
5879.21484 0.013585
5880.22119 0.012865
5881.22705 0.012186
5882.23291 0.011563
5883.24023 0.010971
5884.24609 0.010418
5885.25293 0.009876
5886.25977 0.009334
5887.26709 0.008825
5888.27393 0.008354
5889.28223 0.007908
5890.29004 0.00748
5891.29688 0.007069
5892.30518 0.006712
5893.31299 0.006363
5894.32178 0.006031
5895.33008 0.005709
5896.33887 0.005431
5897.34814 0.005159
5898.35596 0.004898
5899.36621 0.004652
5900.37500 0.004394
5901.38477 0.00416
5902.39502 0.003942
5903.40381 0.003753
5904.41406 0.003551
5905.42383 0.003372
5906.43506 0.003199
5907.44482 0.003035
5908.45605 0.002887
5909.46680 0.002738
5910.47803 0.002609
5911.48877 0.002478
5912.50098 0.002355
5913.51221 0.00224
5914.52393 0.002122
5915.53613 0.002012
5916.54785 0.001912
5917.56104 0.00182
5918.57324 0.001729
5919.58496 0.001642
5920.59814 0.001564
5921.61084 0.001496
5922.62500 0.001412
5923.63818 0.001352
5924.65088 0.001282
5925.66504 0.001224
5926.67920 0.001171
5927.69287 0.001107
5928.70703 0.001054
5929.72217 0.001005
5930.73584 0.000956
5931.75000 0.00091
5932.76611 0.000868
5933.78076 0.000829
5934.79590 0.00079
5935.81201 0.000753
5936.82715 0.000718
5937.84277 0.000688
5938.85791 0.000656
5939.87500 0.000627
5940.89111 0.000598
5941.90723 0.00057
5942.92383 0.00054
5943.94092 0.000517
5944.95801 0.000492
5945.97510 0.00047
5946.99219 0.00045
5948.00977 0.00043
5949.02686 0.000411
6543.92969 0.0
