# %ECSV 0.9
# ---
# datatype:
# - {name: wavelength, unit: Angstrom, datatype: float32}
# - {name: response, datatype: float32}
# meta: !!omap
# - {band_name: F547M}
# - {group_name: WFC3_UVIS1}
wavelength response
4509.89648 0.0
5010.99609 0.000416
5011.85303 0.000442
5012.70996 0.000468
5013.56787 0.000491
5014.42578 0.000522
5015.28418 0.000542
5016.14209 0.00058
5017.00000 0.000614
5017.85791 0.000647
5018.71680 0.000683
5019.57617 0.000723
5020.43506 0.000766
5021.29297 0.000817
5022.15186 0.000858
5023.01221 0.000908
5023.87109 0.000961
5024.73096 0.001012
5025.58984 0.001067
5026.45020 0.001124
5027.31104 0.001192
5028.16992 0.001259
5029.03076 0.001323
5029.89111 0.001403
5030.75195 0.001488
5031.61279 0.001568
5032.47412 0.001664
5033.33398 0.001757
5034.19580 0.001872
5035.05713 0.00197
5035.91797 0.002087
5036.77979 0.002211
5037.64209 0.002329
5038.50391 0.002463
5039.36621 0.002614
5040.22803 0.002767
5041.08984 0.002909
5041.95312 0.003073
5042.81494 0.00325
5043.67822 0.00343
5044.54102 0.003631
5045.40381 0.003869
5046.26807 0.004115
5047.13086 0.00435
5047.99512 0.004609
5048.85791 0.004876
5049.72217 0.005159
5050.58594 0.005474
5051.45020 0.005779
5052.31396 0.006124
5053.17920 0.00648
5054.04297 0.006852
5054.90820 0.007242
5055.77295 0.007663
5056.63818 0.008117
5057.50293 0.008584
5058.36914 0.00913
5059.23389 0.009646
5060.10010 0.010249
5060.96484 0.010855
5061.83105 0.011485
5062.69678 0.01217
5063.56299 0.012889
5064.43018 0.013633
5065.29590 0.014403
5066.16309 0.015263
5067.02979 0.016147
5067.89600 0.017076
5068.76416 0.018025
5069.63086 0.019005
5070.49902 0.020139
5071.36621 0.021327
5072.23291 0.022586
5073.10205 0.02388
5073.96924 0.025266
5074.83691 0.026704
5075.70605 0.028182
5076.57422 0.029743
5077.44287 0.031364
5078.31201 0.033035
5079.18115 0.034929
5080.04883 0.036782
5080.91797 0.038727
5081.78809 0.04068
5082.65723 0.042633
5083.52686 0.044862
5084.39697 0.047111
5085.26709 0.04969
5086.13721 0.052247
5087.00684 0.054836
5087.87695 0.057515
5088.74805 0.060261
5089.61914 0.063049
5090.48877 0.065957
5091.35986 0.068899
5092.23096 0.071989
5093.10303 0.075153
5093.97412 0.078448
5094.84619 0.081597
5095.71680 0.084709
5096.58887 0.088146
5097.46094 0.091496
5098.33301 0.095425
5099.20605 0.098962
5100.07812 0.102381
5100.95117 0.106046
5101.82324 0.109872
5102.69580 0.113618
5103.56885 0.117187
5104.44189 0.120628
5105.31592 0.124603
5106.18896 0.128123
5107.06299 0.131677
5107.93701 0.135084
5108.81104 0.13847
5109.68506 0.141952
5110.55908 0.145375
5111.43408 0.148933
5112.30811 0.15234
5113.18311 0.155843
5114.05811 0.159084
5114.93311 0.162145
5115.80811 0.165327
5116.68311 0.168542
5117.55811 0.17135
5118.43408 0.174487
5119.31006 0.177095
5120.18604 0.180048
5121.06201 0.182492
5121.93799 0.184803
5122.81396 0.187309
5123.68994 0.189878
5124.56689 0.192272
5125.44385 0.19507
5126.32080 0.197231
5127.19824 0.199389
5128.07520 0.20159
5128.95312 0.203551
5129.83008 0.205557
5130.70801 0.207657
5131.58496 0.209426
5132.46387 0.211408
5133.34180 0.213228
5134.22021 0.214461
5135.09912 0.216302
5135.97705 0.217732
5136.85596 0.219187
5137.73486 0.220973
5138.61377 0.222474
5139.49316 0.223649
5140.37207 0.225145
5141.25195 0.226123
5142.13086 0.227491
5143.01123 0.228842
5143.89111 0.229951
5144.77100 0.230965
5145.65088 0.232123
5146.53223 0.233369
5147.41309 0.234331
5148.29297 0.235504
5149.17383 0.236397
5150.05518 0.237246
5150.93604 0.238292
5151.81689 0.239178
5152.69922 0.239689
5153.58105 0.240322
5154.46191 0.241322
5155.34424 0.242428
5156.22607 0.243161
5157.10791 0.243678
5157.99121 0.244465
5158.87305 0.245245
5159.75586 0.245796
5160.63916 0.246328
5161.52100 0.246933
5162.40479 0.247316
5163.28809 0.248347
5164.17090 0.248858
5165.05518 0.249156
5165.93799 0.249859
5166.82324 0.250424
5167.70703 0.250675
5168.59082 0.251599
5169.47510 0.252287
5170.35889 0.252525
5171.24414 0.252516
5172.12891 0.252992
5173.01416 0.253511
5173.89893 0.253969
5174.78418 0.254404
5175.66895 0.254813
5176.55518 0.255179
5177.44092 0.255309
5178.32715 0.25523
5179.21191 0.256067
5180.09912 0.256319
5180.98486 0.256427
5181.87207 0.256627
5182.75781 0.256864
5183.64502 0.257111
5184.53223 0.257339
5185.41797 0.257978
5186.30615 0.257917
5187.19287 0.25815
5188.08105 0.25836
5188.96777 0.258732
5189.85596 0.258734
5190.74414 0.2585
5191.63184 0.258874
5192.52100 0.258964
5193.40918 0.259329
5194.29688 0.259489
5195.18604 0.259612
5196.07520 0.259937
5196.96387 0.259948
5197.85303 0.259949
5198.74316 0.26022
5199.63184 0.260318
5200.52100 0.260172
5201.41211 0.25988
5202.30078 0.260354
5203.19092 0.260835
5204.08203 0.260717
5204.97217 0.260589
5205.86279 0.260834
5206.75293 0.261178
5207.64404 0.261282
5208.53516 0.261457
5209.42578 0.261337
5210.31787 0.261332
5211.20898 0.261805
5212.10107 0.261531
5212.99316 0.261619
5213.88379 0.261709
5214.77588 0.261663
5215.66797 0.262094
5216.56104 0.262227
5217.45410 0.262079
5218.34619 0.262029
5219.23877 0.261915
5220.13184 0.262226
5221.02490 0.262537
5221.91797 0.262522
5222.81201 0.262471
5223.70605 0.262575
5224.59912 0.262518
5225.49316 0.263389
5226.38721 0.263089
5227.28076 0.262719
5228.17578 0.262876
5229.06982 0.262985
5229.96484 0.263058
5230.85986 0.263192
5231.75488 0.263347
5232.64990 0.263419
5233.54492 0.263341
5234.43994 0.263729
5235.33594 0.263536
5236.23193 0.263613
5237.12793 0.26385
5238.02393 0.263884
5238.91992 0.263908
5239.81592 0.26408
5240.71289 0.264324
5241.60889 0.264568
5242.50586 0.264347
5243.40283 0.264024
5244.29980 0.264601
5245.19824 0.264936
5246.09521 0.264976
5246.99316 0.264769
5247.89111 0.264876
5248.78906 0.265222
5249.68701 0.265204
5250.58398 0.265247
5251.48291 0.265454
5252.38086 0.265688
5253.27979 0.265253
5254.17920 0.265293
5255.07812 0.265612
5255.97705 0.265989
5256.87598 0.266015
5257.77588 0.265903
5258.67480 0.26634
5259.57520 0.266738
5260.47510 0.265808
5261.37500 0.266309
5262.27490 0.266469
5263.17480 0.266521
5264.07617 0.266518
5264.97705 0.266606
5265.87695 0.26664
5266.77783 0.266589
5267.68018 0.266698
5268.58105 0.266887
5269.48193 0.267116
5270.38379 0.267143
5271.28613 0.267167
5272.18701 0.267246
5273.08887 0.267228
5273.99219 0.267224
5274.89404 0.267397
5275.79590 0.26764
5276.69922 0.26769
5277.60205 0.267553
5278.50488 0.267392
5279.40820 0.26757
5280.31201 0.267773
5281.21484 0.267219
5282.11816 0.267535
5283.02197 0.26769
5283.92578 0.267711
5284.83008 0.267792
5285.73389 0.26773
5286.63916 0.267875
5287.54297 0.26787
5288.44824 0.268107
5289.35303 0.267696
5290.25781 0.267607
5291.16309 0.267643
5292.06787 0.267695
5292.97412 0.267427
5293.87891 0.267302
5294.78516 0.267499
5295.69092 0.267326
5296.59717 0.267064
5297.50293 0.267064
5298.40918 0.26719
5299.31592 0.267085
5300.22314 0.267017
5301.12891 0.26725
5302.03711 0.267267
5302.94287 0.267105
5303.85107 0.26724
5304.75781 0.267322
5305.66602 0.266605
5306.57422 0.266538
5307.48096 0.266331
5308.39014 0.266567
5309.29785 0.266429
5310.20703 0.266007
5311.11523 0.265811
5312.02295 0.265862
5312.93311 0.265836
5313.84082 0.265729
5314.75000 0.265671
5315.66016 0.265481
5316.56885 0.265447
5317.47900 0.265284
5318.38916 0.265705
5319.29883 0.264859
5320.20898 0.264431
5321.11914 0.264582
5322.02979 0.264495
5322.93994 0.264403
5323.85107 0.264326
5324.76221 0.264013
5325.67285 0.264077
5326.58398 0.264344
5327.49512 0.263844
5328.40723 0.263697
5329.31787 0.263703
5330.22998 0.263354
5331.14209 0.26328
5332.05420 0.263033
5332.96680 0.26281
5333.87891 0.262657
5334.79199 0.26245
5335.70508 0.262429
5336.61719 0.262338
5337.52979 0.261678
5338.44385 0.261776
5339.35693 0.261613
5340.27100 0.261429
5341.18408 0.261472
5342.09814 0.261109
5343.01221 0.261142
5343.92578 0.260988
5344.84082 0.260565
5345.75488 0.260594
5346.66992 0.260173
5347.58398 0.260157
5348.50000 0.260245
5349.41504 0.259659
5350.33008 0.259581
5351.24512 0.259717
5352.16113 0.259661
5353.07715 0.259359
5353.99219 0.259038
5354.90918 0.259025
5355.82520 0.259174
5356.74121 0.25894
5357.65820 0.258397
5358.57422 0.258249
5359.49121 0.258228
5360.40820 0.25832
5361.32520 0.258013
5362.24219 0.258051
5363.16016 0.257704
5364.07812 0.257466
5364.99512 0.257278
5365.91309 0.257078
5366.83105 0.257084
5367.75000 0.257099
5368.66797 0.256673
5369.58594 0.256511
5370.50488 0.256399
5371.42383 0.256368
5372.34277 0.256153
5373.26221 0.256261
5374.18213 0.256104
5375.10107 0.255869
5376.02100 0.255645
5376.93994 0.255613
5377.85986 0.255696
5378.78076 0.255601
5379.70117 0.255424
5380.62109 0.255302
5381.54199 0.25569
5382.46191 0.255277
5383.38379 0.254862
5384.30518 0.255243
5385.22607 0.255021
5386.14697 0.254602
5387.06885 0.25466
5387.99023 0.254751
5388.91211 0.254856
5389.83398 0.254848
5390.75586 0.25429
5391.67920 0.254157
5392.60107 0.254131
5393.52393 0.254056
5394.44678 0.254337
5395.37012 0.253733
5396.29297 0.253686
5397.21582 0.25375
5398.14014 0.253408
5399.06299 0.253338
5399.98682 0.253496
5400.91113 0.253582
5401.83496 0.253592
5402.75879 0.253553
5403.68408 0.25356
5404.60791 0.253286
5405.53320 0.25341
5406.45801 0.253161
5407.38281 0.25362
5408.30811 0.253402
5409.23291 0.253332
5410.15918 0.253265
5411.08398 0.253148
5412.00977 0.25329
5412.93604 0.253322
5413.86182 0.253008
5414.78906 0.252825
5415.71484 0.252752
5416.64209 0.252547
5417.56787 0.252717
5418.49512 0.252485
5419.42188 0.252473
5420.35010 0.252722
5421.27686 0.252561
5422.20508 0.252448
5423.13184 0.252651
5424.06006 0.252801
5424.98779 0.252642
5425.91602 0.252367
5426.84521 0.252195
5427.77295 0.252266
5428.70215 0.252548
5429.62988 0.251912
5430.56006 0.251945
5431.48877 0.252366
5432.41797 0.252519
5433.34717 0.252094
5434.27686 0.252221
5435.20703 0.252276
5436.13721 0.252385
5437.06689 0.252242
5437.99707 0.252338
5438.92676 0.252441
5439.85791 0.252219
5440.78906 0.252227
5441.72021 0.252218
5442.65088 0.252483
5443.58203 0.251877
5444.51318 0.251717
5445.44482 0.252076
5446.37598 0.252007
5447.30811 0.251751
5448.24023 0.251916
5449.17188 0.251821
5450.10498 0.251841
5451.03711 0.251806
5451.97021 0.251843
5452.90283 0.251834
5453.83594 0.251707
5454.76904 0.25186
5455.70215 0.251421
5456.63623 0.25168
5457.56885 0.251735
5458.50293 0.251914
5459.43701 0.251505
5460.37109 0.251168
5461.30518 0.251247
5462.24023 0.251465
5463.17383 0.251406
5464.10889 0.251216
5465.04395 0.251235
5465.97900 0.251272
5466.91406 0.25125
5467.84912 0.251122
5468.78516 0.2507
5469.72119 0.250739
5470.65576 0.251123
5471.59180 0.250719
5472.52783 0.251067
5473.46484 0.251211
5474.40088 0.250716
5475.33789 0.250839
5476.27490 0.25094
5477.21191 0.250757
5478.14893 0.250514
5479.08594 0.250594
5480.02295 0.250566
5480.96094 0.250402
5481.89893 0.250407
5482.83691 0.250351
5483.77490 0.250316
5484.71289 0.25065
5485.65088 0.250357
5486.58984 0.250116
5487.52881 0.250005
5488.46777 0.25018
5489.40723 0.250264
5490.34619 0.250123
5491.28516 0.249927
5492.22510 0.249959
5493.16504 0.249823
5494.10400 0.249602
5495.04395 0.249562
5495.98486 0.24955
5496.92480 0.249364
5497.86523 0.249233
5498.80615 0.249286
5499.74707 0.249231
5500.68799 0.249256
5501.62891 0.248911
5502.56982 0.248641
5503.51221 0.24882
5504.45410 0.248751
5505.39502 0.249146
5506.33691 0.248696
5507.27881 0.248494
5508.22217 0.248194
5509.16406 0.248265
5510.10596 0.248381
5511.04883 0.248269
5511.99219 0.248156
5512.93506 0.248232
5513.87793 0.248058
5514.82178 0.247621
5515.76611 0.247864
5516.70898 0.247664
5517.65283 0.247519
5518.59717 0.247477
5519.54199 0.247508
5520.48584 0.247215
5521.43018 0.247587
5522.37500 0.247426
5523.31982 0.246907
5524.26514 0.246708
5525.20996 0.246598
5526.15479 0.246685
5527.10107 0.246671
5528.04590 0.246548
5528.99219 0.246415
5529.93799 0.246146
5530.88379 0.245913
5531.83105 0.24591
5532.77686 0.245901
5533.72412 0.24606
5534.66992 0.245675
5535.61816 0.245446
5536.56396 0.245513
5537.51221 0.245477
5538.45898 0.245104
5539.40723 0.245132
5540.35400 0.245071
5541.30322 0.244575
5542.25000 0.244881
5543.19922 0.2447
5544.14697 0.244506
5545.09619 0.244291
5546.04395 0.244208
5546.99414 0.244028
5547.94189 0.243833
5548.89209 0.243921
5549.84082 0.243859
5550.79102 0.24391
5551.74023 0.243275
5552.68994 0.243196
5553.64014 0.243063
5554.58984 0.242942
5555.54102 0.242663
5556.49121 0.242601
5557.44189 0.242362
5558.39307 0.242193
5559.34424 0.242048
5560.29492 0.241867
5561.24707 0.241812
5562.19824 0.241701
5563.14893 0.241633
5564.10205 0.241179
5565.05420 0.240949
5566.00586 0.241174
5566.95801 0.241071
5567.91113 0.240557
5568.86279 0.240232
5569.81592 0.2403
5570.76904 0.240147
5571.72217 0.239497
5572.67480 0.239884
5573.62891 0.239611
5574.58301 0.238852
5575.53613 0.239428
5576.49023 0.238708
5577.44385 0.23838
5578.39795 0.238315
5579.35303 0.237947
5580.30811 0.237738
5581.26221 0.23751
5582.21680 0.237401
5583.17188 0.237206
5584.12695 0.237288
5585.08301 0.236992
5586.03906 0.236559
5586.99414 0.236574
5587.95020 0.23649
5588.90576 0.236134
5589.86182 0.235863
5590.81885 0.235671
5591.77490 0.235594
5592.73193 0.235162
5593.68896 0.235203
5594.64600 0.234842
5595.60303 0.234535
5596.56104 0.234575
5597.51807 0.234152
5598.47607 0.234455
5599.43408 0.233885
5600.39209 0.233557
5601.35010 0.233334
5602.30811 0.233143
5603.26709 0.232806
5604.22607 0.23276
5605.18506 0.232593
5606.14404 0.232532
5607.10303 0.232399
5608.06201 0.232135
5609.02100 0.231689
5609.98096 0.231225
5610.94092 0.231054
5611.90088 0.230665
5612.86084 0.23024
5613.82080 0.23054
5614.78223 0.230415
5615.74316 0.230219
5616.70410 0.229922
5617.66504 0.229404
5618.62500 0.229102
5619.58691 0.228679
5620.54785 0.229066
5621.50977 0.228682
5622.47217 0.228115
5623.43408 0.227525
5624.39600 0.227481
5625.35791 0.227417
5626.32080 0.227185
5627.28320 0.226714
5628.24609 0.226476
5629.20898 0.226426
5630.17188 0.226192
5631.13477 0.225934
5632.09912 0.225736
5633.06201 0.225374
5634.02588 0.225059
5634.99023 0.224826
5635.95508 0.224392
5636.91797 0.224074
5637.88281 0.224149
5638.84814 0.224059
5639.81299 0.223379
5640.77686 0.223118
5641.74316 0.222725
5642.70801 0.22275
5643.67285 0.222262
5644.63916 0.22203
5645.60400 0.221718
5646.57080 0.221442
5647.53711 0.220872
5648.50293 0.220922
5649.46924 0.220613
5650.43604 0.220256
5651.40283 0.220126
5652.37012 0.219976
5653.33691 0.219639
5654.30420 0.219214
5655.27100 0.218856
5656.23877 0.218492
5657.20703 0.218274
5658.17480 0.218007
5659.14307 0.217926
5660.11084 0.217617
5661.08008 0.217449
5662.04785 0.217358
5663.01709 0.216917
5663.98584 0.216695
5664.95508 0.2164
5665.92383 0.215887
5666.89404 0.215761
5667.86279 0.215393
5668.83301 0.215222
5669.80322 0.214779
5670.77197 0.214868
5671.74316 0.214497
5672.71289 0.214066
5673.68408 0.214044
5674.65479 0.213741
5675.62500 0.2135
5676.59717 0.213018
5677.56787 0.212694
5678.53906 0.21262
5679.51123 0.212172
5680.48193 0.211919
5681.45508 0.211815
5682.42578 0.21165
5683.39893 0.211407
5684.37109 0.211153
5685.34424 0.210535
5686.31592 0.210236
5687.29004 0.210226
5688.26221 0.210086
5689.23584 0.209767
5690.20898 0.209621
5691.18311 0.209386
5692.15576 0.208959
5693.12988 0.208607
5694.10400 0.208487
5695.07910 0.208238
5696.05322 0.207861
5697.02686 0.20748
5698.00195 0.207009
5698.97705 0.206916
5699.95215 0.207043
5700.92676 0.206791
5701.90283 0.206614
5702.87793 0.206482
5703.85400 0.206094
5704.83008 0.205705
5705.80615 0.205334
5706.78223 0.205387
5707.75879 0.204849
5708.73486 0.204735
5709.71191 0.204685
5710.68896 0.204227
5711.66602 0.204182
5712.64307 0.203547
5713.62109 0.204104
5714.59814 0.203366
5715.57617 0.203291
5716.55420 0.2033
5717.53223 0.202759
5718.50977 0.202639
5719.48779 0.202257
5720.46680 0.202292
5721.44580 0.201938
5722.42480 0.201747
5723.40381 0.201359
5724.38281 0.201323
5725.36182 0.20126
5726.34180 0.200617
5727.32178 0.200545
5728.30176 0.200605
5729.28223 0.200186
5730.26221 0.199822
5731.24316 0.199557
5732.22314 0.199146
5733.20410 0.19912
5734.18506 0.199067
5735.16602 0.198786
5736.14697 0.198686
5737.12793 0.198509
5738.10986 0.198187
5739.09180 0.197996
5740.07422 0.197822
5741.05615 0.197506
5742.03809 0.197182
5743.02100 0.197086
5744.00293 0.196849
5744.98584 0.196408
5745.96924 0.196197
5746.95215 0.195988
5747.93506 0.195856
5748.91797 0.195333
5749.90186 0.195099
5750.88623 0.194851
5751.87012 0.194595
5752.85400 0.194372
5753.83789 0.193927
5754.82324 0.193739
5755.80811 0.193362
5756.79199 0.193305
5757.77686 0.192748
5758.76221 0.192571
5759.74805 0.192285
5760.73291 0.192177
5761.71924 0.191591
5762.70508 0.191347
5763.68994 0.191071
5764.67676 0.190689
5765.66309 0.190447
5766.64893 0.190182
5767.63623 0.189612
5768.62305 0.189295
5769.60986 0.188739
5770.59717 0.188296
5771.58398 0.18775
5772.57178 0.187563
5773.56006 0.187065
5774.54688 0.18649
5775.53516 0.185686
5776.52295 0.186012
5777.51221 0.185
5778.50000 0.184239
5779.48877 0.183948
5780.47803 0.183527
5781.46680 0.182828
5782.45605 0.182069
5783.44482 0.181533
5784.43506 0.180861
5785.42383 0.180134
5786.41504 0.179536
5787.40381 0.178748
5788.39502 0.178027
5789.38477 0.177304
5790.37500 0.17666
5791.36621 0.175804
5792.35693 0.175015
5793.34814 0.174173
5794.33887 0.173261
5795.33105 0.172329
5796.32178 0.171216
5797.31396 0.170275
5798.30615 0.169098
5799.29785 0.168263
5800.29004 0.16704
5801.28320 0.165926
5802.27490 0.164783
5803.26807 0.163514
5804.26123 0.1623
5805.25391 0.160951
5806.24707 0.159716
5807.24023 0.158397
5808.23389 0.156998
5809.22803 0.155499
5810.22217 0.153801
5811.21582 0.152345
5812.20996 0.150677
5813.20508 0.14891
5814.19922 0.14702
5815.19385 0.145207
5816.18896 0.14355
5817.18408 0.141819
5818.17920 0.139851
5819.17480 0.137695
5820.16992 0.135576
5821.16602 0.133378
5822.16211 0.13103
5823.15820 0.128777
5824.15479 0.126453
5825.15088 0.124038
5826.14697 0.121558
5827.14502 0.119078
5828.14209 0.116606
5829.13916 0.114095
5830.13623 0.111675
5831.13281 0.109031
5832.13086 0.106347
5833.12891 0.103665
5834.12695 0.100832
5835.12500 0.098039
5836.12402 0.095215
5837.12207 0.092347
5838.12109 0.089558
5839.12012 0.08686
5840.11914 0.084048
5841.11816 0.081293
5842.11719 0.078542
5843.11719 0.07591
5844.11719 0.073419
5845.11719 0.070733
5846.11719 0.067988
5847.11719 0.065378
5848.11719 0.062907
5849.11816 0.060378
5850.11914 0.057798
5851.12012 0.055378
5852.12109 0.053136
5853.12207 0.050878
5854.12305 0.048653
5855.12500 0.046473
5856.12598 0.044425
5857.12793 0.042541
5858.13086 0.040678
5859.13281 0.038712
5860.13623 0.036818
5861.13818 0.035108
5862.14111 0.033405
5863.14404 0.031721
5864.14697 0.030108
5865.14990 0.028628
5866.15381 0.027217
5867.15820 0.025838
5868.16211 0.024505
5869.16602 0.023308
5870.16895 0.022189
5871.17383 0.021121
5872.17920 0.020035
5873.18311 0.018952
5874.18799 0.017954
5875.19287 0.017009
5876.19824 0.016103
5877.20410 0.015233
5878.20898 0.014419
5879.21484 0.013667
5880.22119 0.012943
5881.22705 0.012261
5882.23291 0.011634
5883.24023 0.011038
5884.24609 0.010482
5885.25293 0.009937
5886.25977 0.009392
5887.26709 0.008879
5888.27393 0.008405
5889.28223 0.007957
5890.29004 0.007526
5891.29688 0.007113
5892.30518 0.006753
5893.31299 0.006402
5894.32178 0.006068
5895.33008 0.005744
5896.33887 0.005465
5897.34814 0.005191
5898.35596 0.004929
5899.36621 0.004681
5900.37500 0.004422
5901.38477 0.004186
5902.39502 0.003966
5903.40381 0.003777
5904.41406 0.003574
5905.42383 0.003393
5906.43506 0.003219
5907.44482 0.003054
5908.45605 0.002905
5909.46680 0.002755
5910.47803 0.002626
5911.48877 0.002494
5912.50098 0.00237
5913.51221 0.002254
5914.52393 0.002135
5915.53613 0.002025
5916.54785 0.001924
5917.56104 0.001831
5918.57324 0.00174
5919.58496 0.001653
5920.59814 0.001574
5921.61084 0.001505
5922.62500 0.001422
5923.63818 0.00136
5924.65088 0.00129
5925.66504 0.001232
5926.67920 0.001178
5927.69287 0.001114
5928.70703 0.001061
5929.72217 0.001011
5930.73584 0.000962
5931.75000 0.000916
5932.76611 0.000874
5933.78076 0.000835
5934.79590 0.000795
5935.81201 0.000758
5936.82715 0.000723
5937.84277 0.000693
5938.85791 0.00066
5939.87500 0.000631
5940.89111 0.000602
5941.90723 0.000573
5942.92383 0.000544
5943.94092 0.000521
5944.95801 0.000495
5945.97510 0.000473
5946.99219 0.000453
5948.00977 0.000433
5949.02686 0.000414
6543.92969 0.0
