# %ECSV 0.9
# ---
# datatype:
# - {name: wavelength, unit: Angstrom, datatype: float32}
# - {name: response, datatype: float32}
# meta: !!omap
# - {band_name: FQ889N}
# - {group_name: WFC3_UVIS1}
wavelength response
7778.27539 0.0
8642.52832 0.000407
8644.00781 0.000421
8645.48633 0.000436
8646.96582 0.00045
8648.44531 0.000464
8649.92480 0.000479
8651.40430 0.000493
8652.88477 0.000507
8654.36523 0.000521
8655.84570 0.000536
8657.32715 0.00055
8658.80859 0.000564
8660.29004 0.000578
8661.77148 0.000592
8663.25391 0.000607
8664.73535 0.000621
8666.21777 0.000635
8667.70117 0.000649
8669.18359 0.000663
8670.66699 0.000678
8672.15039 0.000692
8673.63477 0.000706
8675.11816 0.00072
8676.60254 0.000734
8678.08691 0.000748
8679.57227 0.000762
8681.05664 0.000776
8682.54199 0.00079
8684.02832 0.000803
8685.51367 0.000817
8687.00000 0.000831
8688.48633 0.000845
8689.97266 0.000859
8691.45898 0.000873
8692.94629 0.000887
8694.43359 0.0009
8695.92090 0.000914
8697.40918 0.000928
8698.89746 0.000942
8700.38574 0.000956
8701.87402 0.000969
8703.36328 0.000983
8704.85254 0.000997
8706.34180 0.00101
8707.83105 0.001024
8709.32129 0.001038
8710.81055 0.001051
8712.30176 0.001065
8713.79199 0.001079
8715.28320 0.001092
8716.77441 0.001106
8718.26562 0.00112
8719.75684 0.001134
8721.24902 0.001147
8722.74121 0.001161
8724.23340 0.001174
8725.72656 0.001187
8727.21875 0.001201
8728.71191 0.001214
8730.20605 0.001228
8731.69922 0.001241
8733.19336 0.001254
8734.68848 0.001268
8736.18164 0.001281
8737.67676 0.001294
8739.17188 0.001308
8740.66699 0.001321
8742.16211 0.001334
8743.65820 0.001347
8745.15430 0.001361
8746.65039 0.001374
8748.14648 0.001387
8749.64355 0.0014
8751.14062 0.001413
8752.63770 0.001426
8754.13574 0.001439
8755.63281 0.001453
8757.13086 0.001466
8758.62988 0.001479
8760.12793 0.001492
8761.62695 0.001505
8763.12598 0.001518
8764.62500 0.001531
8766.12500 0.001544
8767.62500 0.001558
8769.12500 0.001571
8770.62500 0.001584
8772.12598 0.001597
8773.62695 0.001609
8775.12793 0.001622
8776.62891 0.001635
8778.13086 0.001648
8779.63281 0.001661
8781.13477 0.001673
8782.63770 0.001686
8784.13965 0.001699
8785.64258 0.001712
8787.14648 0.001724
8788.64941 0.001737
8790.15332 0.00175
8791.65723 0.001762
8793.16113 0.001775
8794.66602 0.001787
8796.17090 0.0018
8797.67578 0.001812
8799.18066 0.001825
8800.68652 0.001837
8802.19238 0.001849
8803.69824 0.001861
8805.20410 0.001873
8806.71094 0.001885
8808.21777 0.001897
8809.72461 0.001909
8811.23145 0.001922
8812.73926 0.001934
8814.24707 0.001946
8815.75488 0.001958
8817.26367 0.00197
8818.77246 0.002064
8820.28125 0.002428
8821.79004 0.003729
8823.29980 0.004604
8824.80957 0.004899
8826.31934 0.004611
8827.82910 0.005472
8829.33984 0.006607
8830.85059 0.008186
8832.36133 0.010582
8833.87207 0.010843
8835.38379 0.013319
8836.89648 0.016877
8838.40723 0.019888
8839.91992 0.024133
8841.43164 0.029152
8842.94434 0.034619
8844.45801 0.040229
8845.97070 0.046901
8847.48438 0.05328
8848.99805 0.059699
8850.51172 0.066314
8852.02637 0.071464
8853.54102 0.077469
8855.05566 0.082342
8856.57129 0.085271
8858.08594 0.089225
8859.60156 0.091918
8861.11719 0.093865
8862.63379 0.095252
8864.15039 0.095943
8865.66699 0.096138
8867.18359 0.096854
8868.70020 0.097791
8870.21777 0.096722
8871.73535 0.097276
8873.25391 0.097723
8874.77148 0.097808
8876.29004 0.097749
8877.80859 0.09823
8879.32812 0.098219
8880.84668 0.097923
8882.36621 0.097912
8883.88574 0.098709
8885.40625 0.098945
8886.92676 0.098997
8888.44727 0.099378
8889.96777 0.098293
8891.48828 0.098529
8893.00977 0.098901
8894.53125 0.098527
8896.05371 0.098503
8897.57520 0.098679
8899.09766 0.098885
8900.62012 0.098956
8902.14355 0.098392
8903.66602 0.098047
8905.18945 0.098136
8906.71289 0.098552
8908.23730 0.098639
8909.76172 0.098848
8911.28613 0.098549
8912.81055 0.097922
8914.33496 0.097615
8915.86035 0.09751
8917.38574 0.097743
8918.91211 0.097607
8920.43848 0.096166
8921.96387 0.096949
8923.49023 0.095961
8925.01758 0.094343
8926.54395 0.092981
8928.07129 0.090334
8929.59863 0.087106
8931.12695 0.083564
8932.65527 0.079712
8934.18359 0.074822
8935.71191 0.069121
8937.24023 0.062991
8938.76953 0.056612
8940.29883 0.050214
8941.82910 0.04426
8943.35840 0.037963
8944.88867 0.032061
8946.41895 0.027862
8947.95020 0.022578
8949.48047 0.019081
8951.01172 0.015951
8952.54395 0.012072
8954.07520 0.011092
8955.60742 0.009483
8957.13965 0.007761
8958.67188 0.006325
8960.20508 0.005897
8961.73828 0.005141
8963.27148 0.004415
8964.80469 0.003984
8966.33887 0.004276
8967.87305 0.002884
8969.40723 0.002229
8970.94141 0.002091
8972.47656 0.001885
8974.01172 0.00179
8975.54688 0.001768
8977.08301 0.001705
8978.61816 0.001528
8980.15527 0.001271
8981.69141 0.001457
8983.22754 0.001687
8984.76465 0.00177
8986.30176 0.001518
8987.83984 0.000904
8989.37793 0.000936
8990.91602 0.001289
8992.45410 0.001277
8993.99219 0.001265
8995.53125 0.001253
8997.07031 0.001241
8998.60938 0.001229
9000.14941 0.001217
9001.68945 0.001205
9003.22852 0.001192
9004.76953 0.00118
9006.31055 0.001168
9007.85156 0.001156
9009.39258 0.001144
9010.93359 0.001132
9012.47559 0.00112
9014.01758 0.001108
9015.55957 0.001096
9017.10254 0.001084
9018.64648 0.001072
9020.18848 0.001061
9021.73145 0.001049
9023.27539 0.001037
9024.81934 0.001025
9026.36328 0.001013
9027.90723 0.001001
9029.45215 0.000989
9030.99707 0.000977
9032.54199 0.000966
9034.08789 0.000954
9035.63281 0.000942
9037.17871 0.000931
9038.72559 0.000919
9040.27148 0.000908
9041.81836 0.000896
9043.36523 0.000884
9044.91309 0.000873
9046.45996 0.000861
9048.00781 0.00085
9049.55664 0.000838
9051.10352 0.000827
9052.65332 0.000816
9054.20215 0.000804
9055.75098 0.000793
9057.30078 0.000781
9058.85059 0.00077
9060.40039 0.000759
9061.95020 0.000747
9063.50098 0.000736
9065.05176 0.000725
9066.60254 0.000714
9068.15332 0.000703
9069.70508 0.000691
9071.25684 0.00068
9072.80859 0.000669
9074.36133 0.000658
9075.91406 0.000647
9077.46680 0.000636
9079.01953 0.000625
9080.57324 0.000614
9082.12695 0.000603
9083.68066 0.000592
9085.23535 0.000581
9086.78906 0.00057
9088.34375 0.000559
9089.89941 0.000549
9091.45410 0.000538
9093.00977 0.000527
9094.56543 0.000516
9096.12109 0.000505
9097.67773 0.000494
9099.23438 0.000484
9100.79102 0.000473
9102.34863 0.000462
9103.90527 0.000451
9105.46289 0.000441
9107.02148 0.00043
9108.57910 0.00042
9110.13770 0.000409
10021.15137 0.0
