# %ECSV 0.9
# ---
# datatype:
# - {name: wavelength, unit: Angstrom, datatype: float32}
# - {name: response, datatype: float32}
# meta: !!omap
# - {band_name: F410M}
# - {group_name: WFC3_UVIS2}
wavelength response
3576.77173 0.0
3974.19092 0.000407
3974.87109 0.000461
3975.55200 0.000516
3976.23193 0.00058
3976.91211 0.000696
3977.59204 0.000812
3978.27295 0.000928
3978.95410 0.001081
3979.63403 0.001273
3980.31494 0.001465
3980.99609 0.001657
3981.67700 0.001885
3982.35889 0.002122
3983.04004 0.002358
3983.72095 0.002587
3984.40308 0.002767
3985.08496 0.002946
3985.76709 0.003126
3986.44800 0.003296
3987.13110 0.003456
3987.81299 0.003616
3988.49512 0.003775
3989.17700 0.004053
3989.86011 0.004359
3990.54297 0.004666
3991.22510 0.005033
3991.90796 0.005768
3992.59106 0.006504
3993.27393 0.00724
3993.95801 0.008346
3994.64111 0.009851
3995.32397 0.011357
3996.00806 0.012865
3996.69189 0.014988
3997.37500 0.017246
3998.06006 0.019506
3998.74292 0.021762
3999.42798 0.023991
4000.11206 0.02622
4000.79590 0.028443
4001.48096 0.030189
4002.16602 0.031475
4002.85010 0.032763
4003.53491 0.03405
4004.21997 0.034981
4004.90503 0.035852
4005.59009 0.036724
4006.27588 0.037811
4006.96094 0.039709
4007.64697 0.041608
4008.33301 0.043507
4009.01807 0.046599
4009.70410 0.050621
4010.38989 0.054645
4011.07593 0.058672
4011.76294 0.065041
4012.44897 0.071623
4013.13501 0.07821
4013.82202 0.085415
4014.50903 0.094258
4015.19604 0.103101
4015.88306 0.111949
4016.57007 0.121491
4017.25708 0.131439
4017.94409 0.141389
4018.63208 0.151343
4019.31909 0.160522
4020.00708 0.1697
4020.69507 0.178891
4021.38306 0.186977
4022.07104 0.193077
4022.75903 0.199182
4023.44702 0.205288
4024.13599 0.208379
4024.82397 0.210324
4025.51294 0.212269
4026.20190 0.213927
4026.88989 0.212771
4027.57910 0.211614
4028.26904 0.210456
4028.95801 0.20912
4029.64697 0.207578
4030.33594 0.206034
4031.02588 0.204486
4031.71606 0.204673
4032.40601 0.205199
4033.09497 0.205726
4033.78491 0.206811
4034.47607 0.209981
4035.16602 0.213153
4035.85596 0.216326
4036.54712 0.220276
4037.23804 0.22477
4037.92798 0.229264
4038.61890 0.233762
4039.31006 0.23776
4040.00098 0.241745
4040.69189 0.24573
4041.38403 0.249089
4042.07495 0.25128
4042.76709 0.253473
4043.45801 0.255667
4044.14990 0.256668
4044.84204 0.257238
4045.53394 0.257808
4046.22705 0.258303
4046.91895 0.258247
4047.61108 0.258191
4048.30396 0.258135
4048.99609 0.258047
4049.68896 0.257928
4050.38208 0.257817
4051.07495 0.257714
4051.76807 0.257525
4052.46094 0.257327
4053.15503 0.257129
4053.84790 0.256781
4054.54199 0.256069
4055.23511 0.255358
4055.92896 0.254646
4056.62305 0.25354
4057.31689 0.252257
4058.01099 0.250972
4058.70605 0.249669
4059.39990 0.248176
4060.09497 0.246679
4060.78906 0.245169
4061.48389 0.24382
4062.17896 0.242641
4062.87402 0.241461
4063.56909 0.24028
4064.26392 0.239794
4064.95996 0.239396
4065.65503 0.238998
4066.35107 0.238801
4067.04712 0.239095
4067.74194 0.239388
4068.43799 0.239682
4069.13501 0.240314
4069.83105 0.241092
4070.52710 0.24187
4071.22412 0.242673
4071.91992 0.243687
4072.61694 0.244701
4073.31396 0.245716
4074.01001 0.246681
4074.70801 0.247599
4075.40503 0.248519
4076.10205 0.249438
4076.79907 0.250032
4077.49707 0.250603
4078.19507 0.251173
4078.89209 0.251546
4079.59009 0.251542
4080.28809 0.251545
4080.98608 0.251556
4081.68506 0.251093
4082.38306 0.250482
4083.08105 0.24987
4083.78003 0.249167
4084.47900 0.248051
4085.17700 0.246935
4085.87598 0.245818
4086.57495 0.24452
4087.27490 0.243104
4087.97412 0.241686
4088.67310 0.24027
4089.37305 0.238888
4090.07300 0.237503
4090.77197 0.236106
4091.47192 0.234844
4092.17212 0.233745
4092.87305 0.232647
4093.57300 0.231547
4094.27295 0.230921
4094.97412 0.230358
4095.67407 0.229794
4096.37500 0.229422
4097.07617 0.22947
4097.77686 0.229519
4098.47803 0.229568
4099.17920 0.229967
4099.88086 0.230488
4100.58203 0.231008
4101.28418 0.231576
4101.98486 0.232363
4102.68701 0.233151
4103.38916 0.233939
4104.09082 0.23487
4104.79297 0.23589
4105.49609 0.236911
4106.19824 0.237946
4106.90088 0.239204
4107.60400 0.240464
4108.30615 0.241723
4109.00879 0.243096
4109.71191 0.244583
4110.41504 0.24608
4111.11914 0.247584
4111.82178 0.249159
4112.52490 0.250741
4113.22900 0.252323
4113.93311 0.253754
4114.63721 0.254948
4115.34082 0.256141
4116.04492 0.257335
4116.74902 0.257639
4117.45312 0.257768
4118.15820 0.257896
4118.86182 0.257591
4119.56689 0.256195
4120.27197 0.254794
4120.97705 0.253382
4121.68213 0.251027
4122.38721 0.248334
4123.09180 0.245641
4123.79785 0.242877
4124.50293 0.239827
4125.20898 0.236776
4125.91504 0.233722
4126.62109 0.231156
4127.32715 0.228856
4128.03320 0.226555
4128.73877 0.224419
4129.44580 0.223687
4130.15186 0.222954
4130.85889 0.222221
4131.56592 0.222565
4132.27197 0.223732
4132.97900 0.2249
4133.68701 0.226115
4134.39404 0.228795
4135.10205 0.231478
4135.80908 0.234161
4136.51709 0.237126
4137.22412 0.240378
4137.93213 0.243634
4138.64014 0.24689
4139.34814 0.249612
4140.05713 0.252315
4140.76514 0.255017
4141.47314 0.257107
4142.18213 0.258387
4142.89111 0.259669
4143.59912 0.260949
4144.30811 0.260844
4145.01807 0.260587
4145.72705 0.26033
4146.43604 0.259733
4147.14600 0.258571
4147.85498 0.257409
4148.56396 0.256246
4149.27393 0.255109
4149.98389 0.253976
4150.69385 0.252857
4151.40381 0.251955
4152.11523 0.251493
4152.82520 0.25103
4153.53613 0.250567
4154.24609 0.250744
4154.95703 0.251072
4155.66797 0.251399
4156.37891 0.251877
4157.08984 0.252721
4157.80078 0.253565
4158.51318 0.254409
4159.22412 0.255337
4159.93604 0.25629
4160.64697 0.257227
4161.35889 0.258121
4162.07080 0.258889
4162.78418 0.259659
4163.49609 0.260428
4164.20801 0.261052
4164.91992 0.261628
4165.63281 0.262205
4166.34619 0.262728
4167.05908 0.263081
4167.77100 0.263435
4168.48486 0.263788
4169.19824 0.263976
4169.91113 0.264104
4170.62500 0.264232
4171.33789 0.26434
4172.05176 0.264381
4172.76611 0.264421
4173.47998 0.264463
4174.19385 0.264243
4174.90820 0.263925
4175.62305 0.263607
4176.33691 0.263127
4177.05078 0.262086
4177.76611 0.261044
4178.48096 0.260002
4179.19580 0.257978
4179.91113 0.255579
4180.62598 0.253191
4181.34082 0.250348
4182.05713 0.245955
4182.77197 0.241561
4183.48779 0.237162
4184.20410 0.231399
4184.91895 0.225138
4185.63477 0.218874
4186.35205 0.212391
4187.06787 0.205225
4187.78418 0.198057
4188.50000 0.190887
4189.21680 0.184246
4189.93408 0.177783
4190.65088 0.171308
4191.36816 0.165254
4192.08496 0.16041
4192.80176 0.155562
4193.52002 0.150713
4194.23682 0.14716
4194.95508 0.143989
4195.67188 0.140815
4196.39111 0.137808
4197.10791 0.135217
4197.82715 0.132625
4198.54492 0.130031
4199.26318 0.126682
4199.98096 0.123152
4200.70020 0.11962
4201.41895 0.115521
4202.13818 0.110262
4202.85596 0.105001
4203.57617 0.099736
4204.29492 0.093598
4205.01416 0.087303
4205.73389 0.081003
4206.45312 0.074854
4207.17285 0.068945
4207.89307 0.063031
4208.61279 0.05712
4209.33301 0.05252
4210.05322 0.048067
4210.77295 0.043613
4211.49414 0.039812
4212.21387 0.036887
4212.93506 0.033961
4213.65576 0.031034
4214.37695 0.029181
4215.09814 0.027377
4215.81885 0.025572
4216.54102 0.024105
4217.26221 0.022995
4217.98291 0.021884
4218.70508 0.020783
4219.42676 0.020114
4220.14893 0.019444
4220.87109 0.018775
4221.59277 0.018208
4222.31494 0.017721
4223.03809 0.017234
4223.75977 0.01674
4224.48291 0.016184
4225.20605 0.015627
4225.92920 0.01507
4226.65088 0.01435
4227.37500 0.013537
4228.09814 0.012723
4228.82080 0.01188
4229.54492 0.010906
4230.26904 0.009931
4230.99219 0.008955
4231.71582 0.008049
4232.43994 0.007171
4233.16504 0.006292
4233.88916 0.005483
4234.61279 0.004865
4235.33691 0.004248
4236.06201 0.003629
4236.78711 0.003215
4237.51221 0.002847
4238.23682 0.002478
4238.96191 0.002172
4239.68799 0.001975
4240.41309 0.001777
4241.13818 0.001579
4241.86377 0.001472
4242.58984 0.001371
4243.31494 0.001271
4244.04199 0.0012
4244.76807 0.00116
4245.49414 0.001121
4246.22021 0.001083
4246.94678 0.00108
4247.67285 0.001077
4248.39990 0.001075
4249.12695 0.001094
4249.85400 0.001129
4250.58105 0.001164
4251.30908 0.001202
4252.03613 0.001263
4252.76318 0.001323
4253.49121 0.001384
4254.21924 0.00144
4254.94678 0.001494
4255.67383 0.001549
4256.40283 0.00159
4257.13086 0.001597
4257.85889 0.001605
4258.58789 0.001612
4259.31592 0.001554
4260.04492 0.001484
4260.77393 0.001414
4261.50293 0.001336
4262.23193 0.001246
4262.96094 0.001157
4263.69092 0.001067
4264.41992 0.00098
4265.14990 0.000893
4265.87891 0.000806
4266.60889 0.000736
4267.33887 0.000678
4268.06982 0.00062
4268.79980 0.000564
4269.52979 0.000519
4270.26123 0.000473
4270.99121 0.000428
4698.09033 0.0
