# %ECSV 0.9
# ---
# datatype:
# - {name: wavelength, unit: Angstrom, datatype: float32}
# - {name: response, datatype: float32}
# meta: !!omap
# - {band_name: F621M}
# - {group_name: WFC3_UVIS2}
wavelength response
5189.98389 0.0
5766.64893 0.000423
5767.63623 0.000468
5768.62305 0.000512
5769.60986 0.000557
5770.59717 0.000602
5771.58398 0.000647
5772.57178 0.000674
5773.56006 0.0007
5774.54688 0.000727
5775.53516 0.000754
5776.52295 0.00078
5777.51221 0.00079
5778.50000 0.000797
5779.48877 0.000805
5780.47803 0.000812
5781.46680 0.00082
5782.45605 0.000816
5783.44482 0.000809
5784.43506 0.000803
5785.42383 0.000797
5786.41504 0.000791
5787.40381 0.000788
5788.39502 0.000786
5789.38477 0.000784
5790.37500 0.000782
5791.36621 0.00078
5792.35693 0.000789
5793.34814 0.000801
5794.33887 0.000813
5795.33105 0.000826
5796.32178 0.000838
5797.31396 0.000867
5798.30615 0.000904
5799.29785 0.000941
5800.29004 0.000978
5801.28320 0.001014
5802.27490 0.001073
5803.26807 0.001143
5804.26123 0.001213
5805.25391 0.001283
5806.24707 0.001353
5807.24023 0.001446
5808.23389 0.001552
5809.22803 0.001658
5810.22217 0.001764
5811.21582 0.00187
5812.20996 0.001988
5813.20508 0.002115
5814.19922 0.002243
5815.19385 0.00237
5816.18896 0.002497
5817.18408 0.002626
5818.17920 0.002757
5819.17480 0.002888
5820.16992 0.003018
5821.16602 0.003148
5822.16211 0.003281
5823.15820 0.003417
5824.15479 0.003552
5825.15088 0.003687
5826.14697 0.003822
5827.14502 0.003967
5828.14209 0.00412
5829.13916 0.004273
5830.13623 0.004426
5831.13281 0.00458
5832.13086 0.004771
5833.12891 0.004998
5834.12695 0.005224
5835.12500 0.005451
5836.12402 0.005677
5837.12207 0.005979
5838.12109 0.006355
5839.12012 0.00673
5840.11914 0.007106
5841.11816 0.007482
5842.11719 0.007985
5843.11719 0.008615
5844.11719 0.009245
5845.11719 0.009875
5846.11719 0.010506
5847.11719 0.011287
5848.11719 0.012223
5849.11816 0.013158
5850.11914 0.014094
5851.12012 0.01503
5852.12109 0.016084
5853.12207 0.017256
5854.12305 0.018428
5855.12500 0.019601
5856.12598 0.020774
5857.12793 0.021876
5858.13086 0.022909
5859.13281 0.023941
5860.13623 0.024974
5861.13818 0.026007
5862.14111 0.026806
5863.14404 0.027386
5864.14697 0.027965
5865.14990 0.028545
5866.15381 0.029125
5867.15820 0.029485
5868.16211 0.029652
5869.16602 0.029818
5870.16895 0.029985
5871.17383 0.030151
5872.17920 0.030282
5873.18311 0.030384
5874.18799 0.030486
5875.19287 0.030588
5876.19824 0.030689
5877.20410 0.030985
5878.20898 0.031425
5879.21484 0.031865
5880.22119 0.032305
5881.22705 0.032746
5882.23291 0.033606
5883.24023 0.034745
5884.24609 0.035885
5885.25293 0.037025
5886.25977 0.038164
5887.26709 0.040063
5888.27393 0.042404
5889.28223 0.044744
5890.29004 0.047086
5891.29688 0.049427
5892.30518 0.053067
5893.31299 0.057357
5894.32178 0.061646
5895.33008 0.065935
5896.33887 0.070225
5897.34814 0.076333
5898.35596 0.083192
5899.36621 0.090052
5900.37500 0.09691
5901.38477 0.103764
5902.39502 0.112154
5903.40381 0.121049
5904.41406 0.129941
5905.42383 0.138835
5906.43506 0.147731
5907.44482 0.155776
5908.45605 0.163613
5909.46680 0.171449
5910.47803 0.179293
5911.48877 0.187144
5912.50098 0.19193
5913.51221 0.196186
5914.52393 0.200444
5915.53613 0.204703
5916.54785 0.208962
5917.56104 0.21028
5918.57324 0.211307
5919.58496 0.212336
5920.59814 0.213364
5921.61084 0.214392
5922.62500 0.215093
5923.63818 0.215785
5924.65088 0.216476
5925.66504 0.217168
5926.67920 0.217914
5927.69287 0.220091
5928.70703 0.222268
5929.72217 0.224445
5930.73584 0.226622
5931.75000 0.22896
5932.76611 0.232649
5933.78076 0.236337
5934.79590 0.240026
5935.81201 0.243716
5936.82715 0.24744
5937.84277 0.251323
5938.85791 0.255206
5939.87500 0.25909
5940.89111 0.262976
5941.90723 0.266509
5942.92383 0.269036
5943.94092 0.271562
5944.95801 0.274089
5945.97510 0.276615
5946.99219 0.278444
5948.00977 0.278915
5949.02686 0.279386
5950.04492 0.279858
5951.06299 0.280329
5952.08203 0.280146
5953.10010 0.279079
5954.11914 0.278012
5955.13721 0.276945
5956.15576 0.275877
5957.17480 0.274593
5958.19385 0.273105
5959.21387 0.271617
5960.23291 0.270128
5961.25293 0.26864
5962.27295 0.267414
5963.29297 0.266357
5964.31299 0.2653
5965.33398 0.264243
5966.35400 0.263185
5967.37500 0.262653
5968.39600 0.262336
5969.41699 0.26202
5970.43896 0.261694
5971.45996 0.261355
5972.48193 0.26155
5973.50391 0.261871
5974.52588 0.262192
5975.54785 0.262512
5976.57080 0.262833
5977.59277 0.263583
5978.61621 0.264371
5979.63916 0.26516
5980.66211 0.265964
5981.68506 0.266779
5982.70801 0.267724
5983.73193 0.26867
5984.75586 0.269615
5985.77979 0.270561
5986.80420 0.271502
5987.82812 0.272419
5988.85303 0.273337
5989.87695 0.274254
5990.90186 0.275172
5991.92676 0.27602
5992.95312 0.276673
5993.97803 0.277326
5995.00293 0.27798
5996.02881 0.278633
5997.05518 0.279151
5998.08105 0.279452
5999.10693 0.279753
6000.13379 0.280058
6001.16016 0.280388
6002.18701 0.280615
6003.21387 0.280745
6004.24121 0.280875
6005.26904 0.281004
6006.29590 0.281134
6007.32422 0.281114
6008.35205 0.28101
6009.37891 0.280907
6010.40820 0.280803
6011.43604 0.2807
6012.46387 0.28048
6013.49316 0.280226
6014.52197 0.279973
6015.55078 0.279719
6016.58008 0.279465
6017.60986 0.279108
6018.63916 0.278742
6019.66895 0.278376
6020.69922 0.278009
6021.72900 0.277636
6022.75879 0.277148
6023.79004 0.27666
6024.81982 0.276172
6025.85107 0.275684
6026.88184 0.27519
6027.91406 0.274678
6028.94482 0.274165
6029.97607 0.273652
6031.00781 0.273113
6032.04004 0.27259
6033.07178 0.272099
6034.10400 0.271607
6035.13721 0.271115
6036.16895 0.270624
6037.20215 0.270213
6038.23486 0.26988
6039.26807 0.269546
6040.30078 0.26922
6041.33398 0.26891
6042.36816 0.268772
6043.40186 0.268718
6044.43604 0.268663
6045.47021 0.268609
6046.50391 0.268555
6047.53906 0.268686
6048.57422 0.268854
6049.60889 0.269022
6050.64404 0.269191
6051.67920 0.269359
6052.71387 0.269628
6053.75000 0.269897
6054.78613 0.270166
6055.82178 0.270435
6056.85791 0.270713
6057.89404 0.271036
6058.93115 0.27136
6059.96680 0.271683
6061.00391 0.272006
6062.04102 0.272332
6063.07812 0.272665
6064.11621 0.272998
6065.15283 0.27333
6066.19092 0.273663
6067.22900 0.274029
6068.26709 0.274424
6069.30518 0.27482
6070.34277 0.275215
6071.38184 0.275611
6072.42090 0.276073
6073.45996 0.276563
6074.49902 0.277052
6075.53809 0.277541
6076.57812 0.278031
6077.61816 0.278596
6078.65723 0.27917
6079.69678 0.279743
6080.73682 0.280317
6081.77783 0.28088
6082.81787 0.281338
6083.85889 0.281797
6084.89990 0.282255
6085.94092 0.282713
6086.98193 0.283045
6088.02393 0.28306
6089.06494 0.283076
6090.10693 0.283089
6091.14893 0.283079
6092.19092 0.282756
6093.23389 0.2821
6094.27588 0.281444
6095.31885 0.280788
6096.36182 0.280131
6097.40479 0.279003
6098.44824 0.277661
6099.49219 0.276319
6100.53516 0.27499
6101.57910 0.273671
6102.62305 0.271924
6103.66699 0.270127
6104.71094 0.268328
6105.75586 0.26653
6106.79980 0.26473
6107.84521 0.262924
6108.89014 0.261118
6109.93604 0.25931
6110.98096 0.257503
6112.02588 0.25581
6113.07178 0.25436
6114.11816 0.252909
6115.16406 0.251458
6116.20996 0.250007
6117.25684 0.248891
6118.30420 0.248063
6119.35107 0.247235
6120.39697 0.246406
6121.44385 0.245578
6122.49219 0.245254
6123.54004 0.245089
6124.58691 0.244924
6125.63477 0.244759
6126.68311 0.244594
6127.73096 0.244981
6128.77979 0.245376
6129.82812 0.24577
6130.87695 0.246164
6131.92578 0.246656
6132.97510 0.247494
6134.02393 0.248332
6135.07422 0.249171
6136.12402 0.250009
6137.17285 0.250955
6138.22412 0.252031
6139.27393 0.253108
6140.32422 0.254184
6141.37500 0.255261
6142.42578 0.256415
6143.47705 0.257604
6144.52783 0.258793
6145.57910 0.259982
6146.62988 0.261171
6147.68213 0.262375
6148.73389 0.263581
6149.78613 0.264787
6150.83789 0.265974
6151.89111 0.267153
6152.94287 0.268312
6153.99609 0.269471
6155.04883 0.27063
6156.10205 0.271789
6157.15479 0.272904
6158.20801 0.273961
6159.26221 0.275018
6160.31592 0.276081
6161.37012 0.277163
6162.42383 0.278071
6163.47900 0.278898
6164.53320 0.279726
6165.58789 0.280554
6166.64307 0.281382
6167.69824 0.281904
6168.75293 0.282407
6169.80908 0.282911
6170.86377 0.283414
6171.91992 0.283858
6172.97607 0.284064
6174.03223 0.28427
6175.08789 0.284477
6176.14502 0.284683
6177.20215 0.284766
6178.25781 0.284707
6179.31494 0.284647
6180.37305 0.284588
6181.43018 0.284528
6182.48779 0.284372
6183.54492 0.284181
6184.60400 0.28399
6185.66211 0.283799
6186.72021 0.283608
6187.77783 0.283462
6188.83691 0.283315
6189.89600 0.283169
6190.95508 0.283022
6192.01416 0.282915
6193.07422 0.282908
6194.13281 0.2829
6195.19287 0.282893
6196.25293 0.282886
6197.31299 0.282926
6198.37402 0.283001
6199.43408 0.283077
6200.49512 0.28314
6201.55615 0.28319
6202.61719 0.283291
6203.67822 0.283401
6204.73877 0.283511
6205.80078 0.283621
6206.86279 0.283727
6207.92480 0.283802
6208.98682 0.283877
6210.04883 0.283953
6211.11182 0.284054
6212.17383 0.284099
6213.23682 0.28407
6214.29980 0.284042
6215.36377 0.284013
6216.42676 0.283984
6217.49121 0.283829
6218.55420 0.283626
6219.61816 0.283423
6220.68311 0.28322
6221.74707 0.283014
6222.81201 0.282667
6223.87598 0.282321
6224.94092 0.281974
6226.00586 0.281627
6227.07080 0.281269
6228.13721 0.280888
6229.20215 0.280508
6230.26807 0.280127
6231.33398 0.279748
6232.39990 0.279372
6233.46582 0.278998
6234.53320 0.278623
6235.60010 0.278249
6236.66699 0.277874
6237.73291 0.277523
6238.80078 0.277173
6239.86816 0.276823
6240.93604 0.27645
6242.00293 0.2761
6243.07178 0.275821
6244.14014 0.275543
6245.20801 0.275264
6246.27588 0.274985
6247.34521 0.274752
6248.41406 0.274552
6249.48291 0.274352
6250.55176 0.274165
6251.62207 0.273989
6252.69092 0.27386
6253.76123 0.273736
6254.83203 0.273612
6255.90088 0.273488
6256.97217 0.273361
6258.04199 0.273222
6259.11279 0.273082
6260.18408 0.272943
6261.25488 0.272803
6262.32617 0.272663
6263.39795 0.272522
6264.46924 0.272382
6265.54102 0.272241
6266.61279 0.2721
6267.68604 0.271946
6268.75781 0.27179
6269.83105 0.271635
6270.90283 0.271479
6271.97607 0.271329
6273.04883 0.271198
6274.12305 0.271067
6275.19580 0.270936
6276.27002 0.270805
6277.34277 0.27073
6278.41699 0.270699
6279.49219 0.270667
6280.56592 0.270635
6281.64111 0.270604
6282.71484 0.270742
6283.79004 0.270896
6284.86523 0.271051
6285.93994 0.271205
6287.01611 0.271423
6288.09180 0.271825
6289.16699 0.272227
6290.24414 0.272624
6291.31982 0.273
6292.39600 0.273493
6293.47314 0.274059
6294.54980 0.274625
6295.62598 0.27519
6296.70410 0.275757
6297.78076 0.276414
6298.85889 0.277074
6299.93701 0.277735
6301.01416 0.278419
6302.09180 0.279112
6303.16992 0.279819
6304.24902 0.280527
6305.32812 0.281234
6306.40576 0.281942
6307.48486 0.282557
6308.56396 0.283129
6309.64404 0.283702
6310.72412 0.284274
6311.80322 0.284834
6312.88281 0.28516
6313.96289 0.285488
6315.04297 0.285815
6316.12402 0.286142
6317.20508 0.286377
6318.28613 0.286486
6319.36719 0.286595
6320.44824 0.286704
6321.52881 0.286813
6322.61084 0.286827
6323.69189 0.286818
6324.77393 0.286808
6325.85596 0.286799
6326.93896 0.286786
6328.02100 0.286762
6329.10400 0.286738
6330.18701 0.286709
6331.27002 0.286658
6332.35303 0.286614
6333.43701 0.286575
6334.52100 0.286535
6335.60400 0.286496
6336.68799 0.286457
6337.77197 0.286432
6338.85596 0.286409
6339.94092 0.286386
6341.02588 0.286388
6342.11084 0.286386
6343.19580 0.286371
6344.28076 0.286357
6345.36719 0.286342
6346.45215 0.286328
6347.53809 0.286282
6348.62402 0.286223
6349.70996 0.286164
6350.79688 0.286106
6351.88281 0.286039
6352.97021 0.285916
6354.05713 0.285792
6355.14502 0.285668
6356.23096 0.285545
6357.31885 0.28539
6358.40723 0.285205
6359.49512 0.285021
6360.58301 0.284836
6361.67090 0.284652
6362.75879 0.284437
6363.84814 0.28422
6364.93701 0.284003
6366.02588 0.283786
6367.11523 0.283576
6368.20508 0.283383
6369.29395 0.28319
6370.38379 0.282987
6371.47412 0.282767
6372.56396 0.282607
6373.65381 0.282469
6374.74512 0.282331
6375.83496 0.282193
6376.92578 0.282058
6378.01807 0.281938
6379.10791 0.281819
6380.20020 0.281705
6381.29199 0.281611
6382.38281 0.28153
6383.47607 0.281459
6384.56689 0.281387
6385.66016 0.281316
6386.75195 0.281244
6387.84521 0.281183
6388.93799 0.281122
6390.03076 0.281061
6391.12500 0.280999
6392.21777 0.280957
6393.31201 0.280942
6394.40576 0.280928
6395.50000 0.280913
6396.59424 0.280898
6397.68799 0.280951
6398.78320 0.281017
6399.87793 0.281083
6400.97314 0.281149
6402.06787 0.281235
6403.16309 0.281374
6404.25879 0.281514
6405.35400 0.281653
6406.45117 0.281793
6407.54590 0.281937
6408.64307 0.282083
6409.73877 0.282229
6410.83594 0.282355
6411.93311 0.282465
6413.02979 0.28252
6414.12695 0.282575
6415.22510 0.28263
6416.32178 0.282685
6417.41992 0.282657
6418.51807 0.282572
6419.61621 0.282486
6420.71387 0.282418
6421.81299 0.282353
6422.91211 0.282138
6424.01123 0.281922
6425.10986 0.281707
6426.20898 0.281492
6427.30908 0.281225
6428.40820 0.280904
6429.50781 0.280583
6430.60791 0.280259
6431.70801 0.279932
6432.80908 0.279602
6433.91016 0.279273
6435.00977 0.278943
6436.11084 0.278614
6437.21191 0.278353
6438.31396 0.278199
6439.41602 0.278045
6440.51709 0.27789
6441.61914 0.277736
6442.72119 0.277786
6443.82422 0.277871
6444.92578 0.277956
6446.02881 0.278042
6447.13184 0.278178
6448.23486 0.278425
6449.33789 0.278672
6450.44092 0.278908
6451.54492 0.279128
6452.64893 0.279397
6453.75293 0.279678
6454.85693 0.27996
6455.96094 0.280242
6457.06592 0.280506
6458.17090 0.28072
6459.27588 0.280934
6460.38086 0.281157
6461.48584 0.281398
6462.59180 0.281522
6463.69678 0.281604
6464.80322 0.281685
6465.91016 0.281767
6467.01611 0.281821
6468.12207 0.281768
6469.22900 0.281715
6470.33594 0.281662
6471.44287 0.281609
6472.54980 0.281551
6473.65723 0.281492
6474.76514 0.281432
6475.87305 0.281372
6476.98096 0.281319
6478.08887 0.281295
6479.19678 0.281272
6480.30615 0.281249
6481.41504 0.281225
6482.52295 0.281129
6483.63281 0.280996
6484.74219 0.280863
6485.85205 0.28073
6486.96094 0.280523
6488.07080 0.279908
6489.18115 0.279294
6490.29199 0.278671
6491.40186 0.27803
6492.51318 0.27675
6493.62402 0.275124
6494.73389 0.273498
6495.84619 0.271871
6496.95703 0.270039
6498.06885 0.266999
6499.18018 0.263961
6500.29199 0.260912
6501.40479 0.257842
6502.51709 0.25386
6503.62891 0.249383
6504.74219 0.244906
6505.85498 0.240431
6506.96777 0.235824
6508.08203 0.230492
6509.19482 0.225163
6510.30908 0.219833
6511.42188 0.214505
6512.53711 0.209131
6513.65088 0.203736
6514.76514 0.198343
6515.87988 0.19295
6516.99512 0.187689
6518.10986 0.183045
6519.22510 0.178402
6520.33984 0.173756
6521.45605 0.169098
6522.57178 0.165288
6523.68799 0.161857
6524.80420 0.158428
6525.91992 0.155001
6527.03711 0.151849
6528.15381 0.14973
6529.27100 0.147612
6530.38818 0.1455
6531.50488 0.143397
6532.62305 0.141943
6533.74023 0.140727
6534.85791 0.139511
6535.97607 0.138295
6537.09424 0.137013
6538.21289 0.135544
6539.33203 0.134075
6540.45020 0.132606
6541.56885 0.131137
6542.68799 0.128283
6543.80811 0.125056
6544.92822 0.121829
6546.04688 0.118604
6547.16699 0.114646
6548.28809 0.109136
6549.40820 0.103626
6550.52881 0.098118
6551.64893 0.092612
6552.77100 0.086323
6553.89209 0.079906
6555.01318 0.073492
6556.13379 0.067077
6557.25586 0.061062
6558.37793 0.055652
6559.50000 0.050243
6560.62305 0.044832
6561.74512 0.039424
6562.86816 0.035763
6563.99023 0.032218
6565.11279 0.028673
6566.23682 0.025128
6567.35986 0.022315
6568.48389 0.020274
6569.60693 0.018233
6570.73096 0.016194
6571.85596 0.014189
6572.97998 0.013074
6574.10498 0.011959
6575.22900 0.010844
6576.35400 0.00973
6577.47998 0.008912
6578.60498 0.008302
6579.73096 0.007692
6580.85596 0.007082
6581.98193 0.006512
6583.10889 0.006176
6584.23486 0.00584
6585.36084 0.005504
6586.48779 0.005168
6587.61523 0.004942
6588.74219 0.004762
6589.87012 0.004582
6590.99707 0.004401
6592.12500 0.004249
6593.25195 0.004176
6594.38086 0.004102
6595.50879 0.004029
6596.63721 0.003956
6597.76611 0.003943
6598.89502 0.003942
6600.02393 0.003941
6601.15283 0.00394
6602.28320 0.003949
6603.41211 0.003969
6604.54199 0.00399
6605.67188 0.00401
6606.80176 0.004031
6607.93311 0.004001
6609.06299 0.003969
6610.19385 0.003938
6611.32520 0.003907
6612.45605 0.00381
6613.58691 0.003661
6614.71924 0.003512
6615.85107 0.003363
6616.98193 0.003205
6618.11523 0.002983
6619.24707 0.002762
6620.37891 0.00254
6621.51221 0.002319
6622.64502 0.002112
6623.77783 0.001912
6624.91211 0.001711
6626.04492 0.001511
6627.17920 0.001331
6628.31299 0.001199
6629.44678 0.001067
6630.58105 0.000934
6631.71484 0.000802
6632.85010 0.000721
6633.98486 0.000646
6635.12012 0.000571
6636.25488 0.000496
6637.39111 0.000439
7301.13037 0.0
