# %ECSV 0.9
# ---
# datatype:
# - {name: wavelength, unit: Angstrom, datatype: float32}
# - {name: response, datatype: float32}
# meta: !!omap
# - {band_name: FQ906N}
# - {group_name: WFC3_UVIS1}
wavelength response
7930.10840 0.0
8811.23145 0.000411
8812.73926 0.000426
8814.24707 0.000441
8815.75488 0.000456
8817.26367 0.000471
8818.77246 0.000486
8820.28125 0.000501
8821.79004 0.000516
8823.29980 0.000531
8824.80957 0.000546
8826.31934 0.00056
8827.82910 0.000575
8829.33984 0.00059
8830.85059 0.000605
8832.36133 0.000619
8833.87207 0.000634
8835.38379 0.000649
8836.89648 0.000664
8838.40723 0.000678
8839.91992 0.000693
8841.43164 0.000708
8842.94434 0.000722
8844.45801 0.000737
8845.97070 0.000752
8847.48438 0.000766
8848.99805 0.000781
8850.51172 0.000795
8852.02637 0.00081
8853.54102 0.000824
8855.05566 0.000839
8856.57129 0.000853
8858.08594 0.000868
8859.60156 0.000882
8861.11719 0.000897
8862.63379 0.000911
8864.15039 0.000925
8865.66699 0.00094
8867.18359 0.000954
8868.70020 0.000968
8870.21777 0.000982
8871.73535 0.000997
8873.25391 0.001011
8874.77148 0.001025
8876.29004 0.00104
8877.80859 0.001054
8879.32812 0.001068
8880.84668 0.001083
8882.36621 0.001097
8883.88574 0.001111
8885.40625 0.001125
8886.92676 0.001139
8888.44727 0.001153
8889.96777 0.001167
8891.48828 0.001181
8893.00977 0.001195
8894.53125 0.001208
8896.05371 0.001222
8897.57520 0.001236
8899.09766 0.00125
8900.62012 0.001264
8902.14355 0.001278
8903.66602 0.001291
8905.18945 0.001305
8906.71289 0.001319
8908.23730 0.001332
8909.76172 0.001346
8911.28613 0.00136
8912.81055 0.001373
8914.33496 0.001387
8915.86035 0.0014
8917.38574 0.001414
8918.91211 0.001428
8920.43848 0.001441
8921.96387 0.001454
8923.49023 0.001468
8925.01758 0.001481
8926.54395 0.001495
8928.07129 0.001508
8929.59863 0.001521
8931.12695 0.001535
8932.65527 0.001548
8934.18359 0.001561
8935.71191 0.001574
8937.24023 0.001588
8938.76953 0.001601
8940.29883 0.001614
8941.82910 0.001627
8943.35840 0.001641
8944.88867 0.001654
8946.41895 0.001667
8947.95020 0.001681
8949.48047 0.001694
8951.01172 0.001707
8952.54395 0.00172
8954.07520 0.001733
8955.60742 0.001746
8957.13965 0.001759
8958.67188 0.001772
8960.20508 0.001784
8961.73828 0.001797
8963.27148 0.00181
8964.80469 0.001823
8966.33887 0.001835
8967.87305 0.001848
8969.40723 0.001861
8970.94141 0.001873
8972.47656 0.001886
8974.01172 0.001899
8975.54688 0.001911
8977.08301 0.002237
8978.61816 0.002873
8980.15527 0.002139
8981.69141 0.002298
8983.22754 0.002885
8984.76465 0.003501
8986.30176 0.003387
8987.83984 0.004133
8989.37793 0.004867
8990.91602 0.005506
8992.45410 0.006104
8993.99219 0.007336
8995.53125 0.008306
8997.07031 0.009669
8998.60938 0.011781
9000.14941 0.013387
9001.68945 0.015624
9003.22852 0.018886
9004.76953 0.023106
9006.31055 0.027643
9007.85156 0.032251
9009.39258 0.037278
9010.93359 0.042578
9012.47559 0.047864
9014.01758 0.054217
9015.55957 0.05973
9017.10254 0.065001
9018.64648 0.070222
9020.18848 0.073799
9021.73145 0.078818
9023.27539 0.082579
9024.81934 0.084888
9026.36328 0.087302
9027.90723 0.089495
9029.45215 0.091095
9030.99707 0.092114
9032.54199 0.09266
9034.08789 0.093515
9035.63281 0.094378
9037.17871 0.0948
9038.72559 0.094699
9040.27148 0.094664
9041.81836 0.095121
9043.36523 0.095311
9044.91309 0.09545
9046.45996 0.096122
9048.00781 0.096189
9049.55664 0.096161
9051.10352 0.096108
9052.65332 0.096004
9054.20215 0.095348
9055.75098 0.096119
9057.30078 0.096318
9058.85059 0.095905
9060.40039 0.096102
9061.95020 0.096397
9063.50098 0.096536
9065.05176 0.096616
9066.60254 0.096735
9068.15332 0.096746
9069.70508 0.096535
9071.25684 0.096208
9072.80859 0.095874
9074.36133 0.095732
9075.91406 0.095701
9077.46680 0.095637
9079.01953 0.095523
9080.57324 0.095365
9082.12695 0.09526
9083.68066 0.095364
9085.23535 0.095455
9086.78906 0.095299
9088.34375 0.09446
9089.89941 0.093444
9091.45410 0.092235
9093.00977 0.090561
9094.56543 0.088119
9096.12109 0.084923
9097.67773 0.081759
9099.23438 0.077135
9100.79102 0.071097
9102.34863 0.065993
9103.90527 0.059186
9105.46289 0.053487
9107.02148 0.047574
9108.57910 0.0398
9110.13770 0.034236
9111.69629 0.028811
9113.25586 0.023789
9114.81445 0.019452
9116.37402 0.01629
9117.93359 0.013471
9119.49414 0.01139
9121.05469 0.009645
9122.61523 0.007842
9124.17578 0.006899
9125.73633 0.005782
9127.29785 0.004895
9128.85938 0.004213
9130.42188 0.003324
9131.98340 0.00278
9133.54590 0.002412
9135.10938 0.002458
9136.67188 0.002886
9138.23535 0.002031
9139.79883 0.0017
9141.36230 0.001404
9142.92676 0.001164
9144.49121 0.001249
9146.05566 0.00108
9147.62012 0.001025
9149.18555 0.001016
9150.75098 0.001007
9152.31641 0.000998
9153.88184 0.00099
9155.44824 0.000981
9157.01465 0.000972
9158.58203 0.000964
9160.14844 0.000955
9161.71582 0.000946
9163.28320 0.000938
9164.85156 0.000929
9166.41895 0.00092
9167.98730 0.000912
9169.55566 0.000903
9171.12500 0.000895
9172.69434 0.000886
9174.26367 0.000878
9175.83301 0.000869
9177.40332 0.000861
9178.97363 0.000852
9180.54395 0.000844
9182.11426 0.000836
9183.68555 0.000827
9185.25684 0.000819
9186.82812 0.000811
9188.40039 0.000803
9189.97266 0.000794
9191.54492 0.000786
9193.11719 0.000778
9194.69043 0.000769
9196.26367 0.000761
9197.83691 0.000753
9199.41016 0.000745
9200.98438 0.000736
9202.55859 0.000728
9204.13281 0.00072
9205.70801 0.000712
9207.28320 0.000703
9208.85840 0.000695
9210.43359 0.000687
9212.00977 0.000679
9213.58594 0.000671
9215.16211 0.000663
9216.73926 0.000655
9218.31543 0.000646
9219.89258 0.000638
9221.47070 0.00063
9223.04785 0.000622
9224.62598 0.000614
9226.20410 0.000606
9227.78320 0.000598
9229.36230 0.000591
9230.94141 0.000583
9232.52148 0.000575
9234.09961 0.000567
9235.67969 0.000559
9237.25977 0.000551
9238.84082 0.000544
9240.42090 0.000536
9242.00195 0.000528
9243.58301 0.00052
9245.16504 0.000513
9246.74707 0.000505
9248.32910 0.000497
9249.91113 0.00049
9251.49414 0.000482
9253.07715 0.000474
9254.66016 0.000467
9256.24316 0.000459
9257.82715 0.000452
9259.41113 0.000444
9260.99512 0.000437
9262.58008 0.000429
9264.16406 0.000422
9265.74902 0.000414
9267.33496 0.000407
10194.06836 0.0
