# %ECSV 0.9
# ---
# datatype:
# - {name: wavelength, unit: Angstrom, datatype: float32}
# - {name: response, datatype: float32}
# meta: !!omap
# - {band_name: f622w}
# - {group_name: WFPC2}
wavelength response
4802.39990 0.0
5336.00000 0.004103
5338.00000 0.004612
5340.00000 0.005184
5342.00000 0.005817
5344.00000 0.006463
5346.00000 0.00695
5368.00000 0.013502
5370.00000 0.014933
5372.00000 0.016425
5374.00000 0.018035
5376.00000 0.019765
5378.00000 0.021615
5380.00000 0.023663
5382.00000 0.02581
5384.00000 0.028137
5386.00000 0.030622
5388.00000 0.033267
5390.00000 0.036091
5392.00000 0.039014
5394.00000 0.042136
5396.00000 0.045456
5398.00000 0.048956
5400.00000 0.052694
5402.00000 0.056552
5404.00000 0.060628
5406.00000 0.064903
5408.00000 0.069377
5410.00000 0.073991
5412.00000 0.078823
5414.00000 0.083873
5416.00000 0.089163
5418.00000 0.094631
5420.00000 0.100219
5422.00000 0.106084
5424.00000 0.11205
5426.00000 0.118314
5428.00000 0.124677
5430.00000 0.131139
5432.00000 0.1379
5434.00000 0.14486
5436.00000 0.151919
5438.00000 0.159176
5440.00000 0.166733
5442.00000 0.174289
5444.00000 0.181944
5446.00000 0.189799
5448.00000 0.197852
5450.00000 0.206204
5452.00000 0.214655
5454.00000 0.223106
5456.00000 0.231755
5458.00000 0.240604
5460.00000 0.249552
5462.00000 0.2586
5464.00000 0.267846
5466.00000 0.277092
5468.00000 0.286438
5470.00000 0.295784
5472.00000 0.305229
5474.00000 0.314674
5476.00000 0.324219
5478.00000 0.333764
5480.00000 0.343308
5482.00000 0.352952
5484.00000 0.362696
5486.00000 0.37234
5488.00000 0.381884
5490.00000 0.39133
5492.00000 0.400775
5494.00000 0.410021
5496.00000 0.419268
5498.00000 0.428315
5500.00000 0.437462
5502.00000 0.44651
5504.00000 0.455557
5506.00000 0.464406
5508.00000 0.473354
5510.00000 0.482302
5512.00000 0.491051
5514.00000 0.499502
5516.00000 0.507953
5518.00000 0.516106
5520.00000 0.524159
5522.00000 0.532113
5524.00000 0.539967
5526.00000 0.547822
5528.00000 0.555577
5530.00000 0.563133
5532.00000 0.57049
5534.00000 0.577549
5536.00000 0.584608
5538.00000 0.591568
5540.00000 0.598229
5542.00000 0.604791
5544.00000 0.611254
5546.00000 0.617418
5548.00000 0.623383
5550.00000 0.629249
5552.00000 0.635016
5554.00000 0.640484
5556.00000 0.645753
5558.00000 0.651023
5560.00000 0.656193
5562.00000 0.661264
5564.00000 0.666135
5566.00000 0.671007
5568.00000 0.675779
5570.00000 0.680353
5572.00000 0.684827
5574.00000 0.689102
5576.00000 0.693278
5578.00000 0.697454
5580.00000 0.701629
5582.00000 0.705805
5584.00000 0.709683
5586.00000 0.71356
5588.00000 0.717239
5590.00000 0.720917
5592.00000 0.724596
5594.00000 0.728275
5596.00000 0.731754
5598.00000 0.735234
5600.00000 0.738515
5602.00000 0.741796
5604.00000 0.744978
5606.00000 0.747961
5608.00000 0.750943
5610.00000 0.753826
5612.00000 0.75671
5614.00000 0.759593
5616.00000 0.762377
5618.00000 0.765061
5620.00000 0.767746
5622.00000 0.77043
5624.00000 0.773115
5626.00000 0.7757
5628.00000 0.778384
5630.00000 0.780969
5632.00000 0.783355
5634.00000 0.785841
5636.00000 0.788326
5638.00000 0.790812
5640.00000 0.793297
5642.00000 0.795783
5644.00000 0.798467
5646.00000 0.801052
5648.00000 0.803538
5650.00000 0.806024
5652.00000 0.808509
5654.00000 0.811094
5656.00000 0.81358
5658.00000 0.815966
5660.00000 0.818352
5662.00000 0.820738
5664.00000 0.823124
5666.00000 0.825411
5668.00000 0.827797
5670.00000 0.830084
5672.00000 0.832371
5674.00000 0.834757
5676.00000 0.836845
5678.00000 0.839132
5680.00000 0.841418
5682.00000 0.843506
5684.00000 0.845693
5686.00000 0.84798
5688.00000 0.850068
5690.00000 0.852256
5692.00000 0.854542
5694.00000 0.857028
5696.00000 0.859314
5698.00000 0.860905
5700.00000 0.865379
5702.00000 0.86697
5704.00000 0.869157
5706.00000 0.871245
5708.00000 0.873333
5710.00000 0.87562
5712.00000 0.877807
5714.00000 0.879796
5716.00000 0.881983
5718.00000 0.884071
5720.00000 0.88596
5722.00000 0.887849
5724.00000 0.889738
5726.00000 0.891428
5728.00000 0.893218
5730.00000 0.895206
5732.00000 0.896996
5734.00000 0.898686
5736.00000 0.900376
5738.00000 0.902166
5740.00000 0.903757
5742.00000 0.905347
5744.00000 0.906839
5746.00000 0.90833
5748.00000 0.91002
5750.00000 0.911512
5752.00000 0.912903
5754.00000 0.914296
5756.00000 0.915687
5758.00000 0.917278
5760.00000 0.918869
5762.00000 0.920261
5764.00000 0.921553
5766.00000 0.922746
5768.00000 0.92394
5770.00000 0.925033
5772.00000 0.926226
5774.00000 0.92732
5776.00000 0.928414
5778.00000 0.929308
5780.00000 0.930303
5782.00000 0.931198
5784.00000 0.932192
5786.00000 0.933087
5788.00000 0.934081
5790.00000 0.934876
5792.00000 0.935671
5794.00000 0.936367
5796.00000 0.936964
5798.00000 0.937561
5800.00000 0.938356
5802.00000 0.939052
5804.00000 0.939549
5806.00000 0.940145
5808.00000 0.940742
5810.00000 0.941338
5812.00000 0.941836
5814.00000 0.942134
5816.00000 0.942532
5818.00000 0.943029
5820.00000 0.943426
5822.00000 0.943725
5824.00000 0.943824
5826.00000 0.943924
5828.00000 0.944023
5830.00000 0.944222
5832.00000 0.944421
5834.00000 0.944619
5836.00000 0.944918
5838.00000 0.945216
5840.00000 0.945315
5842.00000 0.945514
5844.00000 0.945614
5846.00000 0.945713
5848.00000 0.945912
5850.00000 0.946012
5852.00000 0.946012
5854.00000 0.946012
5856.00000 0.946012
5858.00000 0.946012
5860.00000 0.94621
5862.00000 0.946409
5864.00000 0.946509
5866.00000 0.946608
5868.00000 0.946608
5870.00000 0.946509
5872.00000 0.946409
5874.00000 0.946509
5876.00000 0.946509
5878.00000 0.946608
5880.00000 0.946707
5882.00000 0.946807
5884.00000 0.946906
5886.00000 0.947006
5888.00000 0.947105
5890.00000 0.947105
5892.00000 0.947006
5894.00000 0.947006
5896.00000 0.946906
5898.00000 0.946906
5900.00000 0.947006
5902.00000 0.947105
5904.00000 0.947105
5906.00000 0.947006
5908.00000 0.946906
5910.00000 0.947105
5912.00000 0.947205
5914.00000 0.947304
5916.00000 0.947304
5918.00000 0.947304
5920.00000 0.947503
5922.00000 0.947602
5924.00000 0.947801
5926.00000 0.947901
5928.00000 0.947901
5930.00000 0.948
5932.00000 0.948398
5934.00000 0.948596
5936.00000 0.948696
5938.00000 0.948795
5940.00000 0.948895
5942.00000 0.949094
5944.00000 0.949193
5946.00000 0.949292
5948.00000 0.949491
5950.00000 0.94969
5952.00000 0.949789
5954.00000 0.949889
5956.00000 0.950088
5958.00000 0.950287
5960.00000 0.950585
5962.00000 0.950883
5964.00000 0.951082
5966.00000 0.95148
5968.00000 0.951679
5970.00000 0.951977
5972.00000 0.952176
5974.00000 0.952275
5976.00000 0.952375
5978.00000 0.952573
5980.00000 0.952673
5982.00000 0.952971
5984.00000 0.953369
5986.00000 0.953568
5988.00000 0.953667
5990.00000 0.953866
5992.00000 0.953965
5994.00000 0.954164
5996.00000 0.954264
5998.00000 0.954264
6000.00000 0.954363
6002.00000 0.954462
6004.00000 0.954562
6006.00000 0.954661
6008.00000 0.954761
6010.00000 0.95486
6012.00000 0.95486
6014.00000 0.95496
6016.00000 0.955059
6018.00000 0.955158
6020.00000 0.955357
6022.00000 0.955457
6024.00000 0.955655
6026.00000 0.955655
6028.00000 0.955755
6030.00000 0.955755
6032.00000 0.955854
6034.00000 0.956053
6036.00000 0.955954
6038.00000 0.955755
6040.00000 0.955655
6042.00000 0.955655
6044.00000 0.955457
6046.00000 0.955357
6048.00000 0.955357
6050.00000 0.955457
6052.00000 0.955258
6054.00000 0.95496
6056.00000 0.95486
6058.00000 0.954661
6060.00000 0.954562
6062.00000 0.954363
6064.00000 0.954065
6066.00000 0.953866
6068.00000 0.953667
6070.00000 0.953468
6072.00000 0.95317
6074.00000 0.952971
6076.00000 0.952673
6078.00000 0.952375
6080.00000 0.952076
6082.00000 0.951778
6084.00000 0.95148
6086.00000 0.951281
6088.00000 0.951082
6090.00000 0.950784
6092.00000 0.950386
6094.00000 0.949889
6096.00000 0.949491
6098.00000 0.949094
6100.00000 0.948895
6102.00000 0.948497
6104.00000 0.948199
6106.00000 0.947901
6108.00000 0.947602
6110.00000 0.947205
6112.00000 0.946608
6114.00000 0.94621
6116.00000 0.945813
6118.00000 0.945415
6120.00000 0.944918
6122.00000 0.94452
6124.00000 0.944023
6126.00000 0.943426
6128.00000 0.942929
6130.00000 0.942432
6132.00000 0.941836
6134.00000 0.941239
6136.00000 0.940643
6138.00000 0.940046
6140.00000 0.93945
6142.00000 0.938952
6144.00000 0.938455
6146.00000 0.937958
6148.00000 0.937461
6150.00000 0.936964
6152.00000 0.936467
6154.00000 0.93597
6156.00000 0.935671
6158.00000 0.935274
6160.00000 0.934876
6162.00000 0.934379
6164.00000 0.933882
6166.00000 0.933584
6168.00000 0.933285
6170.00000 0.932888
6172.00000 0.932788
6174.00000 0.932689
6176.00000 0.932291
6178.00000 0.931993
6180.00000 0.931595
6182.00000 0.931297
6184.00000 0.930899
6186.00000 0.9307
6188.00000 0.930402
6190.00000 0.930203
6192.00000 0.929905
6194.00000 0.929607
6196.00000 0.929308
6198.00000 0.92901
6200.00000 0.928712
6202.00000 0.928513
6204.00000 0.928215
6206.00000 0.927817
6208.00000 0.92732
6210.00000 0.927121
6212.00000 0.926823
6214.00000 0.926524
6216.00000 0.926326
6218.00000 0.926226
6220.00000 0.926027
6222.00000 0.925928
6224.00000 0.925829
6226.00000 0.925829
6228.00000 0.925829
6230.00000 0.925729
6232.00000 0.92563
6234.00000 0.92553
6236.00000 0.92553
6238.00000 0.925431
6240.00000 0.92553
6242.00000 0.92553
6244.00000 0.92553
6246.00000 0.92563
6248.00000 0.925829
6250.00000 0.926127
6252.00000 0.926425
6254.00000 0.926624
6256.00000 0.926723
6258.00000 0.927022
6260.00000 0.92732
6262.00000 0.927519
6264.00000 0.927618
6266.00000 0.927917
6268.00000 0.928215
6270.00000 0.928414
6272.00000 0.928712
6274.00000 0.92911
6276.00000 0.929507
6278.00000 0.929805
6280.00000 0.930203
6282.00000 0.930601
6284.00000 0.930999
6286.00000 0.931297
6288.00000 0.931496
6290.00000 0.931893
6292.00000 0.932192
6294.00000 0.93249
6296.00000 0.932987
6298.00000 0.933385
6300.00000 0.933782
6302.00000 0.934081
6304.00000 0.934478
6306.00000 0.934777
6308.00000 0.935075
6310.00000 0.935373
6312.00000 0.93587
6314.00000 0.936566
6316.00000 0.937262
6318.00000 0.937759
6320.00000 0.938058
6322.00000 0.938555
6324.00000 0.939052
6326.00000 0.93945
6328.00000 0.939947
6330.00000 0.940344
6332.00000 0.940841
6334.00000 0.941338
6336.00000 0.942034
6338.00000 0.942631
6340.00000 0.943128
6342.00000 0.943526
6344.00000 0.943924
6346.00000 0.944421
6348.00000 0.944818
6350.00000 0.945415
6352.00000 0.945912
6354.00000 0.94631
6356.00000 0.946608
6358.00000 0.946906
6360.00000 0.947205
6362.00000 0.947602
6364.00000 0.948199
6366.00000 0.948895
6368.00000 0.949491
6370.00000 0.949988
6372.00000 0.950386
6374.00000 0.950983
6376.00000 0.951579
6378.00000 0.952076
6380.00000 0.952375
6382.00000 0.952772
6384.00000 0.953269
6386.00000 0.953667
6388.00000 0.954065
6390.00000 0.954462
6392.00000 0.95486
6394.00000 0.955059
6396.00000 0.955258
6398.00000 0.955556
6400.00000 0.955655
6402.00000 0.955755
6404.00000 0.955854
6406.00000 0.955854
6408.00000 0.955854
6410.00000 0.955854
6412.00000 0.955755
6414.00000 0.955655
6416.00000 0.955755
6418.00000 0.955655
6420.00000 0.955655
6422.00000 0.955457
6424.00000 0.955258
6426.00000 0.955158
6428.00000 0.955357
6430.00000 0.955556
6432.00000 0.955655
6434.00000 0.955556
6436.00000 0.955457
6438.00000 0.955357
6440.00000 0.955258
6442.00000 0.955059
6444.00000 0.95496
6446.00000 0.95486
6448.00000 0.954661
6450.00000 0.954562
6452.00000 0.954363
6454.00000 0.954065
6456.00000 0.953766
6458.00000 0.953568
6460.00000 0.953269
6462.00000 0.952872
6464.00000 0.952573
6466.00000 0.952375
6468.00000 0.951977
6470.00000 0.951679
6472.00000 0.95138
6474.00000 0.950983
6476.00000 0.950485
6478.00000 0.950088
6480.00000 0.949789
6482.00000 0.949292
6484.00000 0.948795
6486.00000 0.948298
6488.00000 0.947801
6490.00000 0.947205
6492.00000 0.946707
6494.00000 0.94621
6496.00000 0.945713
6498.00000 0.945415
6500.00000 0.945117
6502.00000 0.944918
6504.00000 0.94452
6506.00000 0.944321
6508.00000 0.944023
6510.00000 0.943924
6512.00000 0.943625
6514.00000 0.943327
6516.00000 0.943029
6518.00000 0.942532
6520.00000 0.941637
6522.00000 0.940444
6524.00000 0.939052
6526.00000 0.937958
6528.00000 0.937362
6530.00000 0.937262
6532.00000 0.937759
6534.00000 0.938555
6536.00000 0.93945
6538.00000 0.939847
6540.00000 0.939748
6542.00000 0.939151
6544.00000 0.938356
6546.00000 0.93766
6548.00000 0.936964
6550.00000 0.936467
6552.00000 0.93587
6554.00000 0.935274
6556.00000 0.934478
6558.00000 0.933584
6560.00000 0.932689
6562.00000 0.931993
6564.00000 0.931297
6566.00000 0.930601
6568.00000 0.929805
6570.00000 0.92901
6572.00000 0.928215
6574.00000 0.927221
6576.00000 0.926326
6578.00000 0.925331
6580.00000 0.924437
6582.00000 0.923542
6584.00000 0.922448
6586.00000 0.921553
6588.00000 0.920559
6590.00000 0.919366
6592.00000 0.918173
6594.00000 0.917079
6596.00000 0.915986
6598.00000 0.914793
6600.00000 0.9135
6602.00000 0.912009
6604.00000 0.910617
6606.00000 0.909225
6608.00000 0.907734
6610.00000 0.906143
6612.00000 0.904453
6614.00000 0.902762
6616.00000 0.900973
6618.00000 0.899084
6620.00000 0.897195
6622.00000 0.895306
6624.00000 0.893417
6626.00000 0.891528
6628.00000 0.88944
6630.00000 0.887252
6632.00000 0.885065
6634.00000 0.882977
6636.00000 0.88079
6638.00000 0.878503
6640.00000 0.876216
6642.00000 0.87383
6644.00000 0.871345
6646.00000 0.86876
6648.00000 0.866075
6650.00000 0.863291
6652.00000 0.860507
6654.00000 0.857624
6656.00000 0.854642
6658.00000 0.85156
6660.00000 0.848279
6662.00000 0.844799
6664.00000 0.84112
6666.00000 0.837541
6668.00000 0.833763
6670.00000 0.829786
6672.00000 0.825709
6674.00000 0.821434
6676.00000 0.81696
6678.00000 0.812586
6680.00000 0.808111
6682.00000 0.803538
6684.00000 0.799064
6686.00000 0.794391
6688.00000 0.789917
6690.00000 0.785244
6692.00000 0.780671
6694.00000 0.776296
6696.00000 0.771922
6698.00000 0.767646
6700.00000 0.763471
6702.00000 0.759394
6704.00000 0.755616
6706.00000 0.751838
6708.00000 0.748358
6710.00000 0.744878
6712.00000 0.741498
6714.00000 0.738217
6716.00000 0.735334
6718.00000 0.73255
6720.00000 0.730064
6722.00000 0.727778
6724.00000 0.72559
6726.00000 0.723602
6728.00000 0.721812
6730.00000 0.720321
6732.00000 0.719028
6734.00000 0.717736
6736.00000 0.716543
6738.00000 0.715449
6740.00000 0.714455
6742.00000 0.71356
6744.00000 0.712765
6746.00000 0.711969
6748.00000 0.711373
6750.00000 0.710677
6752.00000 0.709981
6754.00000 0.709384
6756.00000 0.708589
6758.00000 0.707793
6760.00000 0.707098
6762.00000 0.706501
6764.00000 0.706004
6766.00000 0.705606
6768.00000 0.705407
6770.00000 0.705308
6772.00000 0.705606
6774.00000 0.706004
6776.00000 0.706799
6778.00000 0.707793
6780.00000 0.709186
6782.00000 0.710876
6784.00000 0.712864
6786.00000 0.715449
6788.00000 0.718531
6790.00000 0.721912
6792.00000 0.72559
6794.00000 0.729865
6796.00000 0.734538
6798.00000 0.739708
6800.00000 0.745574
6802.00000 0.75154
6804.00000 0.758002
6806.00000 0.765061
6808.00000 0.772518
6810.00000 0.780373
6812.00000 0.788426
6814.00000 0.796777
6816.00000 0.805427
6818.00000 0.813779
6820.00000 0.822727
6822.00000 0.831874
6824.00000 0.841219
6826.00000 0.850565
6828.00000 0.859613
6830.00000 0.868362
6832.00000 0.876515
6834.00000 0.883971
6836.00000 0.890732
6838.00000 0.896598
6840.00000 0.90137
6842.00000 0.90495
6844.00000 0.907237
6846.00000 0.908131
6848.00000 0.907336
6850.00000 0.904751
6852.00000 0.900078
6854.00000 0.893417
6856.00000 0.884667
6858.00000 0.87393
6860.00000 0.861104
6862.00000 0.846091
6864.00000 0.829189
6866.00000 0.810498
6868.00000 0.790017
6870.00000 0.767746
6872.00000 0.743785
6874.00000 0.718432
6876.00000 0.691985
6878.00000 0.664544
6880.00000 0.636507
6882.00000 0.609762
6884.00000 0.58083
6886.00000 0.552097
6888.00000 0.523562
6890.00000 0.495426
6892.00000 0.467985
6894.00000 0.44124
6896.00000 0.415589
6898.00000 0.390833
6900.00000 0.366673
6902.00000 0.343507
6904.00000 0.321535
6906.00000 0.300656
6908.00000 0.280871
6910.00000 0.262179
6912.00000 0.244581
6914.00000 0.228276
6916.00000 0.212964
6918.00000 0.199542
6920.00000 0.186021
6922.00000 0.173593
6924.00000 0.16206
6926.00000 0.151322
6928.00000 0.14128
6930.00000 0.132133
6932.00000 0.123484
6934.00000 0.115629
6936.00000 0.108371
6938.00000 0.101611
6940.00000 0.095347
6942.00000 0.089471
6944.00000 0.083953
6946.00000 0.078922
6948.00000 0.07417
6950.00000 0.069785
6952.00000 0.065709
6954.00000 0.061851
6956.00000 0.058272
6958.00000 0.054951
6960.00000 0.051819
6962.00000 0.048876
6964.00000 0.046112
6966.00000 0.043527
6968.00000 0.041141
6970.00000 0.038934
6972.00000 0.036806
6974.00000 0.034878
6976.00000 0.033028
6998.00000 0.024389
7000.00000 0.023215
7002.00000 0.022102
7004.00000 0.021048
7006.00000 0.020044
7008.00000 0.019089
7010.00000 0.018175
7012.00000 0.01732
7014.00000 0.016504
7016.00000 0.015739
7018.00000 0.014993
7020.00000 0.014297
7022.00000 0.013621
7024.00000 0.012985
7026.00000 0.012388
7028.00000 0.011811
7030.00000 0.011265
7032.00000 0.010738
7034.00000 0.010251
7036.00000 0.009781
7038.00000 0.009339
7040.00000 0.008916
7042.00000 0.008515
7044.00000 0.008136
7046.00000 0.007777
7048.00000 0.007432
7050.00000 0.007104
7052.00000 0.006795
7054.00000 0.006598
7056.00000 0.006316
7058.00000 0.00605
7060.00000 0.005799
7062.00000 0.005562
7064.00000 0.005335
7066.00000 0.005119
7068.00000 0.004915
7070.00000 0.004727
7072.00000 0.004549
7074.00000 0.004381
7076.00000 0.004224
7078.00000 0.004073
7785.79980 0.0
