# %ECSV 0.9
# ---
# datatype:
# - {name: wavelength, unit: Angstrom, datatype: float32}
# - {name: response, datatype: float32}
# meta: !!omap
# - {band_name: f555w}
# - {group_name: WFPC2}
wavelength response
3933.00000 0.0
4370.00000 0.004125
4380.00000 0.010197
4390.00000 0.019736
4400.00000 0.043739
4410.00000 0.079574
4420.00000 0.126991
4430.00000 0.193178
4440.00000 0.263352
4450.00000 0.343594
4460.00000 0.416759
4470.00000 0.491319
4480.00000 0.553419
4490.00000 0.611432
4500.00000 0.656088
4510.00000 0.698352
4520.00000 0.728854
4530.00000 0.756665
4540.00000 0.777896
4550.00000 0.796536
4560.00000 0.81109
4570.00000 0.823649
4580.00000 0.834215
4590.00000 0.843086
4600.00000 0.850263
4610.00000 0.856543
4620.00000 0.862325
4630.00000 0.867707
4640.00000 0.872093
4650.00000 0.87618
4660.00000 0.87937
4670.00000 0.882759
4680.00000 0.885749
4690.00000 0.888839
4700.00000 0.89173
4710.00000 0.894521
4720.00000 0.896814
4730.00000 0.899305
4740.00000 0.9011
4750.00000 0.903392
4760.00000 0.905685
4770.00000 0.907679
4780.00000 0.909672
4790.00000 0.911666
4800.00000 0.913161
4810.00000 0.915354
4820.00000 0.916949
4830.00000 0.918942
4840.00000 0.920736
4850.00000 0.92263
4860.00000 0.924026
4870.00000 0.925521
4880.00000 0.926917
4890.00000 0.928212
4900.00000 0.929708
4910.00000 0.931003
4920.00000 0.932199
4930.00000 0.933496
4940.00000 0.934791
4950.00000 0.935589
4960.00000 0.936984
4970.00000 0.938081
4980.00000 0.938978
4990.00000 0.939676
5000.00000 0.940672
5010.00000 0.94127
5020.00000 0.941868
5030.00000 0.942766
5040.00000 0.943164
5050.00000 0.943663
5060.00000 0.944361
5070.00000 0.945258
5080.00000 0.945656
5090.00000 0.945557
5100.00000 0.946055
5110.00000 0.946254
5120.00000 0.946155
5130.00000 0.946155
5140.00000 0.946055
5150.00000 0.946354
5160.00000 0.946155
5170.00000 0.945955
5180.00000 0.945457
5190.00000 0.944959
5200.00000 0.944361
5210.00000 0.943862
5220.00000 0.943364
5230.00000 0.942766
5240.00000 0.942068
5250.00000 0.94127
5260.00000 0.940074
5270.00000 0.938679
5280.00000 0.937881
5290.00000 0.936386
5300.00000 0.93509
5310.00000 0.933496
5320.00000 0.931901
5330.00000 0.930306
5340.00000 0.928312
5350.00000 0.926518
5360.00000 0.924126
5370.00000 0.922431
5380.00000 0.919939
5390.00000 0.917447
5400.00000 0.914955
5410.00000 0.912563
5420.00000 0.909573
5430.00000 0.906981
5440.00000 0.903891
5450.00000 0.900701
5460.00000 0.897611
5470.00000 0.894421
5480.00000 0.890733
5490.00000 0.887344
5500.00000 0.883456
5510.00000 0.879669
5520.00000 0.875382
5530.00000 0.871395
5540.00000 0.86671
5550.00000 0.862723
5560.00000 0.857939
5570.00000 0.853154
5580.00000 0.847771
5590.00000 0.843186
5600.00000 0.837604
5610.00000 0.83252
5620.00000 0.82644
5630.00000 0.821257
5640.00000 0.815077
5650.00000 0.809295
5660.00000 0.802916
5670.00000 0.797035
5680.00000 0.790157
5690.00000 0.784774
5700.00000 0.778893
5710.00000 0.772414
5720.00000 0.765337
5730.00000 0.758359
5740.00000 0.750883
5750.00000 0.743308
5760.00000 0.73643
5770.00000 0.728655
5780.00000 0.720979
5790.00000 0.712706
5800.00000 0.70523
5810.00000 0.696458
5820.00000 0.688584
5830.00000 0.679812
5840.00000 0.671937
5850.00000 0.662767
5860.00000 0.654394
5870.00000 0.645522
5880.00000 0.63685
5890.00000 0.62758
5900.00000 0.618908
5910.00000 0.609837
5920.00000 0.600766
5930.00000 0.591596
5940.00000 0.582824
5950.00000 0.572856
5960.00000 0.564184
5970.00000 0.554316
5980.00000 0.545644
5990.00000 0.535576
6000.00000 0.526705
6010.00000 0.516837
6020.00000 0.507865
6030.00000 0.497798
6040.00000 0.488827
6050.00000 0.47856
6060.00000 0.469788
6070.00000 0.45972
6080.00000 0.451048
6090.00000 0.440881
6100.00000 0.432209
6110.00000 0.422141
6120.00000 0.413469
6130.00000 0.4038
6140.00000 0.395328
6150.00000 0.385459
6160.00000 0.377086
6170.00000 0.367617
6180.00000 0.359443
6190.00000 0.349974
6200.00000 0.3419
6210.00000 0.332629
6220.00000 0.324555
6230.00000 0.315684
6240.00000 0.307809
6250.00000 0.299137
6260.00000 0.291562
6270.00000 0.282989
6280.00000 0.275713
6290.00000 0.267439
6300.00000 0.260362
6310.00000 0.252388
6320.00000 0.24551
6330.00000 0.237735
6340.00000 0.231156
6350.00000 0.22358
6360.00000 0.217201
6370.00000 0.209924
6380.00000 0.203645
6390.00000 0.196767
6400.00000 0.190686
6410.00000 0.183808
6420.00000 0.178127
6430.00000 0.171747
6440.00000 0.166265
6450.00000 0.160184
6460.00000 0.155001
6470.00000 0.149319
6480.00000 0.144336
6490.00000 0.138853
6500.00000 0.134168
6510.00000 0.129184
6520.00000 0.124499
6530.00000 0.119814
6540.00000 0.115528
6550.00000 0.110843
6560.00000 0.106856
6570.00000 0.10247
6580.00000 0.098662
6590.00000 0.094476
6600.00000 0.090927
6610.00000 0.08702
6620.00000 0.083711
6630.00000 0.080042
6640.00000 0.076952
6650.00000 0.073523
6660.00000 0.070653
6670.00000 0.067483
6680.00000 0.064791
6690.00000 0.061701
6700.00000 0.059229
6710.00000 0.056418
6720.00000 0.054046
6730.00000 0.051415
6740.00000 0.049261
6750.00000 0.046929
6760.00000 0.044776
6770.00000 0.042583
6780.00000 0.040669
6790.00000 0.038715
6800.00000 0.036841
6810.00000 0.035087
6820.00000 0.033393
6830.00000 0.031758
6840.00000 0.030123
6850.00000 0.028648
6910.00000 0.024013
6920.00000 0.022876
6930.00000 0.02163
6940.00000 0.020584
6950.00000 0.019467
6960.00000 0.01851
6970.00000 0.017494
6980.00000 0.016646
6990.00000 0.015699
7000.00000 0.014922
7010.00000 0.014085
7020.00000 0.013377
7030.00000 0.012599
7040.00000 0.011971
7050.00000 0.011284
7060.00000 0.010706
7070.00000 0.010088
7080.00000 0.009578
7090.00000 0.009018
7100.00000 0.008552
7110.00000 0.00805
7120.00000 0.007631
7130.00000 0.007178
7140.00000 0.0068
7150.00000 0.006395
7160.00000 0.006059
7170.00000 0.005695
7180.00000 0.005393
7190.00000 0.005061
7200.00000 0.004793
7210.00000 0.004501
7220.00000 0.004261
7230.00000 0.004002
7953.00000 0.0
