# %ECSV 0.9
# ---
# datatype:
# - {name: wavelength, unit: Angstrom, datatype: float32}
# - {name: response, datatype: float32}
# meta: !!omap
# - {band_name: f165lp}
# - {group_name: WFPC2}
wavelength response
1462.50000 0.0
1625.00000 0.04
1630.00000 0.065
1635.00000 0.1
1640.00000 0.14
1645.00000 0.19
1650.00000 0.24
1655.00000 0.29
1660.00000 0.35
1665.00000 0.4
1670.00000 0.45
1675.00000 0.5
1680.00000 0.55
1685.00000 0.59
1690.00000 0.625
1695.00000 0.66
1700.00000 0.68
1705.00000 0.7
1710.00000 0.73
1715.00000 0.74
1720.00000 0.76
1725.00000 0.77
1730.00000 0.785
1735.00000 0.8
1740.00000 0.8
1745.00000 0.81
1750.00000 0.82
1755.00000 0.825
1760.00000 0.83
1765.00000 0.8325
1770.00000 0.835
1775.00000 0.8375
1780.00000 0.84
1785.00000 0.8425
1790.00000 0.845
1795.00000 0.8475
1800.00000 0.85
1805.00000 0.851
1810.00000 0.852
1815.00000 0.853
1820.00000 0.854
1825.00000 0.855
1835.00000 0.857
1840.00000 0.858
1845.00000 0.859
1850.00000 0.86
1855.00000 0.859
1860.00000 0.858
1865.00000 0.857
1870.00000 0.856
1875.00000 0.855
1880.00000 0.854
1885.00000 0.853
1890.00000 0.852
1895.00000 0.851
1900.00000 0.85
1905.00000 0.851
1910.00000 0.852
1915.00000 0.853
1920.00000 0.854
1925.00000 0.855
1930.00000 0.856
1935.00000 0.857
1940.00000 0.858
1945.00000 0.859
1950.00000 0.86
1955.00000 0.861
1960.00000 0.862
1965.00000 0.863
1970.00000 0.864
1975.00000 0.865
1980.00000 0.866
1985.00000 0.867
1990.00000 0.868
1995.00000 0.869
2000.00000 0.87
2005.00000 0.8704
2010.00000 0.8708
2015.00000 0.8712
2020.00000 0.8716
2025.00000 0.872
2030.00000 0.8724
2035.00000 0.8728
2040.00000 0.8732
2045.00000 0.8736
2050.00000 0.874
2055.00000 0.8744
2060.00000 0.8748
2065.00000 0.8752
2070.00000 0.8756
2075.00000 0.876
2080.00000 0.8764
2085.00000 0.8768
2090.00000 0.8772
2095.00000 0.8776
2100.00000 0.878
2105.00000 0.8784
2110.00000 0.8788
2115.00000 0.8792
2120.00000 0.8796
2125.00000 0.88
2130.00000 0.8804
2135.00000 0.8808
2140.00000 0.8812
2145.00000 0.8816
2150.00000 0.882
2155.00000 0.8824
2160.00000 0.8828
2165.00000 0.8832
2170.00000 0.8836
2175.00000 0.884
2180.00000 0.8844
2185.00000 0.8848
2190.00000 0.8852
2195.00000 0.8856
2200.00000 0.886
2205.00000 0.8864
2210.00000 0.8868
2215.00000 0.8872
2220.00000 0.8876
2225.00000 0.888
2230.00000 0.8884
2235.00000 0.8888
2240.00000 0.8892
2245.00000 0.8896
2250.00000 0.89
2255.00000 0.8904
2260.00000 0.8908
2265.00000 0.8912
2270.00000 0.8916
2275.00000 0.892
2280.00000 0.8924
2285.00000 0.8928
2290.00000 0.8932
2295.00000 0.8936
2300.00000 0.894
2305.00000 0.8944
2310.00000 0.8948
2315.00000 0.8952
2320.00000 0.8956
2325.00000 0.896
2330.00000 0.8964
2335.00000 0.8968
2340.00000 0.8972
2345.00000 0.8976
2350.00000 0.898
2355.00000 0.8984
2360.00000 0.8988
2365.00000 0.8992
2370.00000 0.8996
2375.00000 0.9
2380.00000 0.9004
2385.00000 0.9008
2390.00000 0.9012
2395.00000 0.9016
2400.00000 0.902
2405.00000 0.9024
2410.00000 0.9028
2415.00000 0.9032
2420.00000 0.9036
2425.00000 0.904
2430.00000 0.9044
2435.00000 0.9048
2440.00000 0.9052
2445.00000 0.9056
2450.00000 0.906
2455.00000 0.9064
2460.00000 0.9068
2465.00000 0.9072
2470.00000 0.9076
2475.00000 0.908
2480.00000 0.9084
2485.00000 0.9088
2490.00000 0.9092
2495.00000 0.9096
2500.00000 0.91
2505.00000 0.9101
2510.00000 0.9102
2515.00000 0.9103
2520.00000 0.9104
2525.00000 0.9105
2530.00000 0.9106
2535.00000 0.9107
2540.00000 0.9108
2545.00000 0.9109
2550.00000 0.911
2555.00000 0.9111
2560.00000 0.9112
2565.00000 0.9113
2570.00000 0.9114
2575.00000 0.9115
2580.00000 0.9116
2585.00000 0.9117
2590.00000 0.9118
2595.00000 0.9119
2600.00000 0.902
2605.00000 0.9021
2610.00000 0.9022
2615.00000 0.9023
2620.00000 0.9024
2625.00000 0.9025
2630.00000 0.9026
2635.00000 0.9027
2640.00000 0.9028
2645.00000 0.9029
2650.00000 0.903
2655.00000 0.9031
2660.00000 0.9032
2665.00000 0.9033
2670.00000 0.9034
2675.00000 0.9035
2680.00000 0.9036
2685.00000 0.9037
2690.00000 0.9038
2695.00000 0.9039
2700.00000 0.914
2705.00000 0.9141
2710.00000 0.9142
2715.00000 0.9143
2720.00000 0.9144
2725.00000 0.9145
2730.00000 0.9146
2735.00000 0.9147
2740.00000 0.9148
2745.00000 0.9149
2750.00000 0.915
2755.00000 0.9151
2760.00000 0.9152
2765.00000 0.9153
2770.00000 0.9154
2775.00000 0.9155
2780.00000 0.9156
2785.00000 0.9157
2790.00000 0.9158
2795.00000 0.9159
2800.00000 0.916
2805.00000 0.9161
2810.00000 0.9162
2815.00000 0.9163
2820.00000 0.9164
2825.00000 0.9165
2830.00000 0.9166
2835.00000 0.9167
2840.00000 0.9168
2845.00000 0.9169
2850.00000 0.917
2855.00000 0.9171
2860.00000 0.9172
2865.00000 0.9173
2870.00000 0.9174
2875.00000 0.9175
2880.00000 0.9176
2885.00000 0.9177
2890.00000 0.9178
2895.00000 0.9179
2900.00000 0.918
2905.00000 0.9181
2910.00000 0.9182
2915.00000 0.9183
2920.00000 0.9184
2925.00000 0.9185
2930.00000 0.9186
2935.00000 0.9187
2940.00000 0.9188
2945.00000 0.9189
2950.00000 0.919
2955.00000 0.9191
2960.00000 0.9192
2965.00000 0.9193
2970.00000 0.9194
2975.00000 0.9195
2980.00000 0.9196
2985.00000 0.9197
2990.00000 0.9198
2995.00000 0.9199
3000.00000 0.92
3100.00000 0.925
3200.00000 0.9276
3300.00000 0.9293
3400.00000 0.9331
3500.00000 0.9355
3600.00000 0.9374
3700.00000 0.9391
3800.00000 0.9408
3900.00000 0.9423
4000.00000 0.944
4100.00000 0.9456
4200.00000 0.9464
4300.00000 0.9472
4400.00000 0.9479
4500.00000 0.9481
4600.00000 0.9497
4700.00000 0.9501
4800.00000 0.9506
4900.00000 0.9507
5000.00000 0.9516
5100.00000 0.952
5200.00000 0.9523
5300.00000 0.9523
5400.00000 0.953
5500.00000 0.9527
5600.00000 0.953
5700.00000 0.9539
5800.00000 0.9541
5900.00000 0.9539
6000.00000 0.9538
6100.00000 0.9534
6200.00000 0.9534
6300.00000 0.953
6400.00000 0.9538
6500.00000 0.9529
6600.00000 0.9533
6700.00000 0.9522
6800.00000 0.9519
6900.00000 0.9518
7000.00000 0.9518
7100.00000 0.9513
7200.00000 0.9506
7300.00000 0.9509
7400.00000 0.951
7500.00000 0.9502
7600.00000 0.9499
7700.00000 0.9497
7800.00000 0.9495
7900.00000 0.9491
8000.00000 0.9496
8100.00000 0.9482
8200.00000 0.9486
8300.00000 0.9497
8400.00000 0.9498
8500.00000 0.9485
8600.00000 0.9478
8700.00000 0.9477
8800.00000 0.948
8900.00000 0.9468
9000.00000 0.9475
9100.00000 0.947
9200.00000 0.9474
9300.00000 0.9464
9400.00000 0.9458
9500.00000 0.9448
9600.00000 0.9451
9700.00000 0.9475
9800.00000 0.9477
9900.00000 0.9462
10000.00000 0.9458
10100.00000 0.9459
10200.00000 0.9486
10300.00000 0.9456
10400.00000 0.9467
10500.00000 0.9459
10600.00000 0.9462
10700.00000 0.9456
10800.00000 0.9463
10900.00000 0.9462
11000.00000 0.9454
12100.00000 0.0
