# %ECSV 0.9
# ---
# datatype:
# - {name: wavelength, unit: Angstrom, datatype: float32}
# - {name: response, datatype: float32}
# meta: !!omap
# - {band_name: J}
# - {group_name: CAIN3}
wavelength response
9705.59961 0.0
10784.00000 0.004014
10785.00000 0.00405
10786.00000 0.004165
10787.00000 0.004255
10788.00000 0.004292
10789.00000 0.004358
10790.00000 0.004446
10791.00000 0.004567
10792.00000 0.004652
10793.00000 0.004709
10794.00000 0.004753
10795.00000 0.004903
10796.00000 0.005013
10797.00000 0.004991
10798.00000 0.005146
10799.00000 0.005224
10800.00000 0.00536
10801.00000 0.005447
10802.00000 0.005511
10803.00000 0.005664
10804.00000 0.005756
10805.00000 0.005862
10806.00000 0.005921
10807.00000 0.006082
10808.00000 0.006252
10809.00000 0.006326
10810.00000 0.006401
10811.00000 0.006544
10812.00000 0.006729
10813.00000 0.006876
10814.00000 0.006924
10815.00000 0.007056
10816.00000 0.007215
10817.00000 0.007383
10818.00000 0.007526
10819.00000 0.007635
10820.00000 0.007749
10821.00000 0.008
10822.00000 0.008143
10823.00000 0.008261
10824.00000 0.00841
10825.00000 0.008632
10826.00000 0.008789
10827.00000 0.008916
10828.00000 0.009054
10829.00000 0.009257
10830.00000 0.00954
10831.00000 0.009684
10832.00000 0.009864
10833.00000 0.010023
10834.00000 0.010285
10835.00000 0.010459
10836.00000 0.010617
10837.00000 0.010837
10838.00000 0.011136
10839.00000 0.011361
10840.00000 0.01156
10841.00000 0.011722
10842.00000 0.012056
10843.00000 0.012386
10844.00000 0.012504
10845.00000 0.012724
10846.00000 0.012982
10847.00000 0.013369
10848.00000 0.013615
10849.00000 0.013841
10850.00000 0.014064
10851.00000 0.014485
10852.00000 0.014733
10853.00000 0.014991
10854.00000 0.01525
10855.00000 0.015682
10856.00000 0.016034
10857.00000 0.016251
10858.00000 0.016703
10859.00000 0.016888
10860.00000 0.017439
10861.00000 0.01771
10862.00000 0.017868
10863.00000 0.018394
10864.00000 0.018864
10865.00000 0.019157
10866.00000 0.019642
10867.00000 0.019869
10868.00000 0.020402
10869.00000 0.020926
10870.00000 0.021086
10871.00000 0.021552
10872.00000 0.022079
10873.00000 0.022574
10874.00000 0.022964
10875.00000 0.02341
10876.00000 0.023835
10877.00000 0.024499
10878.00000 0.024899
10879.00000 0.025272
10880.00000 0.025689
10881.00000 0.026492
10882.00000 0.027061
10883.00000 0.027503
10884.00000 0.027917
10885.00000 0.028644
10886.00000 0.029274
10887.00000 0.029739
10888.00000 0.030211
10889.00000 0.030805
10890.00000 0.031688
10891.00000 0.032289
10892.00000 0.03273
10893.00000 0.033299
10894.00000 0.03429
10895.00000 0.034928
10896.00000 0.035495
10897.00000 0.035986
10898.00000 0.036804
10899.00000 0.037852
10900.00000 0.038466
10901.00000 0.038851
10902.00000 0.039865
10903.00000 0.040663
10904.00000 0.041284
10905.00000 0.041966
10906.00000 0.042754
10907.00000 0.043874
10908.00000 0.044822
10909.00000 0.04543
10910.00000 0.046126
10911.00000 0.047246
10912.00000 0.048309
10913.00000 0.048831
10914.00000 0.049589
10915.00000 0.050537
10916.00000 0.051963
10917.00000 0.052799
10918.00000 0.05342
10919.00000 0.054371
10920.00000 0.055553
10921.00000 0.056585
10922.00000 0.057365
10923.00000 0.058291
10924.00000 0.059612
10925.00000 0.061002
10926.00000 0.061683
10927.00000 0.062603
10928.00000 0.06385
10929.00000 0.065309
10930.00000 0.066286
10931.00000 0.067099
10932.00000 0.068369
10933.00000 0.069985
10934.00000 0.070957
10935.00000 0.071936
10936.00000 0.072832
10937.00000 0.074534
10938.00000 0.075846
10939.00000 0.076775
10940.00000 0.077869
10941.00000 0.079269
10942.00000 0.081109
10943.00000 0.082087
10944.00000 0.083241
10945.00000 0.084498
10946.00000 0.086272
10947.00000 0.087525
10948.00000 0.088628
10949.00000 0.089639
10950.00000 0.091642
10951.00000 0.093268
10952.00000 0.094297
10953.00000 0.095353
10954.00000 0.096897
10955.00000 0.098987
10956.00000 0.100362
10957.00000 0.101538
10958.00000 0.102805
10959.00000 0.105046
10960.00000 0.106406
10961.00000 0.107489
10962.00000 0.10893
10963.00000 0.110921
10964.00000 0.112498
10965.00000 0.113765
10966.00000 0.114984
10967.00000 0.116841
10968.00000 0.119188
10969.00000 0.120351
10970.00000 0.121486
10971.00000 0.123022
10972.00000 0.1253
10973.00000 0.126691
10974.00000 0.127953
10975.00000 0.129616
10976.00000 0.132013
10977.00000 0.133569
10978.00000 0.134951
10979.00000 0.136317
10980.00000 0.138496
10981.00000 0.140486
10982.00000 0.142055
10983.00000 0.143432
10984.00000 0.145006
10985.00000 0.147485
10986.00000 0.148934
10987.00000 0.150145
10988.00000 0.151948
10989.00000 0.154133
10990.00000 0.156108
10991.00000 0.157451
10992.00000 0.158554
10993.00000 0.160875
10994.00000 0.163245
10995.00000 0.16452
10996.00000 0.16599
10997.00000 0.167858
10998.00000 0.170155
10999.00000 0.171656
11000.00000 0.173071
11001.00000 0.174544
11002.00000 0.177053
11003.00000 0.179056
11004.00000 0.180354
11005.00000 0.181948
11006.00000 0.183963
11007.00000 0.186205
11008.00000 0.187605
11009.00000 0.188777
11010.00000 0.190539
11011.00000 0.193107
11012.00000 0.194566
11013.00000 0.196003
11014.00000 0.197676
11015.00000 0.200036
11016.00000 0.201718
11017.00000 0.203034
11018.00000 0.204139
11019.00000 0.206444
11020.00000 0.208562
11021.00000 0.209706
11022.00000 0.211159
11023.00000 0.213033
11024.00000 0.215298
11025.00000 0.216577
11026.00000 0.218001
11027.00000 0.219625
11028.00000 0.221698
11029.00000 0.223355
11030.00000 0.224553
11031.00000 0.226099
11032.00000 0.228094
11033.00000 0.229997
11034.00000 0.231114
11035.00000 0.232247
11036.00000 0.233957
11037.00000 0.236229
11038.00000 0.237306
11039.00000 0.238569
11040.00000 0.240204
11041.00000 0.242235
11042.00000 0.243504
11043.00000 0.244696
11044.00000 0.245782
11045.00000 0.247934
11046.00000 0.249631
11047.00000 0.250653
11048.00000 0.251868
11049.00000 0.253399
11050.00000 0.255282
11051.00000 0.25627
11052.00000 0.257288
11053.00000 0.25849
11054.00000 0.260397
11055.00000 0.261692
11056.00000 0.26256
11057.00000 0.263474
11058.00000 0.265283
11059.00000 0.266669
11060.00000 0.267549
11061.00000 0.268036
11062.00000 0.269799
11063.00000 0.271416
11064.00000 0.272338
11065.00000 0.273442
11066.00000 0.274359
11067.00000 0.276001
11068.00000 0.276801
11069.00000 0.277812
11070.00000 0.278532
11071.00000 0.280081
11072.00000 0.281245
11073.00000 0.28185
11074.00000 0.28289
11075.00000 0.283905
11076.00000 0.285171
11077.00000 0.285879
11078.00000 0.286612
11079.00000 0.287482
11080.00000 0.288794
11081.00000 0.289506
11082.00000 0.29046
11083.00000 0.290947
11084.00000 0.292189
11085.00000 0.292886
11086.00000 0.293573
11087.00000 0.294272
11088.00000 0.295268
11089.00000 0.296288
11090.00000 0.296769
11091.00000 0.297407
11092.00000 0.298176
11093.00000 0.299195
11094.00000 0.29986
11095.00000 0.300247
11096.00000 0.300791
11097.00000 0.301865
11098.00000 0.302494
11099.00000 0.302968
11100.00000 0.303555
11101.00000 0.304239
11102.00000 0.304945
11103.00000 0.305069
11104.00000 0.305762
11105.00000 0.306539
11106.00000 0.307305
11107.00000 0.307684
11108.00000 0.308074
11109.00000 0.308639
11110.00000 0.309284
11111.00000 0.309839
11112.00000 0.310157
11113.00000 0.310661
11114.00000 0.311229
11115.00000 0.311791
11116.00000 0.31219
11117.00000 0.312522
11118.00000 0.313072
11119.00000 0.313556
11120.00000 0.314018
11121.00000 0.314228
11122.00000 0.314729
11123.00000 0.315321
11124.00000 0.315697
11125.00000 0.315947
11126.00000 0.316346
11127.00000 0.316804
11128.00000 0.317346
11129.00000 0.317552
11130.00000 0.317911
11131.00000 0.318315
11132.00000 0.318873
11133.00000 0.31906
11134.00000 0.319307
11135.00000 0.319744
11136.00000 0.320271
11137.00000 0.320652
11138.00000 0.320775
11139.00000 0.321081
11140.00000 0.321615
11141.00000 0.322006
11142.00000 0.322157
11143.00000 0.322601
11144.00000 0.322903
11145.00000 0.323357
11146.00000 0.323545
11147.00000 0.323965
11148.00000 0.324253
11149.00000 0.324705
11150.00000 0.325036
11151.00000 0.325311
11152.00000 0.325571
11153.00000 0.326051
11154.00000 0.326474
11155.00000 0.326628
11156.00000 0.326855
11157.00000 0.327373
11158.00000 0.327779
11159.00000 0.328005
11160.00000 0.328348
11161.00000 0.32864
11162.00000 0.329082
11163.00000 0.329424
11164.00000 0.329713
11165.00000 0.329866
11166.00000 0.330451
11167.00000 0.330812
11168.00000 0.331175
11169.00000 0.33153
11170.00000 0.331927
11171.00000 0.332349
11172.00000 0.332601
11173.00000 0.333078
11174.00000 0.333304
11175.00000 0.333856
11176.00000 0.333993
11177.00000 0.334452
11178.00000 0.3347
11179.00000 0.335337
11180.00000 0.335674
11181.00000 0.336028
11182.00000 0.33637
11183.00000 0.336905
11184.00000 0.337298
11185.00000 0.337574
11186.00000 0.338171
11187.00000 0.338458
11188.00000 0.339047
11189.00000 0.339369
11190.00000 0.339659
11191.00000 0.340055
11192.00000 0.340715
11193.00000 0.341062
11194.00000 0.341315
11195.00000 0.341785
11196.00000 0.342297
11197.00000 0.342896
11198.00000 0.343024
11199.00000 0.343621
11200.00000 0.344139
11201.00000 0.344664
11202.00000 0.34509
11203.00000 0.3456
11204.00000 0.345899
11205.00000 0.346544
11206.00000 0.347034
11207.00000 0.347377
11208.00000 0.347816
11209.00000 0.348555
11210.00000 0.348952
11211.00000 0.349303
11212.00000 0.349799
11213.00000 0.350366
11214.00000 0.350989
11215.00000 0.351469
11216.00000 0.351784
11217.00000 0.352312
11218.00000 0.353038
11219.00000 0.353627
11220.00000 0.353867
11221.00000 0.354435
11222.00000 0.355204
11223.00000 0.355599
11224.00000 0.356071
11225.00000 0.356315
11226.00000 0.357012
11227.00000 0.357753
11228.00000 0.358191
11229.00000 0.358654
11230.00000 0.359177
11231.00000 0.359801
11232.00000 0.360374
11233.00000 0.360654
11234.00000 0.361266
11235.00000 0.361983
11236.00000 0.362541
11237.00000 0.36296
11238.00000 0.363683
11239.00000 0.36419
11240.00000 0.364745
11241.00000 0.365332
11242.00000 0.365588
11243.00000 0.366234
11244.00000 0.366986
11245.00000 0.367425
11246.00000 0.368083
11247.00000 0.368341
11248.00000 0.369085
11249.00000 0.369684
11250.00000 0.370253
11251.00000 0.37056
11252.00000 0.371197
11253.00000 0.37186
11254.00000 0.372439
11255.00000 0.372657
11256.00000 0.373102
11257.00000 0.37414
11258.00000 0.374617
11259.00000 0.37522
11260.00000 0.375761
11261.00000 0.376447
11262.00000 0.376811
11263.00000 0.37742
11264.00000 0.377785
11265.00000 0.378473
11266.00000 0.378993
11267.00000 0.379411
11268.00000 0.379821
11269.00000 0.380562
11270.00000 0.381321
11271.00000 0.381714
11272.00000 0.38224
11273.00000 0.382569
11274.00000 0.3834
11275.00000 0.383846
11276.00000 0.384259
11277.00000 0.384699
11278.00000 0.385251
11279.00000 0.385905
11280.00000 0.386329
11281.00000 0.386751
11282.00000 0.387105
11283.00000 0.387934
11284.00000 0.388382
11285.00000 0.3889
11286.00000 0.389155
11287.00000 0.390085
11288.00000 0.390628
11289.00000 0.390922
11290.00000 0.391384
11291.00000 0.391986
11292.00000 0.392684
11293.00000 0.392893
11294.00000 0.393398
11295.00000 0.393934
11296.00000 0.394519
11297.00000 0.395016
11298.00000 0.395416
11299.00000 0.395864
11300.00000 0.396605
11301.00000 0.396949
11302.00000 0.397361
11303.00000 0.397979
11304.00000 0.397688
11305.00000 0.399102
11306.00000 0.399752
11307.00000 0.399872
11308.00000 0.400617
11309.00000 0.401015
11310.00000 0.401457
11311.00000 0.401864
11312.00000 0.402308
11313.00000 0.402911
11314.00000 0.403559
11315.00000 0.403888
11316.00000 0.404353
11317.00000 0.404856
11318.00000 0.405417
11319.00000 0.405811
11320.00000 0.406318
11321.00000 0.406858
11322.00000 0.40727
11323.00000 0.40803
11324.00000 0.408291
11325.00000 0.408691
11326.00000 0.409381
11327.00000 0.409879
11328.00000 0.410129
11329.00000 0.410641
11330.00000 0.411106
11331.00000 0.41186
11332.00000 0.412072
11333.00000 0.412624
11334.00000 0.41303
11335.00000 0.413683
11336.00000 0.414136
11337.00000 0.414278
11338.00000 0.414998
11339.00000 0.415445
11340.00000 0.416054
11341.00000 0.416674
11342.00000 0.417155
11343.00000 0.417576
11344.00000 0.41798
11345.00000 0.418452
11346.00000 0.418853
11347.00000 0.419564
11348.00000 0.420027
11349.00000 0.420403
11350.00000 0.4208
11351.00000 0.421378
11352.00000 0.422025
11353.00000 0.422493
11354.00000 0.423092
11355.00000 0.423264
11356.00000 0.424057
11357.00000 0.424559
11358.00000 0.425203
11359.00000 0.425496
11360.00000 0.426185
11361.00000 0.426581
11362.00000 0.427019
11363.00000 0.427513
11364.00000 0.42799
11365.00000 0.428697
11366.00000 0.428984
11367.00000 0.429686
11368.00000 0.429938
11369.00000 0.430701
11370.00000 0.431275
11371.00000 0.43155
11372.00000 0.431981
11373.00000 0.432709
11374.00000 0.43328
11375.00000 0.433889
11376.00000 0.43425
11377.00000 0.434816
11378.00000 0.435529
11379.00000 0.435848
11380.00000 0.436409
11381.00000 0.436986
11382.00000 0.43778
11383.00000 0.438188
11384.00000 0.438556
11385.00000 0.439075
11386.00000 0.439667
11387.00000 0.440259
11388.00000 0.440759
11389.00000 0.441346
11390.00000 0.441876
11391.00000 0.442739
11392.00000 0.443105
11393.00000 0.443643
11394.00000 0.44392
11395.00000 0.444874
11396.00000 0.445335
11397.00000 0.445773
11398.00000 0.446496
11399.00000 0.447099
11400.00000 0.447852
11401.00000 0.448172
11402.00000 0.448872
11403.00000 0.449372
11404.00000 0.450088
11405.00000 0.450509
11406.00000 0.450942
11407.00000 0.451539
11408.00000 0.452556
11409.00000 0.452801
11410.00000 0.453359
11411.00000 0.454169
11412.00000 0.454851
11413.00000 0.455498
11414.00000 0.456058
11415.00000 0.456607
11416.00000 0.457241
11417.00000 0.457879
11418.00000 0.458469
11419.00000 0.458888
11420.00000 0.459566
11421.00000 0.460151
11422.00000 0.460805
11423.00000 0.461325
11424.00000 0.46193
11425.00000 0.462614
11426.00000 0.463304
11427.00000 0.463845
11428.00000 0.464299
11429.00000 0.465295
11430.00000 0.465802
11431.00000 0.466459
11432.00000 0.466833
11433.00000 0.467667
11434.00000 0.468265
11435.00000 0.46914
11436.00000 0.469613
11437.00000 0.470114
11438.00000 0.471031
11439.00000 0.471478
11440.00000 0.472049
11441.00000 0.472678
11442.00000 0.473349
11443.00000 0.47424
11444.00000 0.474914
11445.00000 0.475332
11446.00000 0.475925
11447.00000 0.476804
11448.00000 0.4774
11449.00000 0.477576
11450.00000 0.478301
11451.00000 0.479279
11452.00000 0.480099
11453.00000 0.480547
11454.00000 0.480936
11455.00000 0.481955
11456.00000 0.482582
11457.00000 0.483032
11458.00000 0.483496
11459.00000 0.484279
11460.00000 0.48506
11461.00000 0.485646
11462.00000 0.48624
11463.00000 0.486811
11464.00000 0.48757
11465.00000 0.488198
11466.00000 0.488776
11467.00000 0.489375
11468.00000 0.490317
11469.00000 0.491111
11470.00000 0.491392
11471.00000 0.492088
11472.00000 0.492667
11473.00000 0.493601
11474.00000 0.493947
11475.00000 0.494596
11476.00000 0.49512
11477.00000 0.49613
11478.00000 0.496744
11479.00000 0.497289
11480.00000 0.497878
11481.00000 0.498727
11482.00000 0.499306
11483.00000 0.499645
11484.00000 0.500442
11485.00000 0.501008
11486.00000 0.501886
11487.00000 0.502498
11488.00000 0.50288
11489.00000 0.503509
11490.00000 0.504362
11491.00000 0.505136
11492.00000 0.505425
11493.00000 0.506155
11494.00000 0.507036
11495.00000 0.507612
11496.00000 0.508111
11497.00000 0.508617
11498.00000 0.509509
11499.00000 0.51036
11500.00000 0.510747
11501.00000 0.511186
11502.00000 0.511814
11503.00000 0.512794
11504.00000 0.513242
11505.00000 0.513749
11506.00000 0.514365
11507.00000 0.515154
11508.00000 0.515971
11509.00000 0.516246
11510.00000 0.516785
11511.00000 0.517808
11512.00000 0.518403
11513.00000 0.518981
11514.00000 0.519547
11515.00000 0.520232
11516.00000 0.520877
11517.00000 0.521387
11518.00000 0.52191
11519.00000 0.522704
11520.00000 0.523295
11521.00000 0.523902
11522.00000 0.524655
11523.00000 0.525102
11524.00000 0.525999
11525.00000 0.526423
11526.00000 0.526951
11527.00000 0.52751
11528.00000 0.528347
11529.00000 0.52907
11530.00000 0.529851
11531.00000 0.530143
11532.00000 0.53075
11533.00000 0.531572
11534.00000 0.531995
11535.00000 0.532664
11536.00000 0.533204
11537.00000 0.53397
11538.00000 0.534673
11539.00000 0.535374
11540.00000 0.535845
11541.00000 0.53634
11542.00000 0.53707
11543.00000 0.537619
11544.00000 0.538046
11545.00000 0.53899
11546.00000 0.54005
11547.00000 0.540227
11548.00000 0.540932
11549.00000 0.541488
11550.00000 0.542149
11551.00000 0.542774
11552.00000 0.54331
11553.00000 0.544009
11554.00000 0.544591
11555.00000 0.545473
11556.00000 0.545974
11557.00000 0.546557
11558.00000 0.547213
11559.00000 0.548092
11560.00000 0.548441
11561.00000 0.549037
11562.00000 0.549661
11563.00000 0.550474
11564.00000 0.551245
11565.00000 0.551844
11566.00000 0.552437
11567.00000 0.553065
11568.00000 0.553783
11569.00000 0.554316
11570.00000 0.554757
11571.00000 0.555486
11572.00000 0.556238
11573.00000 0.556849
11574.00000 0.557279
11575.00000 0.558129
11576.00000 0.558816
11577.00000 0.559654
11578.00000 0.560076
11579.00000 0.560747
11580.00000 0.561348
11581.00000 0.562182
11582.00000 0.562573
11583.00000 0.563168
11584.00000 0.563982
11585.00000 0.564616
11586.00000 0.565422
11587.00000 0.565824
11588.00000 0.566425
11589.00000 0.567381
11590.00000 0.567914
11591.00000 0.568548
11592.00000 0.569104
11593.00000 0.569908
11594.00000 0.570491
11595.00000 0.57134
11596.00000 0.571657
11597.00000 0.572678
11598.00000 0.573341
11599.00000 0.57384
11600.00000 0.574538
11601.00000 0.575152
11602.00000 0.575968
11603.00000 0.576487
11604.00000 0.577193
11605.00000 0.577861
11606.00000 0.578634
11607.00000 0.57948
11608.00000 0.58
11609.00000 0.580456
11610.00000 0.581297
11611.00000 0.582148
11612.00000 0.582507
11613.00000 0.583079
11614.00000 0.583881
11615.00000 0.58479
11616.00000 0.585407
11617.00000 0.58595
11618.00000 0.586464
11619.00000 0.587341
11620.00000 0.588048
11621.00000 0.588588
11622.00000 0.58902
11623.00000 0.590124
11624.00000 0.590812
11625.00000 0.591289
11626.00000 0.591831
11627.00000 0.592633
11628.00000 0.593543
11629.00000 0.594019
11630.00000 0.594433
11631.00000 0.595245
11632.00000 0.595865
11633.00000 0.59659
11634.00000 0.597318
11635.00000 0.597717
11636.00000 0.598444
11637.00000 0.599218
11638.00000 0.599957
11639.00000 0.600349
11640.00000 0.601175
11641.00000 0.601864
11642.00000 0.602286
11643.00000 0.60289
11644.00000 0.603414
11645.00000 0.60431
11646.00000 0.604784
11647.00000 0.605555
11648.00000 0.605969
11649.00000 0.60687
11650.00000 0.6075
11651.00000 0.607977
11652.00000 0.60873
11653.00000 0.609182
11654.00000 0.610116
11655.00000 0.610498
11656.00000 0.611234
11657.00000 0.61158
11658.00000 0.612402
11659.00000 0.613107
11660.00000 0.613512
11661.00000 0.614156
11662.00000 0.6148
11663.00000 0.615185
11664.00000 0.615828
11665.00000 0.616262
11666.00000 0.616881
11667.00000 0.617501
11668.00000 0.617947
11669.00000 0.618688
11670.00000 0.619159
11671.00000 0.619946
11672.00000 0.6202
11673.00000 0.620781
11674.00000 0.621155
11675.00000 0.621797
11676.00000 0.622288
11677.00000 0.622631
11678.00000 0.623225
11679.00000 0.624017
11680.00000 0.624233
11681.00000 0.625188
11682.00000 0.625415
11683.00000 0.625914
11684.00000 0.626398
11685.00000 0.626851
11686.00000 0.627215
11687.00000 0.627676
11688.00000 0.628261
11689.00000 0.628574
11690.00000 0.62909
11691.00000 0.629501
11692.00000 0.62978
11693.00000 0.630325
11694.00000 0.630886
11695.00000 0.631236
11696.00000 0.631794
11697.00000 0.631991
11698.00000 0.632498
11699.00000 0.63269
11700.00000 0.632946
11701.00000 0.633502
11702.00000 0.633815
11703.00000 0.634467
11704.00000 0.634514
11705.00000 0.63487
11706.00000 0.635336
11707.00000 0.635761
11708.00000 0.635877
11709.00000 0.636206
11710.00000 0.636661
11711.00000 0.636936
11712.00000 0.637182
11713.00000 0.637431
11714.00000 0.637738
11715.00000 0.637965
11716.00000 0.638085
11717.00000 0.638567
11718.00000 0.638879
11719.00000 0.638883
11720.00000 0.639351
11721.00000 0.639507
11722.00000 0.639829
11723.00000 0.639874
11724.00000 0.640037
11725.00000 0.640329
11726.00000 0.640563
11727.00000 0.640653
11728.00000 0.640844
11729.00000 0.641146
11730.00000 0.641263
11731.00000 0.641557
11732.00000 0.641627
11733.00000 0.64187
11734.00000 0.642191
11735.00000 0.64207
11736.00000 0.642032
11737.00000 0.642455
11738.00000 0.642271
11739.00000 0.642521
11740.00000 0.642349
11741.00000 0.642806
11742.00000 0.642851
11743.00000 0.642949
11744.00000 0.642959
11745.00000 0.643086
11746.00000 0.643082
11747.00000 0.642904
11748.00000 0.642896
11749.00000 0.64355
11750.00000 0.643435
11751.00000 0.643263
11752.00000 0.643341
11753.00000 0.643447
11754.00000 0.64334
11755.00000 0.643439
11756.00000 0.643404
11757.00000 0.643245
11758.00000 0.643245
11759.00000 0.643265
11760.00000 0.643483
11761.00000 0.643105
11762.00000 0.643156
11763.00000 0.64335
11764.00000 0.642812
11765.00000 0.643141
11766.00000 0.64324
11767.00000 0.643019
11768.00000 0.642765
11769.00000 0.642682
11770.00000 0.642647
11771.00000 0.642736
11772.00000 0.642686
11773.00000 0.642594
11774.00000 0.642677
11775.00000 0.642346
11776.00000 0.642201
11777.00000 0.642061
11778.00000 0.642044
11779.00000 0.641862
11780.00000 0.641783
11781.00000 0.641715
11782.00000 0.641799
11783.00000 0.641502
11784.00000 0.641275
11785.00000 0.641167
11786.00000 0.640984
11787.00000 0.640761
11788.00000 0.641002
11789.00000 0.640732
11790.00000 0.640609
11791.00000 0.640276
11792.00000 0.640092
11793.00000 0.640029
11794.00000 0.639923
11795.00000 0.639658
11796.00000 0.639537
11797.00000 0.639368
11798.00000 0.639298
11799.00000 0.639153
11800.00000 0.638985
11801.00000 0.638658
11802.00000 0.638607
11803.00000 0.638436
11804.00000 0.638409
11805.00000 0.638261
11806.00000 0.638011
11807.00000 0.637841
11808.00000 0.637542
11809.00000 0.63738
11810.00000 0.637263
11811.00000 0.637023
11812.00000 0.636769
11813.00000 0.636662
11814.00000 0.63648
11815.00000 0.636324
11816.00000 0.636246
11817.00000 0.635967
11818.00000 0.635765
11819.00000 0.635468
11820.00000 0.635291
11821.00000 0.635435
11822.00000 0.634878
11823.00000 0.635014
11824.00000 0.634556
11825.00000 0.634562
11826.00000 0.634614
11827.00000 0.634206
11828.00000 0.633925
11829.00000 0.633906
11830.00000 0.633595
11831.00000 0.633497
11832.00000 0.63324
11833.00000 0.633247
11834.00000 0.632918
11835.00000 0.632809
11836.00000 0.632475
11837.00000 0.632375
11838.00000 0.63218
11839.00000 0.63188
11840.00000 0.631904
11841.00000 0.631672
11842.00000 0.631908
11843.00000 0.631719
11844.00000 0.631314
11845.00000 0.631224
11846.00000 0.631248
11847.00000 0.631278
11848.00000 0.63091
11849.00000 0.63068
11850.00000 0.630566
11851.00000 0.630597
11852.00000 0.630283
11853.00000 0.630461
11854.00000 0.630067
11855.00000 0.630102
11856.00000 0.629869
11857.00000 0.629691
11858.00000 0.629792
11859.00000 0.629801
11860.00000 0.629569
11861.00000 0.629395
11862.00000 0.629245
11863.00000 0.62938
11864.00000 0.629262
11865.00000 0.629135
11866.00000 0.629082
11867.00000 0.62895
11868.00000 0.628858
11869.00000 0.628798
11870.00000 0.628825
11871.00000 0.628766
11872.00000 0.628696
11873.00000 0.628502
11874.00000 0.6286
11875.00000 0.628614
11876.00000 0.628503
11877.00000 0.628345
11878.00000 0.628369
11879.00000 0.628479
11880.00000 0.628317
11881.00000 0.628178
11882.00000 0.628273
11883.00000 0.628431
11884.00000 0.628403
11885.00000 0.62852
11886.00000 0.628426
11887.00000 0.628508
11888.00000 0.628495
11889.00000 0.628413
11890.00000 0.628216
11891.00000 0.6284
11892.00000 0.628494
11893.00000 0.628421
11894.00000 0.628493
11895.00000 0.628411
11896.00000 0.628579
11897.00000 0.62852
11898.00000 0.628613
11899.00000 0.628686
11900.00000 0.628959
11901.00000 0.628772
11902.00000 0.629055
11903.00000 0.628864
11904.00000 0.629129
11905.00000 0.629079
11906.00000 0.629215
11907.00000 0.629423
11908.00000 0.629394
11909.00000 0.629531
11910.00000 0.629606
11911.00000 0.629647
11912.00000 0.6298
11913.00000 0.630055
11914.00000 0.630135
11915.00000 0.630044
11916.00000 0.630218
11917.00000 0.630354
11918.00000 0.630727
11919.00000 0.6308
11920.00000 0.631019
11921.00000 0.63094
11922.00000 0.63131
11923.00000 0.63132
11924.00000 0.631471
11925.00000 0.63149
11926.00000 0.631755
11927.00000 0.632026
11928.00000 0.63222
11929.00000 0.632554
11930.00000 0.632375
11931.00000 0.632666
11932.00000 0.632878
11933.00000 0.633106
11934.00000 0.633318
11935.00000 0.633492
11936.00000 0.633637
11937.00000 0.633767
11938.00000 0.634103
11939.00000 0.634366
11940.00000 0.634512
11941.00000 0.634764
11942.00000 0.635103
11943.00000 0.635179
11944.00000 0.63543
11945.00000 0.635912
11946.00000 0.635743
11947.00000 0.636079
11948.00000 0.636428
11949.00000 0.636827
11950.00000 0.636936
11951.00000 0.637192
11952.00000 0.637445
11953.00000 0.63787
11954.00000 0.63771
11955.00000 0.638195
11956.00000 0.638533
11957.00000 0.638732
11958.00000 0.639058
11959.00000 0.639093
11960.00000 0.639564
11961.00000 0.639981
11962.00000 0.640186
11963.00000 0.640452
11964.00000 0.64095
11965.00000 0.640913
11966.00000 0.64129
11967.00000 0.641441
11968.00000 0.64166
11969.00000 0.642123
11970.00000 0.642614
11971.00000 0.64262
11972.00000 0.643013
11973.00000 0.643341
11974.00000 0.643745
11975.00000 0.644005
11976.00000 0.644188
11977.00000 0.644488
11978.00000 0.645011
11979.00000 0.64523
11980.00000 0.645586
11981.00000 0.645917
11982.00000 0.646451
11983.00000 0.646515
11984.00000 0.646964
11985.00000 0.647168
11986.00000 0.647691
11987.00000 0.648182
11988.00000 0.648081
11989.00000 0.64858
11990.00000 0.648907
11991.00000 0.649086
11992.00000 0.649491
11993.00000 0.650002
11994.00000 0.650079
11995.00000 0.650831
11996.00000 0.651143
11997.00000 0.651245
11998.00000 0.651508
11999.00000 0.652176
12000.00000 0.652434
12001.00000 0.652489
12002.00000 0.652871
12003.00000 0.653392
12004.00000 0.653599
12005.00000 0.654221
12006.00000 0.654327
12007.00000 0.654691
12008.00000 0.655121
12009.00000 0.655355
12010.00000 0.65574
12011.00000 0.656102
12012.00000 0.656496
12013.00000 0.657012
12014.00000 0.6571
12015.00000 0.657454
12016.00000 0.658006
12017.00000 0.658413
12018.00000 0.658729
12019.00000 0.658648
12020.00000 0.659349
12021.00000 0.659801
12022.00000 0.660152
12023.00000 0.660366
12024.00000 0.660724
12025.00000 0.661019
12026.00000 0.661577
12027.00000 0.661996
12028.00000 0.661865
12029.00000 0.662586
12030.00000 0.66308
12031.00000 0.663464
12032.00000 0.663621
12033.00000 0.663891
12034.00000 0.664444
12035.00000 0.664736
12036.00000 0.665135
12037.00000 0.665141
12038.00000 0.665889
12039.00000 0.666108
12040.00000 0.666437
12041.00000 0.666669
12042.00000 0.667223
12043.00000 0.667616
12044.00000 0.667919
12045.00000 0.668514
12046.00000 0.668453
12047.00000 0.6691
12048.00000 0.669198
12049.00000 0.668911
12050.00000 0.669924
12051.00000 0.670279
12052.00000 0.670958
12053.00000 0.671217
12054.00000 0.671361
12055.00000 0.671701
12056.00000 0.672284
12057.00000 0.672379
12058.00000 0.672826
12059.00000 0.672957
12060.00000 0.673602
12061.00000 0.673744
12062.00000 0.674134
12063.00000 0.674485
12064.00000 0.674966
12065.00000 0.675263
12066.00000 0.675559
12067.00000 0.67582
12068.00000 0.676203
12069.00000 0.676633
12070.00000 0.676948
12071.00000 0.677079
12072.00000 0.677467
12073.00000 0.678045
12074.00000 0.678306
12075.00000 0.678473
12076.00000 0.679181
12077.00000 0.679329
12078.00000 0.679508
12079.00000 0.679695
12080.00000 0.680152
12081.00000 0.680318
12082.00000 0.681214
12083.00000 0.681307
12084.00000 0.681712
12085.00000 0.681997
12086.00000 0.682389
12087.00000 0.682543
12088.00000 0.682795
12089.00000 0.683292
12090.00000 0.683584
12091.00000 0.684005
12092.00000 0.684208
12093.00000 0.684485
12094.00000 0.684739
12095.00000 0.68529
12096.00000 0.68534
12097.00000 0.685846
12098.00000 0.686466
12099.00000 0.686488
12100.00000 0.686962
12101.00000 0.687167
12102.00000 0.687546
12103.00000 0.687769
12104.00000 0.68823
12105.00000 0.688504
12106.00000 0.688708
12107.00000 0.689106
12108.00000 0.689494
12109.00000 0.689905
12110.00000 0.68986
12111.00000 0.690325
12112.00000 0.690704
12113.00000 0.691162
12114.00000 0.691371
12115.00000 0.69157
12116.00000 0.691983
12117.00000 0.692484
12118.00000 0.692581
12119.00000 0.692861
12120.00000 0.693338
12121.00000 0.693706
12122.00000 0.694108
12123.00000 0.69397
12124.00000 0.694656
12125.00000 0.694871
12126.00000 0.695352
12127.00000 0.69536
12128.00000 0.695684
12129.00000 0.696163
12130.00000 0.696555
12131.00000 0.696646
12132.00000 0.69686
12133.00000 0.697472
12134.00000 0.697545
12135.00000 0.698082
12136.00000 0.698138
12137.00000 0.698677
12138.00000 0.699127
12139.00000 0.699224
12140.00000 0.699742
12141.00000 0.699639
12142.00000 0.700254
12143.00000 0.700638
12144.00000 0.700844
12145.00000 0.701038
12146.00000 0.701406
12147.00000 0.701817
12148.00000 0.70207
12149.00000 0.701305
12150.00000 0.702575
12151.00000 0.703081
12152.00000 0.703277
12153.00000 0.70354
12154.00000 0.703786
12155.00000 0.704191
12156.00000 0.704646
12157.00000 0.704676
12158.00000 0.704829
12159.00000 0.705483
12160.00000 0.705673
12161.00000 0.706056
12162.00000 0.706183
12163.00000 0.706569
12164.00000 0.707017
12165.00000 0.707225
12166.00000 0.70738
12167.00000 0.707677
12168.00000 0.708101
12169.00000 0.708473
12170.00000 0.708541
12171.00000 0.709122
12172.00000 0.709597
12173.00000 0.709546
12174.00000 0.709822
12175.00000 0.7102
12176.00000 0.710366
12177.00000 0.710968
12178.00000 0.710982
12179.00000 0.711357
12180.00000 0.711642
12181.00000 0.712103
12182.00000 0.712263
12183.00000 0.712539
12184.00000 0.712767
12185.00000 0.713094
12186.00000 0.713799
12187.00000 0.713719
12188.00000 0.714128
12189.00000 0.714373
12190.00000 0.714807
12191.00000 0.715087
12192.00000 0.715204
12193.00000 0.715303
12194.00000 0.715906
12195.00000 0.716303
12196.00000 0.716133
12197.00000 0.716594
12198.00000 0.717069
12199.00000 0.717356
12200.00000 0.717377
12201.00000 0.717812
12202.00000 0.718064
12203.00000 0.718539
12204.00000 0.718816
12205.00000 0.718932
12206.00000 0.719234
12207.00000 0.719715
12208.00000 0.720014
12209.00000 0.720005
12210.00000 0.720376
12211.00000 0.72071
12212.00000 0.721041
12213.00000 0.721225
12214.00000 0.721507
12215.00000 0.72181
12216.00000 0.722029
12217.00000 0.722295
12218.00000 0.722451
12219.00000 0.72295
12220.00000 0.723173
12221.00000 0.723462
12222.00000 0.723504
12223.00000 0.723947
12224.00000 0.724146
12225.00000 0.72456
12226.00000 0.72474
12227.00000 0.724827
12228.00000 0.725459
12229.00000 0.725468
12230.00000 0.725764
12231.00000 0.725862
12232.00000 0.726084
12233.00000 0.726532
12234.00000 0.726763
12235.00000 0.726901
12236.00000 0.726999
12237.00000 0.727502
12238.00000 0.727626
12239.00000 0.727901
12240.00000 0.72796
12241.00000 0.728207
12242.00000 0.728671
12243.00000 0.72869
12244.00000 0.728904
12245.00000 0.729202
12246.00000 0.729569
12247.00000 0.729582
12248.00000 0.729859
12249.00000 0.729908
12250.00000 0.730258
12251.00000 0.730378
12252.00000 0.730699
12253.00000 0.730712
12254.00000 0.730987
12255.00000 0.731287
12256.00000 0.731374
12257.00000 0.731487
12258.00000 0.731673
12259.00000 0.731889
12260.00000 0.732162
12261.00000 0.73213
12262.00000 0.732479
12263.00000 0.732691
12264.00000 0.732679
12265.00000 0.733
12266.00000 0.733033
12267.00000 0.7332
12268.00000 0.733531
12269.00000 0.733465
12270.00000 0.733924
12271.00000 0.733824
12272.00000 0.734271
12273.00000 0.734083
12274.00000 0.734285
12275.00000 0.734614
12276.00000 0.734484
12277.00000 0.734612
12278.00000 0.734662
12279.00000 0.735314
12280.00000 0.734695
12281.00000 0.73539
12282.00000 0.735306
12283.00000 0.735503
12284.00000 0.735567
12285.00000 0.735693
12286.00000 0.735671
12287.00000 0.735923
12288.00000 0.735862
12289.00000 0.736078
12290.00000 0.736001
12291.00000 0.735878
12292.00000 0.73635
12293.00000 0.736278
12294.00000 0.736189
12295.00000 0.736321
12296.00000 0.736375
12297.00000 0.736575
12298.00000 0.736609
12299.00000 0.736598
12300.00000 0.73657
12301.00000 0.736662
12302.00000 0.736515
12303.00000 0.736757
12304.00000 0.736787
12305.00000 0.73666
12306.00000 0.736577
12307.00000 0.736855
12308.00000 0.736849
12309.00000 0.736911
12310.00000 0.736693
12311.00000 0.736648
12312.00000 0.736827
12313.00000 0.736811
12314.00000 0.736927
12315.00000 0.736721
12316.00000 0.736775
12317.00000 0.736609
12318.00000 0.736693
12319.00000 0.736747
12320.00000 0.736612
12321.00000 0.73646
12322.00000 0.736277
12323.00000 0.736368
12324.00000 0.736446
12325.00000 0.736318
12326.00000 0.736207
12327.00000 0.736073
12328.00000 0.735997
12329.00000 0.73631
12330.00000 0.735978
12331.00000 0.735802
12332.00000 0.735744
12333.00000 0.735537
12334.00000 0.735774
12335.00000 0.735274
12336.00000 0.735301
12337.00000 0.735344
12338.00000 0.735078
12339.00000 0.735048
12340.00000 0.734943
12341.00000 0.734939
12342.00000 0.734548
12343.00000 0.734675
12344.00000 0.734232
12345.00000 0.734253
12346.00000 0.73393
12347.00000 0.733981
12348.00000 0.733976
12349.00000 0.733742
12350.00000 0.733444
12351.00000 0.733339
12352.00000 0.733159
12353.00000 0.73291
12354.00000 0.732822
12355.00000 0.732573
12356.00000 0.73239
12357.00000 0.732279
12358.00000 0.732095
12359.00000 0.731905
12360.00000 0.731809
12361.00000 0.731578
12362.00000 0.73121
12363.00000 0.731099
12364.00000 0.73085
12365.00000 0.730675
12366.00000 0.730376
12367.00000 0.730241
12368.00000 0.729987
12369.00000 0.729924
12370.00000 0.729678
12371.00000 0.729263
12372.00000 0.729122
12373.00000 0.728984
12374.00000 0.728687
12375.00000 0.728324
12376.00000 0.728123
12377.00000 0.727995
12378.00000 0.727796
12379.00000 0.727406
12380.00000 0.727207
12381.00000 0.727106
12382.00000 0.726812
12383.00000 0.726451
12384.00000 0.72615
12385.00000 0.726025
12386.00000 0.725668
12387.00000 0.7254
12388.00000 0.724945
12389.00000 0.724833
12390.00000 0.724555
12391.00000 0.724406
12392.00000 0.723935
12393.00000 0.723617
12394.00000 0.723481
12395.00000 0.723239
12396.00000 0.722873
12397.00000 0.722442
12398.00000 0.72237
12399.00000 0.721999
12400.00000 0.721766
12401.00000 0.721379
12402.00000 0.721067
12403.00000 0.72088
12404.00000 0.720576
12405.00000 0.720213
12406.00000 0.719849
12407.00000 0.719696
12408.00000 0.719346
12409.00000 0.719102
12410.00000 0.718565
12411.00000 0.718325
12412.00000 0.7182
12413.00000 0.717737
12414.00000 0.717416
12415.00000 0.717171
12416.00000 0.717052
12417.00000 0.716649
12418.00000 0.716112
12419.00000 0.715858
12420.00000 0.715539
12421.00000 0.715324
12422.00000 0.714945
12423.00000 0.714456
12424.00000 0.714378
12425.00000 0.714173
12426.00000 0.713815
12427.00000 0.713374
12428.00000 0.713078
12429.00000 0.712821
12430.00000 0.71258
12431.00000 0.712182
12432.00000 0.711788
12433.00000 0.711501
12434.00000 0.711316
12435.00000 0.710917
12436.00000 0.710526
12437.00000 0.710318
12438.00000 0.71003
12439.00000 0.70976
12440.00000 0.709292
12441.00000 0.708883
12442.00000 0.709078
12443.00000 0.708614
12444.00000 0.708149
12445.00000 0.708097
12446.00000 0.707519
12447.00000 0.707262
12448.00000 0.706904
12449.00000 0.706735
12450.00000 0.706492
12451.00000 0.706266
12452.00000 0.705908
12453.00000 0.705556
12454.00000 0.705389
12455.00000 0.705052
12456.00000 0.704634
12457.00000 0.704445
12458.00000 0.704148
12459.00000 0.703942
12460.00000 0.703762
12461.00000 0.7033
12462.00000 0.703067
12463.00000 0.702881
12464.00000 0.702547
12465.00000 0.702355
12466.00000 0.701868
12467.00000 0.701725
12468.00000 0.701689
12469.00000 0.701315
12470.00000 0.700895
12471.00000 0.700729
12472.00000 0.700563
12473.00000 0.700339
12474.00000 0.699958
12475.00000 0.69997
12476.00000 0.699379
12477.00000 0.699396
12478.00000 0.699064
12479.00000 0.698677
12480.00000 0.698708
12481.00000 0.69852
12482.00000 0.698263
12483.00000 0.698002
12484.00000 0.697879
12485.00000 0.697819
12486.00000 0.697407
12487.00000 0.697085
12488.00000 0.697094
12489.00000 0.6969
12490.00000 0.69664
12491.00000 0.696521
12492.00000 0.696446
12493.00000 0.696293
12494.00000 0.696055
12495.00000 0.69578
12496.00000 0.695491
12497.00000 0.695504
12498.00000 0.695219
12499.00000 0.695167
12500.00000 0.695026
12501.00000 0.694845
12502.00000 0.694719
12503.00000 0.694426
12504.00000 0.694407
12505.00000 0.694189
12506.00000 0.694049
12507.00000 0.694091
12508.00000 0.693846
12509.00000 0.69359
12510.00000 0.693664
12511.00000 0.693496
12512.00000 0.693437
12513.00000 0.69321
12514.00000 0.693053
12515.00000 0.693177
12516.00000 0.693017
12517.00000 0.692903
12518.00000 0.69282
12519.00000 0.69262
12520.00000 0.692495
12521.00000 0.692607
12522.00000 0.692448
12523.00000 0.692442
12524.00000 0.692513
12525.00000 0.692367
12526.00000 0.692218
12527.00000 0.692294
12528.00000 0.692283
12529.00000 0.692097
12530.00000 0.692223
12531.00000 0.692087
12532.00000 0.692049
12533.00000 0.692176
12534.00000 0.691921
12535.00000 0.692044
12536.00000 0.692124
12537.00000 0.692053
12538.00000 0.69206
12539.00000 0.692008
12540.00000 0.691991
12541.00000 0.691987
12542.00000 0.692103
12543.00000 0.69198
12544.00000 0.692072
12545.00000 0.692183
12546.00000 0.692261
12547.00000 0.692165
12548.00000 0.692133
12549.00000 0.692422
12550.00000 0.692369
12551.00000 0.692318
12552.00000 0.692693
12553.00000 0.692473
12554.00000 0.692438
12555.00000 0.69273
12556.00000 0.692777
12557.00000 0.692825
12558.00000 0.693098
12559.00000 0.693089
12560.00000 0.693152
12561.00000 0.693188
12562.00000 0.693217
12563.00000 0.693384
12564.00000 0.693526
12565.00000 0.693727
12566.00000 0.693829
12567.00000 0.693871
12568.00000 0.693945
12569.00000 0.694245
12570.00000 0.694336
12571.00000 0.694422
12572.00000 0.694603
12573.00000 0.694746
12574.00000 0.6948
12575.00000 0.695118
12576.00000 0.695275
12577.00000 0.695235
12578.00000 0.6958
12579.00000 0.695784
12580.00000 0.695861
12581.00000 0.696
12582.00000 0.696328
12583.00000 0.69659
12584.00000 0.696634
12585.00000 0.696901
12586.00000 0.697161
12587.00000 0.697184
12588.00000 0.697715
12589.00000 0.697718
12590.00000 0.697906
12591.00000 0.697895
12592.00000 0.698148
12593.00000 0.698389
12594.00000 0.698614
12595.00000 0.699133
12596.00000 0.699295
12597.00000 0.699717
12598.00000 0.699753
12599.00000 0.700056
12600.00000 0.70039
12601.00000 0.700551
12602.00000 0.700693
12603.00000 0.701179
12604.00000 0.701404
12605.00000 0.701687
12606.00000 0.701745
12607.00000 0.702196
12608.00000 0.702437
12609.00000 0.702691
12610.00000 0.70286
12611.00000 0.703183
12612.00000 0.70348
12613.00000 0.703958
12614.00000 0.704142
12615.00000 0.704298
12616.00000 0.704599
12617.00000 0.705184
12618.00000 0.705419
12619.00000 0.705637
12620.00000 0.705989
12621.00000 0.706534
12622.00000 0.706357
12623.00000 0.707053
12624.00000 0.70719
12625.00000 0.70734
12626.00000 0.708101
12627.00000 0.708254
12628.00000 0.708386
12629.00000 0.708857
12630.00000 0.709301
12631.00000 0.709644
12632.00000 0.709843
12633.00000 0.709958
12634.00000 0.710686
12635.00000 0.710844
12636.00000 0.711428
12637.00000 0.711325
12638.00000 0.712077
12639.00000 0.712249
12640.00000 0.71267
12641.00000 0.712978
12642.00000 0.713394
12643.00000 0.713818
12644.00000 0.714012
12645.00000 0.714143
12646.00000 0.714622
12647.00000 0.715352
12648.00000 0.715487
12649.00000 0.715822
12650.00000 0.715924
12651.00000 0.716554
12652.00000 0.717148
12653.00000 0.717117
12654.00000 0.717581
12655.00000 0.718097
12656.00000 0.718485
12657.00000 0.71872
12658.00000 0.719087
12659.00000 0.71942
12660.00000 0.720029
12661.00000 0.720319
12662.00000 0.7206
12663.00000 0.720927
12664.00000 0.72139
12665.00000 0.721856
12666.00000 0.721908
12667.00000 0.722327
12668.00000 0.722859
12669.00000 0.723343
12670.00000 0.723457
12671.00000 0.723891
12672.00000 0.724263
12673.00000 0.724942
12674.00000 0.725069
12675.00000 0.725391
12676.00000 0.725871
12677.00000 0.726202
12678.00000 0.726685
12679.00000 0.726836
12680.00000 0.727213
12681.00000 0.727679
12682.00000 0.728437
12683.00000 0.728305
12684.00000 0.72865
12685.00000 0.729175
12686.00000 0.729638
12687.00000 0.729928
12688.00000 0.730116
12689.00000 0.730601
12690.00000 0.731015
12691.00000 0.731496
12692.00000 0.731572
12693.00000 0.732107
12694.00000 0.732441
12695.00000 0.732836
12696.00000 0.733289
12697.00000 0.73331
12698.00000 0.733785
12699.00000 0.7341
12700.00000 0.734642
12701.00000 0.73507
12702.00000 0.735303
12703.00000 0.735598
12704.00000 0.736111
12705.00000 0.736143
12706.00000 0.736687
12707.00000 0.73689
12708.00000 0.737285
12709.00000 0.737626
12710.00000 0.737802
12711.00000 0.738417
12712.00000 0.738541
12713.00000 0.738966
12714.00000 0.739229
12715.00000 0.739494
12716.00000 0.739907
12717.00000 0.740346
12718.00000 0.740339
12719.00000 0.740911
12720.00000 0.741329
12721.00000 0.741642
12722.00000 0.741707
12723.00000 0.742098
12724.00000 0.74256
12725.00000 0.742744
12726.00000 0.743224
12727.00000 0.743465
12728.00000 0.743586
12729.00000 0.7441
12730.00000 0.744508
12731.00000 0.744314
12732.00000 0.745015
12733.00000 0.745087
12734.00000 0.745392
12735.00000 0.745784
12736.00000 0.746139
12737.00000 0.746381
12738.00000 0.746701
12739.00000 0.746984
12740.00000 0.747181
12741.00000 0.747338
12742.00000 0.747821
12743.00000 0.74781
12744.00000 0.748241
12745.00000 0.748252
12746.00000 0.748873
12747.00000 0.748857
12748.00000 0.749138
12749.00000 0.749188
12750.00000 0.749619
12751.00000 0.749968
12752.00000 0.750017
12753.00000 0.750448
12754.00000 0.7504
12755.00000 0.751123
12756.00000 0.751098
12757.00000 0.751337
12758.00000 0.751508
12759.00000 0.751909
12760.00000 0.751897
12761.00000 0.752071
12762.00000 0.752371
12763.00000 0.752776
12764.00000 0.752934
12765.00000 0.752974
12766.00000 0.753371
12767.00000 0.753756
12768.00000 0.753756
12769.00000 0.753675
12770.00000 0.753909
12771.00000 0.754327
12772.00000 0.7546
12773.00000 0.754838
12774.00000 0.754994
12775.00000 0.754873
12776.00000 0.755334
12777.00000 0.755418
12778.00000 0.755636
12779.00000 0.75579
12780.00000 0.755775
12781.00000 0.756319
12782.00000 0.756317
12783.00000 0.756371
12784.00000 0.756653
12785.00000 0.756813
12786.00000 0.756904
12787.00000 0.756801
12788.00000 0.757069
12789.00000 0.75748
12790.00000 0.75752
12791.00000 0.757651
12792.00000 0.757794
12793.00000 0.757935
12794.00000 0.758062
12795.00000 0.758351
12796.00000 0.758259
12797.00000 0.758555
12798.00000 0.75852
12799.00000 0.758827
12800.00000 0.758842
12801.00000 0.758868
12802.00000 0.759171
12803.00000 0.759289
12804.00000 0.759267
12805.00000 0.759453
12806.00000 0.759553
12807.00000 0.759814
12808.00000 0.75993
12809.00000 0.759981
12810.00000 0.760082
12811.00000 0.760086
12812.00000 0.760175
12813.00000 0.760288
12814.00000 0.760448
12815.00000 0.760557
12816.00000 0.760587
12817.00000 0.760776
12818.00000 0.760768
12819.00000 0.760723
12820.00000 0.761049
12821.00000 0.760934
12822.00000 0.761056
12823.00000 0.761335
12824.00000 0.761347
12825.00000 0.761366
12826.00000 0.761623
12827.00000 0.761482
12828.00000 0.761796
12829.00000 0.761756
12830.00000 0.761832
12831.00000 0.761975
12832.00000 0.761898
12833.00000 0.761748
12834.00000 0.762208
12835.00000 0.762079
12836.00000 0.762371
12837.00000 0.762224
12838.00000 0.76248
12839.00000 0.762404
12840.00000 0.762607
12841.00000 0.762647
12842.00000 0.762634
12843.00000 0.76256
12844.00000 0.762789
12845.00000 0.762906
12846.00000 0.762887
12847.00000 0.763213
12848.00000 0.763003
12849.00000 0.762865
12850.00000 0.763283
12851.00000 0.763138
12852.00000 0.763285
12853.00000 0.76313
12854.00000 0.763503
12855.00000 0.763312
12856.00000 0.763616
12857.00000 0.763784
12858.00000 0.763415
12859.00000 0.763898
12860.00000 0.763745
12861.00000 0.764001
12862.00000 0.763724
12863.00000 0.763748
12864.00000 0.763992
12865.00000 0.764059
12866.00000 0.764109
12867.00000 0.764205
12868.00000 0.76435
12869.00000 0.764109
12870.00000 0.764271
12871.00000 0.764192
12872.00000 0.76457
12873.00000 0.764368
12874.00000 0.764283
12875.00000 0.764392
12876.00000 0.76455
12877.00000 0.76453
12878.00000 0.764686
12879.00000 0.764798
12880.00000 0.764823
12881.00000 0.764925
12882.00000 0.764937
12883.00000 0.764592
12884.00000 0.764952
12885.00000 0.76507
12886.00000 0.765139
12887.00000 0.765118
12888.00000 0.765223
12889.00000 0.765423
12890.00000 0.76536
12891.00000 0.765333
12892.00000 0.765637
12893.00000 0.76539
12894.00000 0.765695
12895.00000 0.765504
12896.00000 0.765654
12897.00000 0.765706
12898.00000 0.765799
12899.00000 0.765911
12900.00000 0.765859
12901.00000 0.766014
12902.00000 0.766115
12903.00000 0.765984
12904.00000 0.766158
12905.00000 0.766376
12906.00000 0.766394
12907.00000 0.766388
12908.00000 0.766473
12909.00000 0.766811
12910.00000 0.766549
12911.00000 0.766622
12912.00000 0.766615
12913.00000 0.766502
12914.00000 0.766685
12915.00000 0.766673
12916.00000 0.766552
12917.00000 0.7668
12918.00000 0.766918
12919.00000 0.767245
12920.00000 0.767437
12921.00000 0.767382
12922.00000 0.767492
12923.00000 0.767495
12924.00000 0.767566
12925.00000 0.767731
12926.00000 0.767583
12927.00000 0.767903
12928.00000 0.767875
12929.00000 0.768157
12930.00000 0.768203
12931.00000 0.768043
12932.00000 0.768266
12933.00000 0.768082
12934.00000 0.768364
12935.00000 0.768371
12936.00000 0.768761
12937.00000 0.768701
12938.00000 0.768702
12939.00000 0.768843
12940.00000 0.768855
12941.00000 0.769108
12942.00000 0.769145
12943.00000 0.769246
12944.00000 0.769369
12945.00000 0.769704
12946.00000 0.769578
12947.00000 0.769787
12948.00000 0.769716
12949.00000 0.769806
12950.00000 0.769705
12951.00000 0.770064
12952.00000 0.770012
12953.00000 0.770217
12954.00000 0.770362
12955.00000 0.770404
12956.00000 0.770496
12957.00000 0.770608
12958.00000 0.770661
12959.00000 0.771093
12960.00000 0.77083
12961.00000 0.771018
12962.00000 0.771107
12963.00000 0.771433
12964.00000 0.771298
12965.00000 0.771516
12966.00000 0.771445
12967.00000 0.771847
12968.00000 0.771871
12969.00000 0.771914
12970.00000 0.772197
12971.00000 0.77214
12972.00000 0.77234
12973.00000 0.772501
12974.00000 0.772384
12975.00000 0.772512
12976.00000 0.772722
12977.00000 0.772794
12978.00000 0.772809
12979.00000 0.772957
12980.00000 0.773275
12981.00000 0.773185
12982.00000 0.773295
12983.00000 0.773537
12984.00000 0.773677
12985.00000 0.773746
12986.00000 0.7737
12987.00000 0.773892
12988.00000 0.773879
12989.00000 0.774358
12990.00000 0.774149
12991.00000 0.774523
12992.00000 0.774543
12993.00000 0.774699
12994.00000 0.774984
12995.00000 0.774824
12996.00000 0.774879
12997.00000 0.77513
12998.00000 0.775262
12999.00000 0.775183
13000.00000 0.775452
13001.00000 0.775579
13002.00000 0.775693
13003.00000 0.77591
13004.00000 0.775862
13005.00000 0.776235
13006.00000 0.776252
13007.00000 0.776249
13008.00000 0.776229
13009.00000 0.776583
13010.00000 0.776521
13011.00000 0.776878
13012.00000 0.77674
13013.00000 0.776862
13014.00000 0.777257
13015.00000 0.777263
13016.00000 0.77729
13017.00000 0.777343
13018.00000 0.777543
13019.00000 0.777571
13020.00000 0.777848
13021.00000 0.777836
13022.00000 0.778138
13023.00000 0.778127
13024.00000 0.77806
13025.00000 0.778381
13026.00000 0.778447
13027.00000 0.778435
13028.00000 0.778585
13029.00000 0.778839
13030.00000 0.778643
13031.00000 0.778846
13032.00000 0.779002
13033.00000 0.779146
13034.00000 0.779215
13035.00000 0.779563
13036.00000 0.779505
13037.00000 0.779687
13038.00000 0.779483
13039.00000 0.779591
13040.00000 0.77957
13041.00000 0.779864
13042.00000 0.779888
13043.00000 0.779991
13044.00000 0.780396
13045.00000 0.780537
13046.00000 0.780586
13047.00000 0.780615
13048.00000 0.780557
13049.00000 0.780696
13050.00000 0.781147
13051.00000 0.780945
13052.00000 0.781312
13053.00000 0.781401
13054.00000 0.781353
13055.00000 0.781502
13056.00000 0.781428
13057.00000 0.781505
13058.00000 0.781902
13059.00000 0.781776
13060.00000 0.781643
13061.00000 0.78201
13062.00000 0.782237
13063.00000 0.781862
13064.00000 0.782233
13065.00000 0.782507
13066.00000 0.782378
13067.00000 0.782162
13068.00000 0.782565
13069.00000 0.782495
13070.00000 0.782668
13071.00000 0.782624
13072.00000 0.782802
13073.00000 0.782801
13074.00000 0.783054
13075.00000 0.782871
13076.00000 0.783126
13077.00000 0.783138
13078.00000 0.783365
13079.00000 0.783371
13080.00000 0.783289
13081.00000 0.78346
13082.00000 0.783604
13083.00000 0.783671
13084.00000 0.783708
13085.00000 0.783777
13086.00000 0.783849
13087.00000 0.783929
13088.00000 0.78405
13089.00000 0.784167
13090.00000 0.78425
13091.00000 0.784252
13092.00000 0.784165
13093.00000 0.78454
13094.00000 0.784402
13095.00000 0.784468
13096.00000 0.784685
13097.00000 0.784973
13098.00000 0.784785
13099.00000 0.784784
13100.00000 0.784866
13101.00000 0.784949
13102.00000 0.784771
13103.00000 0.784921
13104.00000 0.785014
13105.00000 0.785231
13106.00000 0.78498
13107.00000 0.785283
13108.00000 0.785137
13109.00000 0.785423
13110.00000 0.785197
13111.00000 0.785389
13112.00000 0.785266
13113.00000 0.785677
13114.00000 0.785713
13115.00000 0.785695
13116.00000 0.785795
13117.00000 0.785758
13118.00000 0.785994
13119.00000 0.78578
13120.00000 0.785894
13121.00000 0.78578
13122.00000 0.78599
13123.00000 0.785977
13124.00000 0.786083
13125.00000 0.786161
13126.00000 0.786308
13127.00000 0.786115
13128.00000 0.786283
13129.00000 0.786293
13130.00000 0.786404
13131.00000 0.786513
13132.00000 0.786615
13133.00000 0.786478
13134.00000 0.786541
13135.00000 0.786459
13136.00000 0.786688
13137.00000 0.78674
13138.00000 0.786867
13139.00000 0.786772
13140.00000 0.786829
13141.00000 0.786806
13142.00000 0.786939
13143.00000 0.786927
13144.00000 0.787239
13145.00000 0.787014
13146.00000 0.787198
13147.00000 0.786996
13148.00000 0.787308
13149.00000 0.787454
13150.00000 0.787372
13151.00000 0.787318
13152.00000 0.787393
13153.00000 0.787526
13154.00000 0.787588
13155.00000 0.787808
13156.00000 0.787505
13157.00000 0.787786
13158.00000 0.787589
13159.00000 0.787793
13160.00000 0.787828
13161.00000 0.788094
13162.00000 0.787901
13163.00000 0.787991
13164.00000 0.787978
13165.00000 0.787881
13166.00000 0.788054
13167.00000 0.788377
13168.00000 0.788252
13169.00000 0.788352
13170.00000 0.788399
13171.00000 0.788271
13172.00000 0.788326
13173.00000 0.788573
13174.00000 0.78855
13175.00000 0.788788
13176.00000 0.788655
13177.00000 0.788709
13178.00000 0.788892
13179.00000 0.788623
13180.00000 0.788999
13181.00000 0.788952
13182.00000 0.789128
13183.00000 0.788887
13184.00000 0.789082
13185.00000 0.78916
13186.00000 0.789413
13187.00000 0.789219
13188.00000 0.789409
13189.00000 0.789596
13190.00000 0.789475
13191.00000 0.789568
13192.00000 0.789543
13193.00000 0.789852
13194.00000 0.789658
13195.00000 0.789806
13196.00000 0.789874
13197.00000 0.789934
13198.00000 0.790145
13199.00000 0.79035
13200.00000 0.790423
13201.00000 0.790597
13202.00000 0.790256
13203.00000 0.790527
13204.00000 0.790477
13205.00000 0.790789
13206.00000 0.790839
13207.00000 0.790557
13208.00000 0.791001
13209.00000 0.791158
13210.00000 0.791055
13211.00000 0.790924
13212.00000 0.79118
13213.00000 0.791177
13214.00000 0.791207
13215.00000 0.791287
13216.00000 0.791584
13217.00000 0.79182
13218.00000 0.791438
13219.00000 0.791834
13220.00000 0.792037
13221.00000 0.791908
13222.00000 0.792028
13223.00000 0.792122
13224.00000 0.792104
13225.00000 0.792323
13226.00000 0.792374
13227.00000 0.792629
13228.00000 0.792786
13229.00000 0.792543
13230.00000 0.792924
13231.00000 0.792909
13232.00000 0.792904
13233.00000 0.79292
13234.00000 0.793224
13235.00000 0.793337
13236.00000 0.793379
13237.00000 0.793417
13238.00000 0.79355
13239.00000 0.793754
13240.00000 0.793903
13241.00000 0.793666
13242.00000 0.793913
13243.00000 0.79437
13244.00000 0.794262
13245.00000 0.794006
13246.00000 0.794349
13247.00000 0.794488
13248.00000 0.794572
13249.00000 0.794488
13250.00000 0.794675
13251.00000 0.795182
13252.00000 0.795
13253.00000 0.795304
13254.00000 0.795256
13255.00000 0.795356
13256.00000 0.795715
13257.00000 0.795437
13258.00000 0.795755
13259.00000 0.795754
13260.00000 0.796036
13261.00000 0.796104
13262.00000 0.796241
13263.00000 0.796366
13264.00000 0.796337
13265.00000 0.796575
13266.00000 0.796655
13267.00000 0.796577
13268.00000 0.796854
13269.00000 0.797029
13270.00000 0.79682
13271.00000 0.797493
13272.00000 0.797147
13273.00000 0.797413
13274.00000 0.797371
13275.00000 0.797617
13276.00000 0.797833
13277.00000 0.797928
13278.00000 0.798018
13279.00000 0.798347
13280.00000 0.798219
13281.00000 0.798445
13282.00000 0.798415
13283.00000 0.798516
13284.00000 0.7987
13285.00000 0.798972
13286.00000 0.799233
13287.00000 0.799144
13288.00000 0.799124
13289.00000 0.799287
13290.00000 0.799463
13291.00000 0.799652
13292.00000 0.799568
13293.00000 0.800201
13294.00000 0.799799
13295.00000 0.800525
13296.00000 0.800189
13297.00000 0.799912
13298.00000 0.800169
13299.00000 0.800659
13300.00000 0.80039
13301.00000 0.800733
13302.00000 0.801126
13303.00000 0.801143
13304.00000 0.80103
13305.00000 0.801161
13306.00000 0.80132
13307.00000 0.801326
13308.00000 0.801766
13309.00000 0.802001
13310.00000 0.801872
13311.00000 0.801888
13312.00000 0.802327
13313.00000 0.802443
13314.00000 0.802331
13315.00000 0.802256
13316.00000 0.802306
13317.00000 0.802836
13318.00000 0.802654
13319.00000 0.802991
13320.00000 0.803009
13321.00000 0.803163
13322.00000 0.803404
13323.00000 0.80331
13324.00000 0.803463
13325.00000 0.803694
13326.00000 0.803694
13327.00000 0.803635
13328.00000 0.803906
13329.00000 0.803989
13330.00000 0.804228
13331.00000 0.804017
13332.00000 0.804308
13333.00000 0.804295
13334.00000 0.804249
13335.00000 0.804462
13336.00000 0.804379
13337.00000 0.804942
13338.00000 0.804782
13339.00000 0.804695
13340.00000 0.804896
13341.00000 0.805057
13342.00000 0.80516
13343.00000 0.805265
13344.00000 0.805427
13345.00000 0.805503
13346.00000 0.805945
13347.00000 0.805679
13348.00000 0.805678
13349.00000 0.805897
13350.00000 0.806043
13351.00000 0.806068
13352.00000 0.80604
13353.00000 0.806348
13354.00000 0.806206
13355.00000 0.806473
13356.00000 0.80664
13357.00000 0.806649
13358.00000 0.806768
13359.00000 0.806721
13360.00000 0.80683
13361.00000 0.807181
13362.00000 0.806851
13363.00000 0.807246
13364.00000 0.806886
13365.00000 0.806915
13366.00000 0.807585
13367.00000 0.807668
13368.00000 0.80742
13369.00000 0.807667
13370.00000 0.807605
13371.00000 0.807622
13372.00000 0.807894
13373.00000 0.807989
13374.00000 0.807978
13375.00000 0.808242
13376.00000 0.808187
13377.00000 0.808266
13378.00000 0.807995
13379.00000 0.80824
13380.00000 0.808462
13381.00000 0.808682
13382.00000 0.8087
13383.00000 0.808715
13384.00000 0.808912
13385.00000 0.808686
13386.00000 0.808941
13387.00000 0.808924
13388.00000 0.809021
13389.00000 0.809086
13390.00000 0.809366
13391.00000 0.809205
13392.00000 0.80911
13393.00000 0.809525
13394.00000 0.80919
13395.00000 0.80888
13396.00000 0.809526
13397.00000 0.809759
13398.00000 0.809919
13399.00000 0.810061
13400.00000 0.809546
13401.00000 0.809577
13402.00000 0.809592
13403.00000 0.810238
13404.00000 0.809974
13405.00000 0.810379
13406.00000 0.809994
13407.00000 0.810194
13408.00000 0.810118
13409.00000 0.810391
13410.00000 0.810403
13411.00000 0.810405
13412.00000 0.810465
13413.00000 0.810562
13414.00000 0.810844
13415.00000 0.810706
13416.00000 0.810927
13417.00000 0.810678
13418.00000 0.81099
13419.00000 0.810945
13420.00000 0.81089
13421.00000 0.811194
13422.00000 0.810977
13423.00000 0.811203
13424.00000 0.811198
13425.00000 0.811379
13426.00000 0.811507
13427.00000 0.811359
13428.00000 0.811524
13429.00000 0.811737
13430.00000 0.811722
13431.00000 0.811943
13432.00000 0.812253
13433.00000 0.81173
13434.00000 0.812154
13435.00000 0.811994
13436.00000 0.812339
13437.00000 0.812278
13438.00000 0.812299
13439.00000 0.812275
13440.00000 0.812335
13441.00000 0.812857
13442.00000 0.812707
13443.00000 0.812524
13444.00000 0.8127
13445.00000 0.812751
13446.00000 0.813453
13447.00000 0.813093
13448.00000 0.813101
13449.00000 0.813087
13450.00000 0.813132
13451.00000 0.813408
13452.00000 0.813495
13453.00000 0.813598
13454.00000 0.813744
13455.00000 0.813755
13456.00000 0.813824
13457.00000 0.813925
13458.00000 0.814112
13459.00000 0.814094
13460.00000 0.813992
13461.00000 0.814493
13462.00000 0.814144
13463.00000 0.814027
13464.00000 0.814529
13465.00000 0.814672
13466.00000 0.814721
13467.00000 0.814882
13468.00000 0.814946
13469.00000 0.815092
13470.00000 0.815291
13471.00000 0.815339
13472.00000 0.815402
13473.00000 0.815533
13474.00000 0.815655
13475.00000 0.815555
13476.00000 0.816012
13477.00000 0.815956
13478.00000 0.81614
13479.00000 0.816137
13480.00000 0.816373
13481.00000 0.816401
13482.00000 0.816343
13483.00000 0.816741
13484.00000 0.816941
13485.00000 0.81674
13486.00000 0.816991
13487.00000 0.817301
13488.00000 0.817142
13489.00000 0.81738
13490.00000 0.817583
13491.00000 0.81792
13492.00000 0.818079
13493.00000 0.817874
13494.00000 0.818453
13495.00000 0.818176
13496.00000 0.818436
13497.00000 0.818523
13498.00000 0.819155
13499.00000 0.818702
13500.00000 0.819172
13501.00000 0.818987
13502.00000 0.819295
13503.00000 0.819187
13504.00000 0.819549
13505.00000 0.819893
13506.00000 0.820001
13507.00000 0.820189
13508.00000 0.820565
13509.00000 0.820047
13510.00000 0.820689
13511.00000 0.821508
13512.00000 0.820857
13513.00000 0.821065
13514.00000 0.821303
13515.00000 0.82114
13516.00000 0.82168
13517.00000 0.822044
13518.00000 0.821995
13519.00000 0.822081
13520.00000 0.822322
13521.00000 0.822812
13522.00000 0.822605
13523.00000 0.822634
13524.00000 0.822994
13525.00000 0.823375
13526.00000 0.823207
13527.00000 0.823647
13528.00000 0.823512
13529.00000 0.824238
13530.00000 0.824046
13531.00000 0.823996
13532.00000 0.824645
13533.00000 0.824716
13534.00000 0.824888
13535.00000 0.82523
13536.00000 0.825298
13537.00000 0.825609
13538.00000 0.825769
13539.00000 0.826026
13540.00000 0.826174
13541.00000 0.826292
13542.00000 0.826675
13543.00000 0.826612
13544.00000 0.826744
13545.00000 0.827318
13546.00000 0.826782
13547.00000 0.828143
13548.00000 0.827539
13549.00000 0.827548
13550.00000 0.82802
13551.00000 0.828579
13552.00000 0.828439
13553.00000 0.828933
13554.00000 0.829048
13555.00000 0.82918
13556.00000 0.829482
13557.00000 0.829209
13558.00000 0.829683
13559.00000 0.829818
13560.00000 0.830009
13561.00000 0.830294
13562.00000 0.830606
13563.00000 0.831022
13564.00000 0.830865
13565.00000 0.831191
13566.00000 0.831493
13567.00000 0.831775
13568.00000 0.831698
13569.00000 0.831976
13570.00000 0.832211
13571.00000 0.832623
13572.00000 0.832452
13573.00000 0.832739
13574.00000 0.832953
13575.00000 0.83342
13576.00000 0.833708
13577.00000 0.833297
13578.00000 0.833712
13579.00000 0.834188
13580.00000 0.834476
13581.00000 0.834669
13582.00000 0.834961
13583.00000 0.834856
13584.00000 0.835394
13585.00000 0.835505
13586.00000 0.835685
13587.00000 0.835856
13588.00000 0.836022
13589.00000 0.836122
13590.00000 0.836038
13591.00000 0.836568
13592.00000 0.836612
13593.00000 0.837447
13594.00000 0.837131
13595.00000 0.837516
13596.00000 0.837674
13597.00000 0.837304
13598.00000 0.837917
13599.00000 0.838274
13600.00000 0.838339
13601.00000 0.838302
13602.00000 0.838823
13603.00000 0.838786
13604.00000 0.839122
13605.00000 0.839574
13606.00000 0.839351
13607.00000 0.839493
13608.00000 0.839868
13609.00000 0.8403
13610.00000 0.840222
13611.00000 0.840291
13612.00000 0.840525
13613.00000 0.840979
13614.00000 0.840897
13615.00000 0.841123
13616.00000 0.841188
13617.00000 0.841374
13618.00000 0.84148
13619.00000 0.841809
13620.00000 0.841927
13621.00000 0.842058
13622.00000 0.84245
13623.00000 0.842567
13624.00000 0.842576
13625.00000 0.842701
13626.00000 0.842951
13627.00000 0.843221
13628.00000 0.84318
13629.00000 0.843439
13630.00000 0.843465
13631.00000 0.843553
13632.00000 0.843701
13633.00000 0.843663
13634.00000 0.844088
13635.00000 0.844105
13636.00000 0.844109
13637.00000 0.844503
13638.00000 0.844672
13639.00000 0.844999
13640.00000 0.844814
13641.00000 0.84501
13642.00000 0.845107
13643.00000 0.845046
13644.00000 0.845356
13645.00000 0.845436
13646.00000 0.845422
13647.00000 0.845502
13648.00000 0.845847
13649.00000 0.845896
13650.00000 0.846072
13651.00000 0.846245
13652.00000 0.846446
13653.00000 0.846186
13654.00000 0.846527
13655.00000 0.846333
13656.00000 0.846529
13657.00000 0.846506
13658.00000 0.846533
13659.00000 0.846913
13660.00000 0.846866
13661.00000 0.846798
13662.00000 0.84705
13663.00000 0.84738
13664.00000 0.84708
13665.00000 0.847118
13666.00000 0.847552
13667.00000 0.847207
13668.00000 0.847627
13669.00000 0.847693
13670.00000 0.847705
13671.00000 0.847779
13672.00000 0.847587
13673.00000 0.847724
13674.00000 0.847943
13675.00000 0.847917
13676.00000 0.847936
13677.00000 0.848129
13678.00000 0.848023
13679.00000 0.848494
13680.00000 0.84823
13681.00000 0.848489
13682.00000 0.848452
13683.00000 0.848441
13684.00000 0.848601
13685.00000 0.84846
13686.00000 0.848279
13687.00000 0.84828
13688.00000 0.84866
13689.00000 0.848685
13690.00000 0.848577
13691.00000 0.848693
13692.00000 0.848794
13693.00000 0.848865
13694.00000 0.848598
13695.00000 0.848512
13696.00000 0.848699
13697.00000 0.848637
13698.00000 0.848962
13699.00000 0.849298
13700.00000 0.848779
13701.00000 0.848827
13702.00000 0.848712
13703.00000 0.848822
13704.00000 0.848796
13705.00000 0.848919
13706.00000 0.848892
13707.00000 0.848883
13708.00000 0.848756
13709.00000 0.848994
13710.00000 0.849079
13711.00000 0.848906
13712.00000 0.848967
13713.00000 0.848769
13714.00000 0.849029
13715.00000 0.848997
13716.00000 0.848952
13717.00000 0.849148
13718.00000 0.84896
13719.00000 0.848943
13720.00000 0.849004
13721.00000 0.848725
13722.00000 0.848817
13723.00000 0.848854
13724.00000 0.849087
13725.00000 0.849086
13726.00000 0.848629
13727.00000 0.8489
13728.00000 0.848802
13729.00000 0.848933
13730.00000 0.848935
13731.00000 0.84888
13732.00000 0.848845
13733.00000 0.848947
13734.00000 0.848902
13735.00000 0.848814
13736.00000 0.848868
13737.00000 0.848735
13738.00000 0.848665
13739.00000 0.848724
13740.00000 0.848814
13741.00000 0.848745
13742.00000 0.848748
13743.00000 0.848693
13744.00000 0.848501
13745.00000 0.848714
13746.00000 0.848582
13747.00000 0.848485
13748.00000 0.848442
13749.00000 0.848558
13750.00000 0.848588
13751.00000 0.848617
13752.00000 0.848325
13753.00000 0.84848
13754.00000 0.848604
13755.00000 0.848457
13756.00000 0.848486
13757.00000 0.848351
13758.00000 0.8484
13759.00000 0.84866
13760.00000 0.848076
13761.00000 0.847909
13762.00000 0.848292
13763.00000 0.848251
13764.00000 0.848221
13765.00000 0.848112
13766.00000 0.848086
13767.00000 0.847994
13768.00000 0.847749
13769.00000 0.848105
13770.00000 0.847621
13771.00000 0.848069
13772.00000 0.8477
13773.00000 0.847727
13774.00000 0.847733
13775.00000 0.847532
13776.00000 0.847771
13777.00000 0.847831
13778.00000 0.847382
13779.00000 0.847636
13780.00000 0.847365
13781.00000 0.847245
13782.00000 0.847478
13783.00000 0.847303
13784.00000 0.8472
13785.00000 0.846915
13786.00000 0.846972
13787.00000 0.846811
13788.00000 0.846861
13789.00000 0.847521
13790.00000 0.846847
13791.00000 0.846278
13792.00000 0.846899
13793.00000 0.846292
13794.00000 0.846507
13795.00000 0.846174
13796.00000 0.84631
13797.00000 0.84637
13798.00000 0.846191
13799.00000 0.845413
13800.00000 0.845809
13801.00000 0.845613
13802.00000 0.845724
13803.00000 0.845729
13804.00000 0.845273
13805.00000 0.845163
13806.00000 0.845117
13807.00000 0.844793
13808.00000 0.844823
13809.00000 0.844816
13810.00000 0.844354
13811.00000 0.844277
13812.00000 0.843865
13813.00000 0.843845
13814.00000 0.844108
13815.00000 0.844014
13816.00000 0.843352
13817.00000 0.843485
13818.00000 0.843203
13819.00000 0.843281
13820.00000 0.842949
13821.00000 0.842726
13822.00000 0.842668
13823.00000 0.842331
13824.00000 0.842521
13825.00000 0.842063
13826.00000 0.841929
13827.00000 0.841818
13828.00000 0.841299
13829.00000 0.841276
13830.00000 0.841194
13831.00000 0.841041
13832.00000 0.840619
13833.00000 0.840568
13834.00000 0.840022
13835.00000 0.839464
13836.00000 0.839902
13837.00000 0.83976
13838.00000 0.839588
13839.00000 0.838882
13840.00000 0.838856
13841.00000 0.838744
13842.00000 0.838372
13843.00000 0.837923
13844.00000 0.838283
13845.00000 0.837563
13846.00000 0.837658
13847.00000 0.837282
13848.00000 0.837095
13849.00000 0.836952
13850.00000 0.836489
13851.00000 0.835931
13852.00000 0.835807
13853.00000 0.835559
13854.00000 0.835123
13855.00000 0.835078
13856.00000 0.834738
13857.00000 0.83468
13858.00000 0.834199
13859.00000 0.833752
13860.00000 0.833472
13861.00000 0.833165
13862.00000 0.833041
13863.00000 0.832793
13864.00000 0.832429
13865.00000 0.832095
13866.00000 0.831705
13867.00000 0.831582
13868.00000 0.831314
13869.00000 0.830908
13870.00000 0.83048
13871.00000 0.830249
13872.00000 0.830013
13873.00000 0.829459
13874.00000 0.829038
13875.00000 0.828852
13876.00000 0.828984
13877.00000 0.827984
13878.00000 0.827669
13879.00000 0.827523
13880.00000 0.827281
13881.00000 0.826814
13882.00000 0.826541
13883.00000 0.825837
13884.00000 0.825751
13885.00000 0.825315
13886.00000 0.82495
13887.00000 0.824851
13888.00000 0.824267
13889.00000 0.824043
13890.00000 0.823482
13891.00000 0.823102
13892.00000 0.822834
13893.00000 0.822528
13894.00000 0.822215
13895.00000 0.821494
13896.00000 0.821109
13897.00000 0.820917
13898.00000 0.820419
13899.00000 0.819641
13900.00000 0.819658
13901.00000 0.819119
13902.00000 0.818959
13903.00000 0.818392
13904.00000 0.817978
13905.00000 0.817639
13906.00000 0.817383
13907.00000 0.816734
13908.00000 0.816171
13909.00000 0.816092
13910.00000 0.815794
13911.00000 0.815
13912.00000 0.814483
13913.00000 0.814027
13914.00000 0.813984
13915.00000 0.813419
13916.00000 0.812274
13917.00000 0.813101
13918.00000 0.811873
13919.00000 0.8117
13920.00000 0.810802
13921.00000 0.810432
13922.00000 0.810028
13923.00000 0.809744
13924.00000 0.809202
13925.00000 0.80862
13926.00000 0.808275
13927.00000 0.807732
13928.00000 0.807366
13929.00000 0.806575
13930.00000 0.806207
13931.00000 0.805697
13932.00000 0.805433
13933.00000 0.804728
13934.00000 0.804157
13935.00000 0.803667
13936.00000 0.803458
13937.00000 0.802664
13938.00000 0.802084
13939.00000 0.801672
13940.00000 0.801286
13941.00000 0.800648
13942.00000 0.799845
13943.00000 0.799167
13944.00000 0.798829
13945.00000 0.798262
13946.00000 0.797531
13947.00000 0.796586
13948.00000 0.796292
13949.00000 0.795328
13950.00000 0.794897
13951.00000 0.793794
13952.00000 0.793495
13953.00000 0.792855
13954.00000 0.792042
13955.00000 0.791053
13956.00000 0.790511
13957.00000 0.789797
13958.00000 0.789172
13959.00000 0.788208
13960.00000 0.78725
13961.00000 0.786744
13962.00000 0.786043
13963.00000 0.785256
13964.00000 0.783706
13965.00000 0.783138
13966.00000 0.782532
13967.00000 0.781505
13968.00000 0.780176
13969.00000 0.779433
13970.00000 0.778628
13971.00000 0.777547
13972.00000 0.77608
13973.00000 0.774778
13974.00000 0.774009
13975.00000 0.773153
13976.00000 0.771794
13977.00000 0.770533
13978.00000 0.769129
13979.00000 0.768411
13980.00000 0.766906
13981.00000 0.765081
13982.00000 0.763573
13983.00000 0.762672
13984.00000 0.761338
13985.00000 0.758915
13986.00000 0.757547
13987.00000 0.75631
13988.00000 0.7551
13989.00000 0.752356
13990.00000 0.750934
13991.00000 0.749457
13992.00000 0.747657
13993.00000 0.745815
13994.00000 0.743994
13995.00000 0.741746
13996.00000 0.73988
13997.00000 0.738258
13998.00000 0.735158
13999.00000 0.733472
14000.00000 0.731659
14001.00000 0.729678
14002.00000 0.726516
14003.00000 0.723837
14004.00000 0.721934
14005.00000 0.719772
14006.00000 0.716742
14007.00000 0.713591
14008.00000 0.711378
14009.00000 0.708295
14010.00000 0.706945
14011.00000 0.702936
14012.00000 0.700508
14013.00000 0.698105
14014.00000 0.695469
14015.00000 0.691332
14016.00000 0.687954
14017.00000 0.685927
14018.00000 0.683023
14019.00000 0.678892
14020.00000 0.674522
14021.00000 0.671782
14022.00000 0.668662
14023.00000 0.665265
14024.00000 0.66055
14025.00000 0.657322
14026.00000 0.654562
14027.00000 0.651478
14028.00000 0.645963
14029.00000 0.641966
14030.00000 0.638825
14031.00000 0.63555
14032.00000 0.630279
14033.00000 0.624976
14034.00000 0.621319
14035.00000 0.618229
14036.00000 0.613011
14037.00000 0.606576
14038.00000 0.60281
14039.00000 0.599431
14040.00000 0.595567
14041.00000 0.58842
14042.00000 0.583009
14043.00000 0.580363
14044.00000 0.576166
14045.00000 0.570163
14046.00000 0.563533
14047.00000 0.559599
14048.00000 0.555647
14049.00000 0.550906
14050.00000 0.542441
14051.00000 0.538346
14052.00000 0.534177
14053.00000 0.529373
14054.00000 0.521574
14055.00000 0.516388
14056.00000 0.512662
14057.00000 0.508357
14058.00000 0.500592
14059.00000 0.494704
14060.00000 0.490046
14061.00000 0.485356
14062.00000 0.479575
14063.00000 0.472177
14064.00000 0.467031
14065.00000 0.463501
14066.00000 0.45864
14067.00000 0.449609
14068.00000 0.444653
14069.00000 0.440433
14070.00000 0.435594
14071.00000 0.427647
14072.00000 0.42135
14073.00000 0.417995
14074.00000 0.413424
14075.00000 0.407004
14076.00000 0.399046
14077.00000 0.394085
14078.00000 0.390125
14079.00000 0.385383
14080.00000 0.376485
14081.00000 0.371715
14082.00000 0.367433
14083.00000 0.363218
14084.00000 0.355092
14085.00000 0.349209
14086.00000 0.344623
14087.00000 0.340284
14088.00000 0.33368
14089.00000 0.325838
14090.00000 0.321537
14091.00000 0.317305
14092.00000 0.312451
14093.00000 0.303985
14094.00000 0.299743
14095.00000 0.295163
14096.00000 0.291127
14097.00000 0.283859
14098.00000 0.278708
14099.00000 0.274068
14100.00000 0.270386
14101.00000 0.263898
14102.00000 0.257901
14103.00000 0.253673
14104.00000 0.249571
14105.00000 0.244314
14106.00000 0.237572
14107.00000 0.233527
14108.00000 0.230347
14109.00000 0.226848
14110.00000 0.21973
14111.00000 0.215077
14112.00000 0.211371
14113.00000 0.207635
14114.00000 0.202953
14115.00000 0.197725
14116.00000 0.194656
14117.00000 0.191714
14118.00000 0.18739
14119.00000 0.1812
14120.00000 0.178142
14121.00000 0.175207
14122.00000 0.171471
14123.00000 0.166529
14124.00000 0.163137
14125.00000 0.160099
14126.00000 0.156765
14127.00000 0.152698
14128.00000 0.147976
14129.00000 0.145252
14130.00000 0.142518
14131.00000 0.139305
14132.00000 0.134343
14133.00000 0.131794
14134.00000 0.129556
14135.00000 0.126684
14136.00000 0.122005
14137.00000 0.119457
14138.00000 0.117268
14139.00000 0.115162
14140.00000 0.11119
14141.00000 0.108038
14142.00000 0.106077
14143.00000 0.103787
14144.00000 0.100745
14145.00000 0.097807
14146.00000 0.095853
14147.00000 0.093726
14148.00000 0.091297
14149.00000 0.088088
14150.00000 0.085985
14151.00000 0.084508
14152.00000 0.08271
14153.00000 0.079554
14154.00000 0.077329
14155.00000 0.075861
14156.00000 0.074232
14157.00000 0.072279
14158.00000 0.069285
14159.00000 0.068983
14160.00000 0.066754
14161.00000 0.065248
14162.00000 0.062716
14163.00000 0.061455
14164.00000 0.060146
14165.00000 0.058805
14166.00000 0.056903
14167.00000 0.055316
14168.00000 0.054161
14169.00000 0.052967
14170.00000 0.051376
14171.00000 0.049643
14172.00000 0.048694
14173.00000 0.047694
14174.00000 0.0464
14175.00000 0.044647
14176.00000 0.043676
14177.00000 0.042838
14178.00000 0.041719
14179.00000 0.04019
14180.00000 0.039158
14181.00000 0.038432
14182.00000 0.03753
14183.00000 0.036487
14184.00000 0.035163
14185.00000 0.034444
14186.00000 0.033742
14187.00000 0.032862
14188.00000 0.031598
14189.00000 0.030873
14190.00000 0.030239
14191.00000 0.029648
14192.00000 0.0285
14193.00000 0.027851
14194.00000 0.027314
14195.00000 0.02658
14196.00000 0.025869
14197.00000 0.025011
14198.00000 0.024551
14199.00000 0.02403
14200.00000 0.023514
14201.00000 0.022639
14202.00000 0.022173
14203.00000 0.021722
14204.00000 0.021134
14205.00000 0.020389
14206.00000 0.019945
14207.00000 0.019574
14208.00000 0.019156
14209.00000 0.018635
14210.00000 0.018042
14211.00000 0.017732
14212.00000 0.01737
14213.00000 0.016874
14214.00000 0.016406
14215.00000 0.016112
14216.00000 0.015801
14217.00000 0.015448
14218.00000 0.014981
14219.00000 0.014649
14220.00000 0.014376
14221.00000 0.014133
14222.00000 0.013615
14223.00000 0.013235
14224.00000 0.013
14225.00000 0.012772
14226.00000 0.012428
14227.00000 0.012059
14228.00000 0.011829
14229.00000 0.011544
14230.00000 0.011345
14231.00000 0.010977
14232.00000 0.010717
14233.00000 0.010582
14234.00000 0.010293
14235.00000 0.010058
14236.00000 0.0098
14237.00000 0.009615
14238.00000 0.009416
14239.00000 0.009174
14240.00000 0.008886
14241.00000 0.008727
14242.00000 0.008589
14243.00000 0.008402
14244.00000 0.008122
14245.00000 0.007993
14246.00000 0.007848
14247.00000 0.007701
14248.00000 0.007475
14249.00000 0.007274
14250.00000 0.007157
14251.00000 0.007068
14252.00000 0.006893
14253.00000 0.006669
14254.00000 0.006569
14255.00000 0.006461
14256.00000 0.006295
14257.00000 0.006128
14258.00000 0.006004
14259.00000 0.005893
14260.00000 0.005832
14261.00000 0.005645
14262.00000 0.005509
14263.00000 0.005448
14264.00000 0.00536
14265.00000 0.005198
14266.00000 0.005075
14267.00000 0.004978
14268.00000 0.004909
14269.00000 0.00482
14270.00000 0.004644
14271.00000 0.004598
14272.00000 0.004509
14273.00000 0.004444
14274.00000 0.004305
14275.00000 0.004183
14276.00000 0.00414
14277.00000 0.004063
15704.70020 0.0
