# %ECSV 0.9
# ---
# datatype:
# - {name: wavelength, unit: Angstrom, datatype: float32}
# - {name: response, datatype: float32}
# meta: !!omap
# - {band_name: UVW1}
# - {group_name: UVOT}
wavelength response
1600.00000 0.0
1610.00000 0.00249
1620.00000 0.00499
1630.00000 0.00749
1640.00000 0.00998
1650.00000 0.01247
1660.00000 0.01497
1670.00000 0.01747
1680.00000 0.01917
1690.00000 0.02041
1700.00000 0.02142
1710.00000 0.02159
1720.00000 0.02196
1730.00000 0.0233
1740.00000 0.0246
1750.00000 0.02568
1760.00000 0.02673
1770.00000 0.02736
1780.00000 0.02798
1790.00000 0.02858
1800.00000 0.02915
1810.00000 0.02988
1820.00000 0.03058
1830.00000 0.03109
1840.00000 0.03191
1850.00000 0.03271
1860.00000 0.03348
1870.00000 0.03438
1880.00000 0.03542
1890.00000 0.03787
1900.00000 0.03881
1910.00000 0.03875
1920.00000 0.03962
1930.00000 0.03999
1940.00000 0.04064
1950.00000 0.04125
1960.00000 0.04212
1970.00000 0.04309
1980.00000 0.0443
1990.00000 0.04503
2000.00000 0.04614
2010.00000 0.04677
2020.00000 0.04737
2030.00000 0.04818
2040.00000 0.04894
2050.00000 0.04965
2060.00000 0.05056
2070.00000 0.05141
2080.00000 0.05244
2090.00000 0.05352
2100.00000 0.05475
2110.00000 0.05659
2120.00000 0.05844
2130.00000 0.06061
2140.00000 0.06265
2150.00000 0.06488
2160.00000 0.06727
2170.00000 0.06981
2180.00000 0.07219
2190.00000 0.07449
2200.00000 0.07708
2210.00000 0.07916
2220.00000 0.08265
2230.00000 0.08634
2240.00000 0.09004
2250.00000 0.09525
2260.00000 0.10086
2270.00000 0.10649
2280.00000 0.1125
2290.00000 0.11863
2300.00000 0.12478
2310.00000 0.13104
2320.00000 0.13761
2330.00000 0.144
2340.00000 0.14994
2350.00000 0.15713
2360.00000 0.16454
2370.00000 0.17177
2380.00000 0.17874
2390.00000 0.18535
2400.00000 0.19188
2410.00000 0.19785
2420.00000 0.20364
2430.00000 0.20906
2440.00000 0.21401
2450.00000 0.21637
2460.00000 0.21833
2470.00000 0.21963
2480.00000 0.22083
2490.00000 0.22154
2500.00000 0.22187
2510.00000 0.2221
2520.00000 0.22203
2530.00000 0.22177
2540.00000 0.22111
2550.00000 0.22222
2560.00000 0.22269
2570.00000 0.22276
2580.00000 0.22253
2590.00000 0.2223
2600.00000 0.22178
2610.00000 0.22117
2620.00000 0.22026
2630.00000 0.21935
2640.00000 0.21815
2650.00000 0.21628
2660.00000 0.21412
2670.00000 0.21177
2680.00000 0.20981
2690.00000 0.20728
2700.00000 0.20476
2710.00000 0.20214
2720.00000 0.19944
2730.00000 0.19665
2740.00000 0.19377
2750.00000 0.19004
2760.00000 0.18603
2770.00000 0.18241
2780.00000 0.17852
2790.00000 0.17445
2800.00000 0.17049
2810.00000 0.16634
2820.00000 0.16212
2830.00000 0.1579
2840.00000 0.15351
2850.00000 0.14923
2860.00000 0.14486
2870.00000 0.14051
2880.00000 0.13645
2890.00000 0.13212
2900.00000 0.12781
2910.00000 0.12288
2920.00000 0.1173
2930.00000 0.11191
2940.00000 0.10662
2950.00000 0.10144
2960.00000 0.09644
2970.00000 0.09171
2980.00000 0.08715
2990.00000 0.08269
3000.00000 0.07841
3010.00000 0.07445
3020.00000 0.07058
3030.00000 0.06679
3040.00000 0.06331
3050.00000 0.05907
3060.00000 0.055
3070.00000 0.05133
3080.00000 0.04782
3090.00000 0.04461
3100.00000 0.04148
3110.00000 0.03864
3120.00000 0.03601
3130.00000 0.03338
3140.00000 0.03101
3150.00000 0.02949
3160.00000 0.02801
3170.00000 0.02662
3180.00000 0.02526
3190.00000 0.024
3200.00000 0.02229
3210.00000 0.02121
3220.00000 0.0201
3230.00000 0.01913
3240.00000 0.01813
3250.00000 0.01711
3260.00000 0.01611
3270.00000 0.01518
3280.00000 0.01434
3290.00000 0.01352
3300.00000 0.01267
3310.00000 0.01251
3320.00000 0.01235
3330.00000 0.01219
3340.00000 0.01203
3350.00000 0.01187
3360.00000 0.01171
3370.00000 0.01155
3380.00000 0.01139
3390.00000 0.01124
3400.00000 0.01108
3410.00000 0.01092
3420.00000 0.01077
3430.00000 0.01062
3440.00000 0.01047
3450.00000 0.01032
3460.00000 0.01017
3470.00000 0.01003
3480.00000 0.00989
3490.00000 0.00974
3500.00000 0.00961
3510.00000 0.00947
3520.00000 0.00934
3530.00000 0.00921
3540.00000 0.00908
3550.00000 0.00895
3560.00000 0.00883
3570.00000 0.00871
3580.00000 0.00859
3590.00000 0.00848
3600.00000 0.00837
3610.00000 0.00826
3620.00000 0.00816
3630.00000 0.00806
3640.00000 0.00797
3650.00000 0.00787
3660.00000 0.00778
3670.00000 0.0077
3680.00000 0.00761
3690.00000 0.00753
3700.00000 0.00745
3710.00000 0.00738
3720.00000 0.00731
3730.00000 0.00724
3740.00000 0.00717
3750.00000 0.0071
3760.00000 0.00704
3770.00000 0.00698
3780.00000 0.00692
3790.00000 0.00686
3800.00000 0.0068
3810.00000 0.00675
3820.00000 0.0067
3830.00000 0.00665
3840.00000 0.0066
3850.00000 0.00655
3860.00000 0.0065
3870.00000 0.00646
3880.00000 0.00641
3890.00000 0.00637
3900.00000 0.00633
3910.00000 0.00628
3920.00000 0.00624
3930.00000 0.0062
3940.00000 0.00616
3950.00000 0.00612
3960.00000 0.00608
3970.00000 0.00605
3980.00000 0.00601
3990.00000 0.00597
4000.00000 0.00593
4010.00000 0.00589
4020.00000 0.00585
4030.00000 0.00581
4040.00000 0.00577
4050.00000 0.00574
4060.00000 0.00569
4070.00000 0.00565
4080.00000 0.00561
4090.00000 0.00557
4100.00000 0.00553
4110.00000 0.00548
4120.00000 0.00544
4130.00000 0.00539
4140.00000 0.00534
4150.00000 0.00529
4160.00000 0.00524
4170.00000 0.00519
4180.00000 0.00514
4190.00000 0.00508
4200.00000 0.00502
4210.00000 0.00496
4220.00000 0.0049
4230.00000 0.00484
4240.00000 0.00478
4250.00000 0.00471
4260.00000 0.00464
4270.00000 0.00457
4280.00000 0.0045
4290.00000 0.00443
4300.00000 0.00436
4310.00000 0.00429
4320.00000 0.00421
4330.00000 0.00413
4340.00000 0.00406
4350.00000 0.00398
4360.00000 0.0039
4370.00000 0.00382
4380.00000 0.00374
4390.00000 0.00366
4400.00000 0.00358
4410.00000 0.0035
4420.00000 0.00342
4430.00000 0.00334
4440.00000 0.00326
4450.00000 0.00318
4460.00000 0.0031
4470.00000 0.00302
4480.00000 0.00294
4490.00000 0.00285
4500.00000 0.00277
4510.00000 0.0027
4520.00000 0.00262
4530.00000 0.00254
4540.00000 0.00246
4550.00000 0.00238
4560.00000 0.00231
4570.00000 0.00223
4580.00000 0.00216
4590.00000 0.00209
4600.00000 0.00201
4610.00000 0.00194
4620.00000 0.00187
4630.00000 0.00181
4640.00000 0.00174
4650.00000 0.00168
4660.00000 0.00161
4670.00000 0.00155
4680.00000 0.00149
4690.00000 0.00143
4700.00000 0.00138
4710.00000 0.00133
4720.00000 0.00127
4730.00000 0.00122
4740.00000 0.00118
4750.00000 0.00113
4760.00000 0.00109
4770.00000 0.00104
4780.00000 0.001
4790.00000 0.00097
4800.00000 0.00093
4810.00000 0.00089
4820.00000 0.00086
4830.00000 0.00083
4840.00000 0.0008
4850.00000 0.00077
4860.00000 0.00074
4870.00000 0.00071
4880.00000 0.00069
4890.00000 0.00067
4900.00000 0.00064
4910.00000 0.00062
4920.00000 0.0006
4930.00000 0.00058
4940.00000 0.00057
4950.00000 0.00055
4960.00000 0.00053
4970.00000 0.00052
4980.00000 0.00051
4990.00000 0.00049
5000.00000 0.00048
5010.00000 0.00047
5020.00000 0.00046
5030.00000 0.00045
5040.00000 0.00044
5050.00000 0.00043
5060.00000 0.00043
5070.00000 0.00042
5080.00000 0.00041
5090.00000 0.00041
5100.00000 0.0004
5110.00000 0.0004
5120.00000 0.00039
5130.00000 0.00039
5140.00000 0.00038
5150.00000 0.00038
5160.00000 0.00038
5170.00000 0.00037
5180.00000 0.00037
5190.00000 0.00037
5200.00000 0.00036
5210.00000 0.00036
5220.00000 0.00036
5230.00000 0.00036
5240.00000 0.00035
5250.00000 0.00035
5260.00000 0.00035
5270.00000 0.00034
5280.00000 0.00034
5290.00000 0.00034
5300.00000 0.00034
5310.00000 0.00033
5320.00000 0.00033
5330.00000 0.00033
5340.00000 0.00033
5350.00000 0.00032
5360.00000 0.00032
5370.00000 0.00032
5380.00000 0.00031
5390.00000 0.00031
5400.00000 0.00031
5410.00000 0.00031
5420.00000 0.0003
5430.00000 0.0003
5440.00000 0.0003
5450.00000 0.0003
5460.00000 0.00029
5470.00000 0.00029
5480.00000 0.00029
5490.00000 0.00029
5500.00000 0.00028
5510.00000 0.00028
5520.00000 0.00028
5530.00000 0.00028
5540.00000 0.00027
5550.00000 0.00027
5560.00000 0.00027
5570.00000 0.00027
5580.00000 0.00026
5590.00000 0.00026
5600.00000 0.00026
5610.00000 0.00026
5620.00000 0.00025
5630.00000 0.00025
5640.00000 0.00025
5650.00000 0.00025
5660.00000 0.0
