# %ECSV 0.9
# ---
# datatype:
# - {name: wavelength, unit: Angstrom, datatype: float32}
# - {name: response, datatype: float32}
# meta: !!omap
# - {band_name: H}
# - {group_name: WFCAM}
wavelength response
13005.00000 0.0
14450.00000 0.004098
14460.00000 0.004371
14470.00000 0.004667
14480.00000 0.005026
14490.00000 0.005365
14500.00000 0.00576
14510.00000 0.00621
14520.00000 0.006663
14530.00000 0.007149
14540.00000 0.007691
14550.00000 0.00831
14560.00000 0.0089
14570.00000 0.00961
14580.00000 0.010354
14590.00000 0.011198
14600.00000 0.012007
14610.00000 0.012987
14620.00000 0.014048
14630.00000 0.015162
14640.00000 0.016476
14650.00000 0.01781
14660.00000 0.019317
14670.00000 0.020922
14680.00000 0.022689
14690.00000 0.024604
14700.00000 0.026686
14710.00000 0.029161
14720.00000 0.031681
14730.00000 0.034419
14740.00000 0.037552
14750.00000 0.040865
14760.00000 0.044561
14770.00000 0.048673
14780.00000 0.053292
14790.00000 0.058011
14800.00000 0.063355
14810.00000 0.069389
14820.00000 0.075658
14830.00000 0.083019
14840.00000 0.090848
14850.00000 0.099223
14860.00000 0.108468
14870.00000 0.118662
14880.00000 0.129692
14890.00000 0.141661
14900.00000 0.155171
14910.00000 0.169134
14920.00000 0.184313
14930.00000 0.200722
14940.00000 0.218169
14950.00000 0.237174
14960.00000 0.257366
14970.00000 0.279184
14980.00000 0.300846
14990.00000 0.324288
15000.00000 0.349365
15010.00000 0.373464
15020.00000 0.400598
15030.00000 0.427633
15040.00000 0.454484
15050.00000 0.481469
15060.00000 0.508587
15070.00000 0.535593
15080.00000 0.561704
15090.00000 0.588876
15100.00000 0.613301
15110.00000 0.637209
15120.00000 0.660049
15130.00000 0.681653
15140.00000 0.702043
15150.00000 0.720753
15160.00000 0.738949
15170.00000 0.754193
15180.00000 0.768716
15190.00000 0.782134
15200.00000 0.793693
15210.00000 0.804588
15220.00000 0.813965
15230.00000 0.822181
15240.00000 0.829139
15250.00000 0.835539
15260.00000 0.841076
15270.00000 0.84575
15280.00000 0.849958
15290.00000 0.853404
15300.00000 0.856315
15310.00000 0.8588
15320.00000 0.860954
15330.00000 0.862773
15340.00000 0.864328
15350.00000 0.865726
15360.00000 0.866875
15370.00000 0.867867
15380.00000 0.868764
15390.00000 0.869615
15400.00000 0.870328
15410.00000 0.871074
15420.00000 0.871734
15430.00000 0.872326
15440.00000 0.873066
15450.00000 0.873744
15460.00000 0.874438
15470.00000 0.875083
15480.00000 0.875866
15490.00000 0.876639
15500.00000 0.877479
15510.00000 0.878224
15520.00000 0.879041
15530.00000 0.879916
15540.00000 0.880842
15550.00000 0.88173
15560.00000 0.882714
15570.00000 0.883626
15580.00000 0.884594
15590.00000 0.885708
15600.00000 0.886747
15610.00000 0.887794
15620.00000 0.888823
15630.00000 0.889914
15640.00000 0.891007
15650.00000 0.891935
15660.00000 0.893041
15670.00000 0.894076
15680.00000 0.89517
15690.00000 0.896157
15700.00000 0.897092
15710.00000 0.898114
15720.00000 0.898968
15730.00000 0.899986
15740.00000 0.900777
15750.00000 0.90166
15760.00000 0.902581
15770.00000 0.903361
15780.00000 0.904068
15790.00000 0.904868
15800.00000 0.905497
15810.00000 0.906097
15820.00000 0.906587
15830.00000 0.907227
15840.00000 0.907675
15850.00000 0.908139
15860.00000 0.908549
15870.00000 0.90887
15880.00000 0.909129
15890.00000 0.909396
15900.00000 0.909667
15910.00000 0.909744
15920.00000 0.909905
15930.00000 0.909983
15940.00000 0.909975
15950.00000 0.909961
15960.00000 0.90996
15970.00000 0.90992
15980.00000 0.909864
15990.00000 0.909741
16000.00000 0.90962
16010.00000 0.909501
16020.00000 0.909428
16030.00000 0.909301
16040.00000 0.909217
16050.00000 0.909172
16060.00000 0.909046
16070.00000 0.908981
16080.00000 0.909013
16090.00000 0.909024
16100.00000 0.909052
16110.00000 0.909196
16120.00000 0.909335
16130.00000 0.909574
16140.00000 0.909787
16150.00000 0.910163
16160.00000 0.910516
16170.00000 0.910944
16180.00000 0.911386
16190.00000 0.91196
16200.00000 0.91257
16210.00000 0.913235
16220.00000 0.913895
16230.00000 0.914684
16240.00000 0.91539
16250.00000 0.916202
16260.00000 0.917121
16270.00000 0.917829
16280.00000 0.918751
16290.00000 0.919635
16300.00000 0.920439
16310.00000 0.921218
16320.00000 0.922115
16330.00000 0.922801
16340.00000 0.923413
16350.00000 0.924139
16360.00000 0.924735
16370.00000 0.925229
16380.00000 0.925587
16390.00000 0.925912
16400.00000 0.926073
16410.00000 0.926087
16420.00000 0.926056
16430.00000 0.925843
16440.00000 0.925476
16450.00000 0.925015
16460.00000 0.924363
16470.00000 0.923578
16480.00000 0.922618
16490.00000 0.921508
16500.00000 0.920244
16510.00000 0.918893
16520.00000 0.917355
16530.00000 0.915702
16540.00000 0.913959
16550.00000 0.911869
16560.00000 0.909852
16570.00000 0.907807
16580.00000 0.905534
16590.00000 0.903198
16600.00000 0.900873
16610.00000 0.898437
16620.00000 0.896003
16630.00000 0.893504
16640.00000 0.891001
16650.00000 0.888618
16660.00000 0.886091
16670.00000 0.883657
16680.00000 0.881253
16690.00000 0.879114
16700.00000 0.876826
16710.00000 0.874678
16720.00000 0.87261
16730.00000 0.870615
16740.00000 0.868787
16750.00000 0.867109
16760.00000 0.865559
16770.00000 0.864144
16780.00000 0.862853
16790.00000 0.861806
16800.00000 0.860758
16810.00000 0.859966
16820.00000 0.859315
16830.00000 0.858729
16840.00000 0.85842
16850.00000 0.858223
16860.00000 0.858181
16870.00000 0.858237
16880.00000 0.858492
16890.00000 0.858809
16900.00000 0.859315
16910.00000 0.859849
16920.00000 0.860489
16930.00000 0.861258
16940.00000 0.862109
16950.00000 0.862974
16960.00000 0.863831
16970.00000 0.864879
16980.00000 0.865827
16990.00000 0.866864
17000.00000 0.867711
17010.00000 0.868763
17020.00000 0.869566
17030.00000 0.870393
17040.00000 0.871172
17050.00000 0.871709
17060.00000 0.872343
17070.00000 0.872723
17080.00000 0.873055
17090.00000 0.873216
17100.00000 0.873313
17110.00000 0.873139
17120.00000 0.872945
17130.00000 0.872436
17140.00000 0.871839
17150.00000 0.871097
17160.00000 0.87015
17170.00000 0.869119
17180.00000 0.867806
17190.00000 0.866421
17200.00000 0.864947
17210.00000 0.86329
17220.00000 0.861532
17230.00000 0.859717
17240.00000 0.857673
17250.00000 0.855594
17260.00000 0.85357
17270.00000 0.851347
17280.00000 0.849339
17290.00000 0.847141
17300.00000 0.844758
17310.00000 0.842525
17320.00000 0.840322
17330.00000 0.838165
17340.00000 0.836074
17350.00000 0.834
17360.00000 0.832038
17370.00000 0.829875
17380.00000 0.828147
17390.00000 0.826342
17400.00000 0.82467
17410.00000 0.823074
17420.00000 0.821546
17430.00000 0.820173
17440.00000 0.818704
17450.00000 0.817439
17460.00000 0.816367
17470.00000 0.815113
17480.00000 0.814036
17490.00000 0.813109
17500.00000 0.811992
17510.00000 0.810938
17520.00000 0.809899
17530.00000 0.808787
17540.00000 0.807555
17550.00000 0.806279
17560.00000 0.804875
17570.00000 0.803367
17580.00000 0.801538
17590.00000 0.799563
17600.00000 0.797341
17610.00000 0.794746
17620.00000 0.791873
17630.00000 0.788496
17640.00000 0.784989
17650.00000 0.78085
17660.00000 0.776286
17670.00000 0.771445
17680.00000 0.765642
17690.00000 0.759473
17700.00000 0.752959
17710.00000 0.745812
17720.00000 0.737972
17730.00000 0.729607
17740.00000 0.720755
17750.00000 0.710938
17760.00000 0.701188
17770.00000 0.690542
17780.00000 0.679522
17790.00000 0.66794
17800.00000 0.655612
17810.00000 0.643098
17820.00000 0.629825
17830.00000 0.617014
17840.00000 0.603429
17850.00000 0.589171
17860.00000 0.575465
17870.00000 0.560651
17880.00000 0.546037
17890.00000 0.531596
17900.00000 0.51709
17910.00000 0.502271
17920.00000 0.487569
17930.00000 0.472911
17940.00000 0.457648
17950.00000 0.443448
17960.00000 0.42895
17970.00000 0.414738
17980.00000 0.400843
17990.00000 0.386747
18000.00000 0.372858
18010.00000 0.358614
18020.00000 0.345573
18030.00000 0.332639
18040.00000 0.319705
18050.00000 0.307518
18060.00000 0.294675
18070.00000 0.282415
18080.00000 0.270948
18090.00000 0.25984
18100.00000 0.248794
18110.00000 0.237794
18120.00000 0.227276
18130.00000 0.216721
18140.00000 0.20711
18150.00000 0.197569
18160.00000 0.188255
18170.00000 0.179695
18180.00000 0.171253
18190.00000 0.163055
18200.00000 0.154668
18210.00000 0.146612
18220.00000 0.138943
18230.00000 0.132063
18240.00000 0.125886
18250.00000 0.119531
18260.00000 0.11333
18270.00000 0.107432
18280.00000 0.101677
18290.00000 0.096279
18300.00000 0.091154
18310.00000 0.086224
18320.00000 0.081533
18330.00000 0.077552
18340.00000 0.073625
18350.00000 0.06967
18360.00000 0.065967
18370.00000 0.062198
18380.00000 0.058751
18390.00000 0.055588
18400.00000 0.052621
18410.00000 0.049739
18420.00000 0.046931
18430.00000 0.044562
18440.00000 0.042347
18450.00000 0.040374
18460.00000 0.038417
18470.00000 0.036286
18480.00000 0.034157
18490.00000 0.032237
18500.00000 0.030697
18510.00000 0.029184
18520.00000 0.027893
18530.00000 0.026522
18540.00000 0.025163
18550.00000 0.023912
18560.00000 0.022758
18570.00000 0.021669
18580.00000 0.020685
18590.00000 0.019607
18600.00000 0.018701
18610.00000 0.017813
18620.00000 0.017046
18630.00000 0.016223
18640.00000 0.015592
18650.00000 0.01491
18660.00000 0.014314
18670.00000 0.013737
18680.00000 0.01311
18690.00000 0.012565
18700.00000 0.011971
18710.00000 0.011489
18720.00000 0.010943
18730.00000 0.010521
18740.00000 0.01008
18750.00000 0.009694
18760.00000 0.009326
18770.00000 0.008951
18780.00000 0.008613
18790.00000 0.008308
18800.00000 0.008038
18810.00000 0.007721
18820.00000 0.007483
18830.00000 0.007176
18840.00000 0.006981
18850.00000 0.006714
18860.00000 0.006473
18870.00000 0.006309
18880.00000 0.00604
18890.00000 0.005871
18900.00000 0.005651
18910.00000 0.005505
18920.00000 0.005329
18930.00000 0.005173
18940.00000 0.005019
18950.00000 0.004861
18960.00000 0.004745
18970.00000 0.004611
18980.00000 0.004432
18990.00000 0.004355
19000.00000 0.004187
19010.00000 0.004101
19020.00000 0.004039
20922.00000 0.0
