# %ECSV 0.9
# ---
# datatype:
# - {name: wavelength, unit: Angstrom, datatype: float32}
# - {name: response, datatype: float32}
# meta: !!omap
# - {band_name: R}
# - {group_name: CAMELOT}
wavelength response
4880.70020 0.0
5423.00000 0.004053
5426.00000 0.004504
5429.00000 0.005004
5432.00000 0.005575
5435.00000 0.00617
5438.00000 0.006831
5441.00000 0.007524
5444.00000 0.008326
5447.00000 0.009226
5450.00000 0.01017
5453.00000 0.011163
5456.00000 0.012334
5459.00000 0.013591
5462.00000 0.014932
5465.00000 0.01628
5468.00000 0.017848
5471.00000 0.019502
5474.00000 0.021386
5477.00000 0.023262
5480.00000 0.025288
5483.00000 0.027551
5486.00000 0.03
5489.00000 0.032597
5492.00000 0.035159
5495.00000 0.038133
5498.00000 0.041256
5501.00000 0.044607
5504.00000 0.04807
5507.00000 0.051636
5510.00000 0.055489
5513.00000 0.059752
5516.00000 0.06412
5519.00000 0.068508
5522.00000 0.073248
5525.00000 0.078345
5528.00000 0.083784
5531.00000 0.089074
5534.00000 0.094805
5537.00000 0.100762
5540.00000 0.107129
5543.00000 0.113601
5546.00000 0.120233
5549.00000 0.127139
5552.00000 0.134476
5555.00000 0.142137
5558.00000 0.149726
5561.00000 0.157433
5564.00000 0.165806
5567.00000 0.174465
5570.00000 0.183124
5573.00000 0.191557
5576.00000 0.200801
5579.00000 0.210094
5582.00000 0.21978
5585.00000 0.229287
5588.00000 0.238752
5591.00000 0.248976
5594.00000 0.259388
5597.00000 0.269896
5600.00000 0.279867
5603.00000 0.290605
5606.00000 0.30154
5609.00000 0.312582
5612.00000 0.32322
5615.00000 0.333928
5618.00000 0.345119
5621.00000 0.356493
5624.00000 0.367526
5627.00000 0.378229
5630.00000 0.389491
5633.00000 0.40065
5636.00000 0.412276
5639.00000 0.422826
5642.00000 0.433826
5645.00000 0.44504
5648.00000 0.45619
5651.00000 0.466838
5654.00000 0.477092
5657.00000 0.487778
5660.00000 0.49845
5663.00000 0.508899
5666.00000 0.518785
5669.00000 0.528955
5672.00000 0.538707
5675.00000 0.548882
5678.00000 0.558052
5681.00000 0.567157
5684.00000 0.576568
5687.00000 0.585469
5690.00000 0.594352
5693.00000 0.602578
5696.00000 0.611193
5699.00000 0.619301
5702.00000 0.627616
5705.00000 0.635274
5708.00000 0.642605
5711.00000 0.64997
5714.00000 0.657184
5717.00000 0.66405
5720.00000 0.670963
5723.00000 0.677275
5726.00000 0.683519
5729.00000 0.689746
5732.00000 0.69618
5735.00000 0.701268
5738.00000 0.706575
5741.00000 0.712348
5744.00000 0.717751
5747.00000 0.722413
5750.00000 0.727292
5753.00000 0.732165
5756.00000 0.736583
5759.00000 0.741254
5762.00000 0.745318
5765.00000 0.749352
5768.00000 0.752901
5771.00000 0.756564
5774.00000 0.760321
5777.00000 0.763684
5780.00000 0.766977
5783.00000 0.770241
5786.00000 0.773153
5789.00000 0.775734
5792.00000 0.778855
5795.00000 0.781725
5798.00000 0.783895
5801.00000 0.786378
5804.00000 0.788508
5807.00000 0.790977
5810.00000 0.793168
5813.00000 0.795161
5816.00000 0.796974
5819.00000 0.798765
5822.00000 0.80027
5825.00000 0.801775
5828.00000 0.803451
5831.00000 0.804873
5834.00000 0.806154
5837.00000 0.807965
5840.00000 0.809216
5843.00000 0.810322
5846.00000 0.81119
5849.00000 0.812453
5852.00000 0.813054
5855.00000 0.813999
5858.00000 0.81434
5861.00000 0.815227
5864.00000 0.81599
5867.00000 0.816755
5870.00000 0.81731
5873.00000 0.817846
5876.00000 0.818379
5879.00000 0.818842
5882.00000 0.819347
5885.00000 0.819505
5888.00000 0.819558
5891.00000 0.819838
5894.00000 0.819871
5897.00000 0.819997
5900.00000 0.820072
5903.00000 0.820325
5906.00000 0.820207
5909.00000 0.82055
5912.00000 0.820356
5915.00000 0.820399
5918.00000 0.820293
5921.00000 0.820406
5924.00000 0.820144
5927.00000 0.819594
5930.00000 0.819625
5933.00000 0.819185
5936.00000 0.818946
5939.00000 0.818522
5942.00000 0.8182
5945.00000 0.817683
5948.00000 0.817467
5951.00000 0.817215
5954.00000 0.817262
5957.00000 0.816711
5960.00000 0.816261
5963.00000 0.815935
5966.00000 0.815485
5969.00000 0.814942
5972.00000 0.814086
5975.00000 0.813519
5978.00000 0.812815
5981.00000 0.812429
5984.00000 0.81194
5987.00000 0.811588
5990.00000 0.810758
5993.00000 0.810567
5996.00000 0.809745
5999.00000 0.809279
6002.00000 0.808715
6005.00000 0.807454
6008.00000 0.807034
6011.00000 0.806036
6014.00000 0.805575
6017.00000 0.804763
6020.00000 0.804182
6023.00000 0.803719
6026.00000 0.802906
6029.00000 0.802088
6032.00000 0.801147
6035.00000 0.800394
6038.00000 0.799832
6041.00000 0.799195
6044.00000 0.798069
6047.00000 0.797282
6050.00000 0.795968
6053.00000 0.795248
6056.00000 0.794399
6059.00000 0.794117
6062.00000 0.792832
6065.00000 0.79193
6068.00000 0.790907
6071.00000 0.790136
6074.00000 0.789755
6077.00000 0.78901
6080.00000 0.787596
6083.00000 0.787414
6086.00000 0.786366
6089.00000 0.785738
6092.00000 0.784257
6095.00000 0.782915
6098.00000 0.78219
6101.00000 0.781482
6104.00000 0.780562
6107.00000 0.779471
6110.00000 0.778702
6113.00000 0.777868
6116.00000 0.776698
6119.00000 0.775541
6122.00000 0.77423
6125.00000 0.773491
6128.00000 0.772399
6131.00000 0.77131
6134.00000 0.770515
6137.00000 0.769424
6140.00000 0.768606
6143.00000 0.767574
6146.00000 0.766349
6149.00000 0.765416
6152.00000 0.764521
6155.00000 0.763275
6158.00000 0.762112
6161.00000 0.76061
6164.00000 0.759691
6167.00000 0.758563
6170.00000 0.757771
6173.00000 0.756649
6176.00000 0.755506
6179.00000 0.754571
6182.00000 0.753295
6185.00000 0.752272
6188.00000 0.751299
6191.00000 0.750102
6194.00000 0.748677
6197.00000 0.747558
6200.00000 0.74667
6203.00000 0.745288
6206.00000 0.74415
6209.00000 0.743218
6212.00000 0.742143
6215.00000 0.74079
6218.00000 0.739854
6221.00000 0.738748
6224.00000 0.737389
6227.00000 0.736166
6230.00000 0.735013
6233.00000 0.733667
6236.00000 0.732652
6239.00000 0.731364
6242.00000 0.730273
6245.00000 0.728812
6248.00000 0.727756
6251.00000 0.726517
6254.00000 0.725531
6257.00000 0.724324
6260.00000 0.723107
6263.00000 0.721779
6266.00000 0.720257
6269.00000 0.719067
6272.00000 0.717658
6275.00000 0.716626
6278.00000 0.715465
6281.00000 0.714198
6284.00000 0.712805
6287.00000 0.711522
6290.00000 0.710607
6293.00000 0.709272
6296.00000 0.707758
6299.00000 0.706397
6302.00000 0.705512
6305.00000 0.703909
6308.00000 0.702734
6311.00000 0.701361
6314.00000 0.700247
6317.00000 0.698632
6320.00000 0.697498
6323.00000 0.696219
6326.00000 0.695033
6329.00000 0.693746
6332.00000 0.692049
6335.00000 0.690589
6338.00000 0.68849
6341.00000 0.68759
6344.00000 0.686754
6347.00000 0.685618
6350.00000 0.684345
6353.00000 0.683204
6356.00000 0.681828
6359.00000 0.680336
6362.00000 0.679
6365.00000 0.677538
6368.00000 0.676336
6371.00000 0.674909
6374.00000 0.673774
6377.00000 0.67219
6380.00000 0.670856
6383.00000 0.669513
6386.00000 0.668452
6389.00000 0.666923
6392.00000 0.665519
6395.00000 0.664523
6398.00000 0.662923
6401.00000 0.661566
6404.00000 0.660047
6407.00000 0.659108
6410.00000 0.657662
6413.00000 0.656247
6416.00000 0.65476
6419.00000 0.653487
6422.00000 0.651827
6425.00000 0.650783
6428.00000 0.649239
6431.00000 0.647813
6434.00000 0.646592
6437.00000 0.645401
6440.00000 0.643879
6443.00000 0.642534
6446.00000 0.641141
6449.00000 0.639337
6452.00000 0.638217
6455.00000 0.636819
6458.00000 0.635494
6461.00000 0.634266
6464.00000 0.632826
6467.00000 0.631415
6470.00000 0.629851
6473.00000 0.628578
6476.00000 0.627236
6479.00000 0.625774
6482.00000 0.624147
6485.00000 0.622759
6488.00000 0.621122
6491.00000 0.620031
6494.00000 0.618682
6497.00000 0.617279
6500.00000 0.615802
6503.00000 0.614345
6506.00000 0.613039
6509.00000 0.61162
6512.00000 0.6103
6515.00000 0.608777
6518.00000 0.607348
6521.00000 0.60577
6524.00000 0.604121
6527.00000 0.602787
6530.00000 0.60143
6533.00000 0.599802
6536.00000 0.59887
6539.00000 0.597455
6542.00000 0.59597
6545.00000 0.594665
6548.00000 0.593139
6551.00000 0.59162
6554.00000 0.590002
6557.00000 0.588591
6560.00000 0.587191
6563.00000 0.585806
6566.00000 0.58437
6569.00000 0.582989
6572.00000 0.581594
6575.00000 0.580197
6578.00000 0.578724
6581.00000 0.577509
6584.00000 0.57595
6587.00000 0.574621
6590.00000 0.573204
6593.00000 0.57142
6596.00000 0.570293
6599.00000 0.568884
6602.00000 0.56746
6605.00000 0.565979
6608.00000 0.564525
6611.00000 0.56301
6614.00000 0.561612
6617.00000 0.56033
6620.00000 0.558682
6623.00000 0.557427
6626.00000 0.555967
6629.00000 0.554748
6632.00000 0.553036
6635.00000 0.551601
6638.00000 0.550029
6641.00000 0.548667
6644.00000 0.54726
6647.00000 0.545676
6650.00000 0.544354
6653.00000 0.543103
6656.00000 0.541818
6659.00000 0.540093
6662.00000 0.538764
6665.00000 0.537301
6668.00000 0.535899
6671.00000 0.534343
6674.00000 0.532905
6677.00000 0.531228
6680.00000 0.529899
6683.00000 0.528347
6686.00000 0.527143
6689.00000 0.525577
6692.00000 0.524263
6695.00000 0.522751
6698.00000 0.521307
6701.00000 0.519599
6704.00000 0.518226
6707.00000 0.51694
6710.00000 0.515288
6713.00000 0.513641
6716.00000 0.512067
6719.00000 0.510722
6722.00000 0.509051
6725.00000 0.507855
6728.00000 0.506106
6731.00000 0.504674
6734.00000 0.503378
6737.00000 0.501782
6740.00000 0.500212
6743.00000 0.498755
6746.00000 0.497184
6749.00000 0.495689
6752.00000 0.493969
6755.00000 0.492441
6758.00000 0.49105
6761.00000 0.489396
6764.00000 0.4881
6767.00000 0.486356
6770.00000 0.48478
6773.00000 0.483053
6776.00000 0.481773
6779.00000 0.479962
6782.00000 0.47839
6785.00000 0.476897
6788.00000 0.475205
6791.00000 0.473686
6794.00000 0.472121
6797.00000 0.470533
6800.00000 0.468792
6803.00000 0.467402
6806.00000 0.465579
6809.00000 0.464168
6812.00000 0.462717
6815.00000 0.46077
6818.00000 0.45948
6821.00000 0.457734
6824.00000 0.456215
6827.00000 0.45451
6830.00000 0.4531
6833.00000 0.4514
6836.00000 0.449757
6839.00000 0.448053
6842.00000 0.446722
6845.00000 0.444916
6848.00000 0.44349
6851.00000 0.441529
6854.00000 0.44022
6857.00000 0.43872
6860.00000 0.436885
6863.00000 0.435363
6866.00000 0.433606
6869.00000 0.432401
6872.00000 0.430598
6875.00000 0.429105
6878.00000 0.427249
6881.00000 0.425703
6884.00000 0.424266
6887.00000 0.422664
6890.00000 0.420836
6893.00000 0.419482
6896.00000 0.417663
6899.00000 0.416012
6902.00000 0.414508
6905.00000 0.412905
6908.00000 0.411314
6911.00000 0.409846
6914.00000 0.408276
6917.00000 0.406408
6920.00000 0.404829
6923.00000 0.403346
6926.00000 0.401626
6929.00000 0.400078
6932.00000 0.398373
6935.00000 0.397032
6938.00000 0.395228
6941.00000 0.393766
6944.00000 0.392176
6947.00000 0.390442
6950.00000 0.388978
6953.00000 0.387567
6956.00000 0.385721
6959.00000 0.384049
6962.00000 0.382584
6965.00000 0.380977
6968.00000 0.379477
6971.00000 0.377844
6974.00000 0.376289
6977.00000 0.374813
6980.00000 0.373249
6983.00000 0.371438
6986.00000 0.369979
6989.00000 0.368387
6992.00000 0.366949
6995.00000 0.365379
6998.00000 0.363564
7001.00000 0.361978
7004.00000 0.36067
7007.00000 0.359056
7010.00000 0.357328
7013.00000 0.355938
7016.00000 0.354486
7019.00000 0.352971
7022.00000 0.351461
7025.00000 0.349837
7028.00000 0.348304
7031.00000 0.346861
7034.00000 0.345328
7037.00000 0.343671
7040.00000 0.342124
7043.00000 0.340708
7046.00000 0.339299
7049.00000 0.337748
7052.00000 0.336155
7055.00000 0.334653
7058.00000 0.333257
7061.00000 0.331748
7064.00000 0.33027
7067.00000 0.328651
7070.00000 0.327192
7073.00000 0.325812
7076.00000 0.324183
7079.00000 0.322809
7082.00000 0.321343
7085.00000 0.319961
7088.00000 0.3184
7091.00000 0.317078
7094.00000 0.315713
7097.00000 0.31404
7100.00000 0.312741
7103.00000 0.311242
7106.00000 0.309682
7109.00000 0.308143
7112.00000 0.306837
7115.00000 0.305312
7118.00000 0.303925
7121.00000 0.302536
7124.00000 0.301249
7127.00000 0.299535
7130.00000 0.298209
7133.00000 0.296828
7136.00000 0.295393
7139.00000 0.29407
7142.00000 0.292688
7145.00000 0.29105
7148.00000 0.28959
7151.00000 0.288189
7154.00000 0.286838
7157.00000 0.285608
7160.00000 0.284182
7163.00000 0.282484
7166.00000 0.281516
7169.00000 0.280034
7172.00000 0.278805
7175.00000 0.277148
7178.00000 0.275742
7181.00000 0.274389
7184.00000 0.273072
7187.00000 0.271474
7190.00000 0.270318
7193.00000 0.268923
7196.00000 0.267767
7199.00000 0.266256
7202.00000 0.264927
7205.00000 0.263571
7208.00000 0.262356
7211.00000 0.260949
7214.00000 0.259413
7217.00000 0.258341
7220.00000 0.257021
7223.00000 0.25559
7226.00000 0.254371
7229.00000 0.252885
7232.00000 0.251711
7235.00000 0.250603
7238.00000 0.249095
7241.00000 0.247875
7244.00000 0.246581
7247.00000 0.245364
7250.00000 0.244232
7253.00000 0.242882
7256.00000 0.241476
7259.00000 0.240249
7262.00000 0.23898
7265.00000 0.237467
7268.00000 0.236283
7271.00000 0.235003
7274.00000 0.23389
7277.00000 0.232748
7280.00000 0.231649
7283.00000 0.229996
7286.00000 0.228991
7289.00000 0.227744
7292.00000 0.226591
7295.00000 0.225156
7298.00000 0.223942
7301.00000 0.223039
7304.00000 0.221611
7307.00000 0.220362
7310.00000 0.219408
7313.00000 0.21821
7316.00000 0.216918
7319.00000 0.215593
7322.00000 0.214388
7325.00000 0.213244
7328.00000 0.211936
7331.00000 0.21094
7334.00000 0.209746
7337.00000 0.208596
7340.00000 0.207481
7343.00000 0.206314
7346.00000 0.20518
7349.00000 0.203908
7352.00000 0.202694
7355.00000 0.201667
7358.00000 0.200366
7361.00000 0.199302
7364.00000 0.198079
7367.00000 0.196963
7370.00000 0.195886
7373.00000 0.1949
7376.00000 0.193585
7379.00000 0.192517
7382.00000 0.19143
7385.00000 0.190327
7388.00000 0.189094
7391.00000 0.187992
7394.00000 0.186994
7397.00000 0.185806
7400.00000 0.184754
7403.00000 0.183538
7406.00000 0.182375
7409.00000 0.181381
7412.00000 0.180272
7415.00000 0.179023
7418.00000 0.178035
7421.00000 0.177034
7424.00000 0.17611
7427.00000 0.174906
7430.00000 0.173709
7433.00000 0.172617
7436.00000 0.171751
7439.00000 0.170588
7442.00000 0.169569
7445.00000 0.168609
7448.00000 0.167484
7451.00000 0.166545
7454.00000 0.165457
7457.00000 0.164394
7460.00000 0.163321
7463.00000 0.162378
7466.00000 0.161367
7469.00000 0.160434
7472.00000 0.159236
7475.00000 0.158379
7478.00000 0.157419
7481.00000 0.156261
7484.00000 0.155292
7487.00000 0.154257
7490.00000 0.153344
7493.00000 0.152522
7496.00000 0.151322
7499.00000 0.150447
7502.00000 0.149434
7505.00000 0.148551
7508.00000 0.14751
7511.00000 0.146586
7514.00000 0.1456
7517.00000 0.144909
7520.00000 0.143887
7523.00000 0.142935
7526.00000 0.14189
7529.00000 0.140971
7532.00000 0.140078
7535.00000 0.139106
7538.00000 0.138141
7541.00000 0.137155
7544.00000 0.136371
7547.00000 0.135438
7550.00000 0.134512
7553.00000 0.133645
7556.00000 0.132729
7559.00000 0.131864
7562.00000 0.130959
7565.00000 0.130033
7568.00000 0.129106
7571.00000 0.128301
7574.00000 0.127421
7577.00000 0.126421
7580.00000 0.125671
7583.00000 0.124821
7586.00000 0.124043
7589.00000 0.123031
7592.00000 0.122274
7595.00000 0.121422
7598.00000 0.12048
7601.00000 0.119657
7604.00000 0.118836
7607.00000 0.118011
7610.00000 0.117219
7613.00000 0.116332
7616.00000 0.115489
7619.00000 0.114671
7622.00000 0.113827
7625.00000 0.11314
7628.00000 0.112337
7631.00000 0.111489
7634.00000 0.110583
7637.00000 0.109791
7640.00000 0.109089
7643.00000 0.10829
7646.00000 0.107512
7649.00000 0.106791
7652.00000 0.106001
7655.00000 0.105143
7658.00000 0.104429
7661.00000 0.103552
7664.00000 0.102958
7667.00000 0.102124
7670.00000 0.101454
7673.00000 0.100616
7676.00000 0.099784
7679.00000 0.099239
7682.00000 0.098498
7685.00000 0.097838
7688.00000 0.097014
7691.00000 0.096297
7694.00000 0.095632
7697.00000 0.094901
7700.00000 0.094276
7703.00000 0.093427
7706.00000 0.092828
7709.00000 0.092104
7712.00000 0.091543
7715.00000 0.090646
7718.00000 0.090072
7721.00000 0.089477
7724.00000 0.088688
7727.00000 0.088119
7730.00000 0.08735
7733.00000 0.086791
7736.00000 0.086046
7739.00000 0.085293
7742.00000 0.08475
7745.00000 0.083959
7748.00000 0.083448
7751.00000 0.082833
7754.00000 0.08212
7757.00000 0.08155
7760.00000 0.080942
7763.00000 0.080284
7766.00000 0.079713
7769.00000 0.079036
7772.00000 0.078476
7775.00000 0.077807
7778.00000 0.077161
7781.00000 0.076615
7784.00000 0.075889
7787.00000 0.075451
7790.00000 0.074798
7793.00000 0.074307
7796.00000 0.073617
7799.00000 0.073088
7802.00000 0.072503
7805.00000 0.071951
7808.00000 0.071315
7811.00000 0.070677
7814.00000 0.070223
7817.00000 0.06977
7820.00000 0.06902
7823.00000 0.068486
7826.00000 0.067975
7829.00000 0.067414
7832.00000 0.066778
7835.00000 0.066337
7838.00000 0.06586
7841.00000 0.065363
7844.00000 0.064808
7847.00000 0.064186
7850.00000 0.063597
7853.00000 0.063201
7856.00000 0.062657
7859.00000 0.062195
7862.00000 0.061664
7865.00000 0.061112
7868.00000 0.060651
7871.00000 0.060145
7874.00000 0.059629
7877.00000 0.059139
7880.00000 0.058729
7883.00000 0.058261
7886.00000 0.057744
7889.00000 0.057282
7892.00000 0.056723
7895.00000 0.056308
7898.00000 0.055907
7901.00000 0.055364
7904.00000 0.054843
7907.00000 0.054448
7910.00000 0.053996
7913.00000 0.053581
7916.00000 0.053138
7919.00000 0.052632
7922.00000 0.052228
7925.00000 0.051821
7928.00000 0.051313
7931.00000 0.050927
7934.00000 0.050461
7937.00000 0.050057
7940.00000 0.049641
7943.00000 0.049092
7946.00000 0.048757
7949.00000 0.04848
7952.00000 0.047957
7955.00000 0.047552
7958.00000 0.047211
7961.00000 0.046687
7964.00000 0.046381
7967.00000 0.045938
7970.00000 0.045527
7973.00000 0.045258
7976.00000 0.044882
7979.00000 0.044393
7982.00000 0.044048
7985.00000 0.043603
7988.00000 0.043279
7991.00000 0.042848
7994.00000 0.042543
7997.00000 0.042154
8000.00000 0.04159
8003.00000 0.041303
8006.00000 0.040798
8009.00000 0.04056
8012.00000 0.040294
8015.00000 0.039972
8018.00000 0.0396
8021.00000 0.039298
8024.00000 0.03894
8027.00000 0.038515
8030.00000 0.038382
8033.00000 0.037935
8036.00000 0.037641
8039.00000 0.037329
8042.00000 0.037
8045.00000 0.036636
8048.00000 0.036514
8051.00000 0.036115
8054.00000 0.035894
8057.00000 0.035462
8060.00000 0.035291
8063.00000 0.034935
8066.00000 0.034661
8069.00000 0.034222
8072.00000 0.033905
8075.00000 0.033826
8078.00000 0.033387
8081.00000 0.033157
8084.00000 0.032965
8087.00000 0.032567
8090.00000 0.032274
8093.00000 0.03189
8096.00000 0.031922
8099.00000 0.03146
8102.00000 0.03123
8105.00000 0.030953
8108.00000 0.030623
8111.00000 0.030219
8114.00000 0.030236
8117.00000 0.029863
8120.00000 0.029495
8123.00000 0.029294
8126.00000 0.029092
8129.00000 0.02868
8132.00000 0.028597
8135.00000 0.028236
8138.00000 0.028054
8141.00000 0.02765
8144.00000 0.027412
8147.00000 0.027466
8150.00000 0.026989
8153.00000 0.026758
8156.00000 0.02644
8159.00000 0.026334
8162.00000 0.025876
8165.00000 0.025736
8168.00000 0.025557
8171.00000 0.025384
8174.00000 0.0253
8177.00000 0.024867
8180.00000 0.024667
8183.00000 0.024437
8186.00000 0.024133
8189.00000 0.023926
8192.00000 0.023559
8195.00000 0.023498
8198.00000 0.023214
8201.00000 0.023012
8204.00000 0.022833
8207.00000 0.022558
8210.00000 0.022484
8213.00000 0.022214
8216.00000 0.021982
8219.00000 0.021742
8222.00000 0.02159
8225.00000 0.021367
8228.00000 0.021185
8231.00000 0.020924
8234.00000 0.020748
8237.00000 0.020645
8240.00000 0.020359
8243.00000 0.020123
8246.00000 0.019971
8249.00000 0.019824
8252.00000 0.019525
8255.00000 0.019392
8258.00000 0.019217
8261.00000 0.019065
8264.00000 0.018836
8267.00000 0.018627
8270.00000 0.018439
8273.00000 0.01828
8276.00000 0.018115
8279.00000 0.017833
8282.00000 0.018062
8285.00000 0.017636
8288.00000 0.017396
8291.00000 0.017262
8294.00000 0.017122
8297.00000 0.017022
8300.00000 0.016848
8303.00000 0.016743
8306.00000 0.016389
8309.00000 0.016203
8312.00000 0.016149
8315.00000 0.015985
8318.00000 0.015825
8321.00000 0.015643
8324.00000 0.015507
8327.00000 0.015368
8330.00000 0.015183
8333.00000 0.014962
8336.00000 0.015017
8339.00000 0.014777
8342.00000 0.014636
8345.00000 0.014439
8348.00000 0.014214
8351.00000 0.014402
8354.00000 0.013913
8357.00000 0.014065
8360.00000 0.013713
8363.00000 0.01361
8366.00000 0.013536
8369.00000 0.013349
8372.00000 0.013171
8375.00000 0.013206
8378.00000 0.012983
8381.00000 0.012813
8384.00000 0.012632
8387.00000 0.012549
8390.00000 0.012456
8393.00000 0.012191
8396.00000 0.012305
8399.00000 0.012281
8402.00000 0.011965
8405.00000 0.011835
8408.00000 0.011755
8411.00000 0.011602
8414.00000 0.011557
8417.00000 0.011483
8420.00000 0.011257
8423.00000 0.011155
8426.00000 0.010985
8429.00000 0.010852
8432.00000 0.010858
8435.00000 0.01059
8438.00000 0.010614
8441.00000 0.010524
8444.00000 0.01026
8447.00000 0.010343
8450.00000 0.010244
8453.00000 0.010057
8456.00000 0.009848
8459.00000 0.01007
8462.00000 0.009778
8465.00000 0.009719
8468.00000 0.009556
8471.00000 0.009532
8474.00000 0.009553
8477.00000 0.009265
8480.00000 0.009165
8483.00000 0.009157
8486.00000 0.008961
8489.00000 0.008871
8492.00000 0.008809
8495.00000 0.008843
8498.00000 0.008635
8501.00000 0.008637
8504.00000 0.008363
8507.00000 0.008386
8510.00000 0.008414
8513.00000 0.008254
8516.00000 0.008215
8519.00000 0.0081
8522.00000 0.007938
8525.00000 0.007922
8528.00000 0.007853
8531.00000 0.007754
8534.00000 0.007587
8537.00000 0.007608
8540.00000 0.007541
8543.00000 0.007449
8546.00000 0.00735
8549.00000 0.007302
8552.00000 0.007245
8555.00000 0.007167
8558.00000 0.00702
8561.00000 0.006967
8564.00000 0.006924
8567.00000 0.00686
8570.00000 0.006712
8573.00000 0.006755
8576.00000 0.006637
8579.00000 0.006578
8582.00000 0.006509
8585.00000 0.006487
8588.00000 0.00636
8591.00000 0.006208
8594.00000 0.006255
8597.00000 0.006181
8600.00000 0.006095
8603.00000 0.006046
8606.00000 0.006001
8609.00000 0.005907
8612.00000 0.00585
8615.00000 0.005828
8618.00000 0.005779
8621.00000 0.005603
8624.00000 0.005604
8627.00000 0.005712
8630.00000 0.005437
8633.00000 0.005478
8636.00000 0.005393
8639.00000 0.005337
8642.00000 0.005365
8645.00000 0.005215
8648.00000 0.005103
8651.00000 0.00518
8654.00000 0.005065
8657.00000 0.004993
8660.00000 0.004946
8663.00000 0.004923
8666.00000 0.004874
8669.00000 0.004699
8672.00000 0.004776
8675.00000 0.004707
8678.00000 0.004682
8681.00000 0.004491
8684.00000 0.004582
8687.00000 0.004574
8690.00000 0.004461
8693.00000 0.004382
8696.00000 0.00438
8699.00000 0.004365
8702.00000 0.004312
8705.00000 0.00416
8708.00000 0.004216
8711.00000 0.004081
8714.00000 0.004107
8717.00000 0.004006
8720.00000 0.004016
8723.00000 0.004008
9595.29980 0.0
