# %ECSV 0.9
# ---
# datatype:
# - {name: wavelength, unit: Angstrom, datatype: float32}
# - {name: response, datatype: float32}
# meta: !!omap
# - {band_name: sdss_i}
# - {group_name: CAMELOT}
wavelength response
5949.89990 0.0
6611.00000 0.004019
6614.00000 0.004382
6617.00000 0.004744
6620.00000 0.005156
6623.00000 0.005579
6626.00000 0.006043
6629.00000 0.006555
6632.00000 0.007106
6635.00000 0.007705
6638.00000 0.0083
6641.00000 0.00895
6644.00000 0.009672
6647.00000 0.010483
6650.00000 0.011302
6653.00000 0.012111
6656.00000 0.013063
6659.00000 0.014049
6662.00000 0.015119
6665.00000 0.016159
6668.00000 0.017304
6671.00000 0.018577
6674.00000 0.01989
6677.00000 0.021231
6680.00000 0.022557
6683.00000 0.024078
6686.00000 0.02566
6689.00000 0.027269
6692.00000 0.028882
6695.00000 0.0306
6698.00000 0.032366
6701.00000 0.03428
6704.00000 0.03617
6707.00000 0.038056
6710.00000 0.040123
6713.00000 0.042261
6716.00000 0.044457
6719.00000 0.04653
6722.00000 0.048848
6725.00000 0.051193
6728.00000 0.053683
6731.00000 0.056075
6734.00000 0.058469
6737.00000 0.061077
6740.00000 0.063853
6743.00000 0.066614
6746.00000 0.069262
6749.00000 0.072172
6752.00000 0.075151
6755.00000 0.078421
6758.00000 0.081482
6761.00000 0.08463
6764.00000 0.088051
6767.00000 0.091674
6770.00000 0.09533
6773.00000 0.098918
6776.00000 0.102678
6779.00000 0.106741
6782.00000 0.111086
6785.00000 0.115243
6788.00000 0.119457
6791.00000 0.124158
6794.00000 0.129051
6797.00000 0.13401
6800.00000 0.138912
6803.00000 0.144241
6806.00000 0.149785
6809.00000 0.155729
6812.00000 0.161481
6815.00000 0.167359
6818.00000 0.173719
6821.00000 0.18037
6824.00000 0.187119
6827.00000 0.193711
6830.00000 0.200798
6833.00000 0.208345
6836.00000 0.216021
6839.00000 0.223575
6842.00000 0.231392
6845.00000 0.23948
6848.00000 0.247954
6851.00000 0.256566
6854.00000 0.264737
6857.00000 0.273433
6860.00000 0.282495
6863.00000 0.291652
6866.00000 0.300479
6869.00000 0.309179
6872.00000 0.318624
6875.00000 0.327891
6878.00000 0.337174
6881.00000 0.346266
6884.00000 0.355206
6887.00000 0.364366
6890.00000 0.373759
6893.00000 0.382613
6896.00000 0.390833
6899.00000 0.399336
6902.00000 0.408049
6905.00000 0.416239
6908.00000 0.423746
6911.00000 0.431467
6914.00000 0.439249
6917.00000 0.446801
6920.00000 0.453931
6923.00000 0.460267
6926.00000 0.467181
6929.00000 0.473689
6932.00000 0.479967
6935.00000 0.485555
6938.00000 0.491322
6941.00000 0.497037
6944.00000 0.502547
6947.00000 0.507277
6950.00000 0.511951
6953.00000 0.516617
6956.00000 0.521313
6959.00000 0.526025
6962.00000 0.530319
6965.00000 0.534518
6968.00000 0.539336
6971.00000 0.543615
6974.00000 0.547785
6977.00000 0.552114
6980.00000 0.556358
6983.00000 0.560826
6986.00000 0.564938
6989.00000 0.569029
6992.00000 0.573296
6995.00000 0.577611
6998.00000 0.5819
7001.00000 0.586587
7004.00000 0.590768
7007.00000 0.595261
7010.00000 0.600424
7013.00000 0.605394
7016.00000 0.610078
7019.00000 0.615801
7022.00000 0.620794
7025.00000 0.626267
7028.00000 0.631571
7031.00000 0.636649
7034.00000 0.642231
7037.00000 0.647821
7040.00000 0.653616
7043.00000 0.658786
7046.00000 0.664761
7049.00000 0.670187
7052.00000 0.676505
7055.00000 0.681979
7058.00000 0.687723
7061.00000 0.693633
7064.00000 0.699806
7067.00000 0.705422
7070.00000 0.710833
7073.00000 0.716709
7076.00000 0.722291
7079.00000 0.728073
7082.00000 0.733099
7085.00000 0.738124
7088.00000 0.743297
7091.00000 0.748517
7094.00000 0.75329
7097.00000 0.758063
7100.00000 0.76239
7103.00000 0.766694
7106.00000 0.770991
7109.00000 0.775034
7112.00000 0.778342
7115.00000 0.782197
7118.00000 0.785174
7121.00000 0.788248
7124.00000 0.791289
7127.00000 0.794203
7130.00000 0.796677
7133.00000 0.799039
7136.00000 0.801429
7139.00000 0.802807
7142.00000 0.804655
7145.00000 0.806289
7148.00000 0.807625
7151.00000 0.808513
7154.00000 0.809533
7157.00000 0.810591
7160.00000 0.811628
7163.00000 0.812761
7166.00000 0.813011
7169.00000 0.813211
7172.00000 0.814033
7175.00000 0.814397
7178.00000 0.814942
7181.00000 0.815265
7184.00000 0.816027
7187.00000 0.816177
7190.00000 0.816432
7193.00000 0.816466
7196.00000 0.816791
7199.00000 0.816918
7202.00000 0.817436
7205.00000 0.817559
7208.00000 0.818084
7211.00000 0.818223
7214.00000 0.819112
7217.00000 0.819342
7220.00000 0.820006
7223.00000 0.820552
7226.00000 0.821798
7229.00000 0.822377
7232.00000 0.823431
7235.00000 0.824131
7238.00000 0.825376
7241.00000 0.825926
7244.00000 0.826749
7247.00000 0.827687
7250.00000 0.829011
7253.00000 0.829798
7256.00000 0.830815
7259.00000 0.832412
7262.00000 0.833474
7265.00000 0.835159
7268.00000 0.836364
7271.00000 0.837746
7274.00000 0.839404
7277.00000 0.840526
7280.00000 0.841835
7283.00000 0.843555
7286.00000 0.844288
7289.00000 0.845498
7292.00000 0.847088
7295.00000 0.847859
7298.00000 0.84951
7301.00000 0.850862
7304.00000 0.851822
7307.00000 0.853074
7310.00000 0.854567
7313.00000 0.855503
7316.00000 0.857169
7319.00000 0.858354
7322.00000 0.859322
7325.00000 0.860303
7328.00000 0.861515
7331.00000 0.86273
7334.00000 0.86344
7337.00000 0.864086
7340.00000 0.864975
7343.00000 0.866463
7346.00000 0.867229
7349.00000 0.867807
7352.00000 0.869622
7355.00000 0.870641
7358.00000 0.871095
7361.00000 0.872239
7364.00000 0.873135
7367.00000 0.87392
7370.00000 0.875072
7373.00000 0.87558
7376.00000 0.876466
7379.00000 0.877536
7382.00000 0.878426
7385.00000 0.879346
7388.00000 0.880487
7391.00000 0.881483
7394.00000 0.882261
7397.00000 0.883248
7400.00000 0.884027
7403.00000 0.884927
7406.00000 0.885764
7409.00000 0.887559
7412.00000 0.888196
7415.00000 0.889207
7418.00000 0.889951
7421.00000 0.890853
7424.00000 0.891567
7427.00000 0.892977
7430.00000 0.894419
7433.00000 0.894743
7436.00000 0.896141
7439.00000 0.897079
7442.00000 0.898315
7445.00000 0.899296
7448.00000 0.899906
7451.00000 0.900351
7454.00000 0.901622
7457.00000 0.902462
7460.00000 0.903166
7463.00000 0.904099
7466.00000 0.905344
7469.00000 0.906158
7472.00000 0.90665
7475.00000 0.907197
7478.00000 0.90832
7481.00000 0.908859
7484.00000 0.909096
7487.00000 0.9095
7490.00000 0.910238
7493.00000 0.910879
7496.00000 0.910803
7499.00000 0.911299
7502.00000 0.911709
7505.00000 0.91175
7508.00000 0.911943
7511.00000 0.912664
7514.00000 0.913065
7517.00000 0.913372
7520.00000 0.913634
7523.00000 0.913471
7526.00000 0.913579
7529.00000 0.913279
7532.00000 0.913945
7535.00000 0.913952
7538.00000 0.913889
7541.00000 0.913421
7544.00000 0.913569
7547.00000 0.913192
7550.00000 0.913561
7553.00000 0.913261
7556.00000 0.913829
7559.00000 0.913301
7562.00000 0.913623
7565.00000 0.913585
7568.00000 0.913659
7571.00000 0.913932
7574.00000 0.914429
7577.00000 0.913949
7580.00000 0.913797
7583.00000 0.913896
7586.00000 0.913883
7589.00000 0.913874
7592.00000 0.914199
7595.00000 0.91501
7598.00000 0.914666
7601.00000 0.915049
7604.00000 0.915025
7607.00000 0.915472
7610.00000 0.915813
7613.00000 0.917001
7616.00000 0.91687
7619.00000 0.917301
7622.00000 0.917872
7625.00000 0.91718
7628.00000 0.917846
7631.00000 0.917723
7634.00000 0.918355
7637.00000 0.918868
7640.00000 0.919453
7643.00000 0.919445
7646.00000 0.92032
7649.00000 0.920678
7652.00000 0.921207
7655.00000 0.92113
7658.00000 0.921673
7661.00000 0.922019
7664.00000 0.922303
7667.00000 0.921963
7670.00000 0.922709
7673.00000 0.922104
7676.00000 0.922557
7679.00000 0.922367
7682.00000 0.922503
7685.00000 0.9223
7688.00000 0.92324
7691.00000 0.922636
7694.00000 0.922921
7697.00000 0.923177
7700.00000 0.922796
7703.00000 0.922799
7706.00000 0.922493
7709.00000 0.922045
7712.00000 0.92108
7715.00000 0.921272
7718.00000 0.920966
7721.00000 0.920195
7724.00000 0.920179
7727.00000 0.92
7730.00000 0.919298
7733.00000 0.918404
7736.00000 0.918543
7739.00000 0.917748
7742.00000 0.917293
7745.00000 0.916729
7748.00000 0.916567
7751.00000 0.91518
7754.00000 0.914269
7757.00000 0.913954
7760.00000 0.913644
7763.00000 0.913377
7766.00000 0.913106
7769.00000 0.912589
7772.00000 0.911201
7775.00000 0.911486
7778.00000 0.910258
7781.00000 0.910875
7784.00000 0.910009
7787.00000 0.909813
7790.00000 0.90854
7793.00000 0.907838
7796.00000 0.907732
7799.00000 0.907371
7802.00000 0.906652
7805.00000 0.907262
7808.00000 0.906557
7811.00000 0.906148
7814.00000 0.906423
7817.00000 0.905638
7820.00000 0.905339
7823.00000 0.904946
7826.00000 0.904957
7829.00000 0.904831
7832.00000 0.904274
7835.00000 0.904364
7838.00000 0.903065
7841.00000 0.903622
7844.00000 0.904272
7847.00000 0.903774
7850.00000 0.904239
7853.00000 0.904435
7856.00000 0.904041
7859.00000 0.904007
7862.00000 0.904152
7865.00000 0.903732
7868.00000 0.903528
7871.00000 0.903435
7874.00000 0.903178
7877.00000 0.903704
7880.00000 0.902755
7883.00000 0.902687
7886.00000 0.902748
7889.00000 0.90361
7892.00000 0.903412
7895.00000 0.90349
7898.00000 0.903176
7901.00000 0.903708
7904.00000 0.903141
7907.00000 0.903975
7910.00000 0.903731
7913.00000 0.904151
7916.00000 0.903133
7919.00000 0.90373
7922.00000 0.90413
7925.00000 0.903637
7928.00000 0.903635
7931.00000 0.90405
7934.00000 0.903932
7937.00000 0.904973
7940.00000 0.904979
7943.00000 0.905243
7946.00000 0.905773
7949.00000 0.905812
7952.00000 0.905933
7955.00000 0.906596
7958.00000 0.906809
7961.00000 0.907113
7964.00000 0.907313
7967.00000 0.90755
7970.00000 0.908162
7973.00000 0.90886
7976.00000 0.909616
7979.00000 0.910072
7982.00000 0.910276
7985.00000 0.911412
7988.00000 0.911145
7991.00000 0.911962
7994.00000 0.912521
7997.00000 0.913988
8000.00000 0.90604
8003.00000 0.905816
8006.00000 0.905966
8009.00000 0.905918
8012.00000 0.905952
8015.00000 0.905576
8018.00000 0.905531
8021.00000 0.905267
8024.00000 0.905381
8027.00000 0.905003
8030.00000 0.905005
8033.00000 0.905006
8036.00000 0.904672
8039.00000 0.904316
8042.00000 0.90452
8045.00000 0.904091
8048.00000 0.903962
8051.00000 0.903953
8054.00000 0.903384
8057.00000 0.903273
8060.00000 0.903077
8063.00000 0.90326
8066.00000 0.90279
8069.00000 0.902594
8072.00000 0.902286
8075.00000 0.902225
8078.00000 0.902295
8081.00000 0.902021
8084.00000 0.901845
8087.00000 0.901534
8090.00000 0.901406
8093.00000 0.901324
8096.00000 0.901206
8099.00000 0.900885
8102.00000 0.900852
8105.00000 0.900541
8108.00000 0.900568
8111.00000 0.900572
8114.00000 0.899993
8117.00000 0.899902
8120.00000 0.900031
8123.00000 0.899741
8126.00000 0.899843
8129.00000 0.899712
8132.00000 0.899459
8135.00000 0.899543
8138.00000 0.899328
8141.00000 0.899299
8144.00000 0.898977
8147.00000 0.899113
8150.00000 0.899148
8153.00000 0.899288
8156.00000 0.899114
8159.00000 0.899417
8162.00000 0.899333
8165.00000 0.899387
8168.00000 0.899393
8171.00000 0.89975
8174.00000 0.899484
8177.00000 0.899441
8180.00000 0.899561
8183.00000 0.899582
8186.00000 0.90012
8189.00000 0.899396
8192.00000 0.899885
8195.00000 0.900266
8198.00000 0.900651
8201.00000 0.900406
8204.00000 0.90122
8207.00000 0.901464
8210.00000 0.901645
8213.00000 0.901795
8216.00000 0.902248
8219.00000 0.902425
8222.00000 0.902826
8225.00000 0.902913
8228.00000 0.902916
8231.00000 0.903148
8234.00000 0.903293
8237.00000 0.903666
8240.00000 0.903978
8243.00000 0.904169
8246.00000 0.903881
8249.00000 0.904771
8252.00000 0.905071
8255.00000 0.905502
8258.00000 0.905739
8261.00000 0.9054
8264.00000 0.905703
8267.00000 0.905902
8270.00000 0.906387
8273.00000 0.906504
8276.00000 0.906672
8279.00000 0.906454
8282.00000 0.906846
8285.00000 0.906862
8288.00000 0.907282
8291.00000 0.907294
8294.00000 0.907467
8297.00000 0.90818
8300.00000 0.907959
8303.00000 0.907607
8306.00000 0.907761
8309.00000 0.907679
8312.00000 0.907383
8315.00000 0.907013
8318.00000 0.906198
8321.00000 0.906208
8324.00000 0.904815
8327.00000 0.904094
8330.00000 0.903129
8333.00000 0.902311
8336.00000 0.900639
8339.00000 0.898836
8342.00000 0.896646
8345.00000 0.895817
8348.00000 0.891055
8351.00000 0.889058
8354.00000 0.887204
8357.00000 0.883745
8360.00000 0.880482
8363.00000 0.875802
8366.00000 0.87378
8369.00000 0.86922
8372.00000 0.86404
8375.00000 0.859372
8378.00000 0.855199
8381.00000 0.849311
8384.00000 0.845722
8387.00000 0.839499
8390.00000 0.830527
8393.00000 0.826235
8396.00000 0.820249
8399.00000 0.812603
8402.00000 0.805071
8405.00000 0.797015
8408.00000 0.790763
8411.00000 0.78225
8414.00000 0.774537
8417.00000 0.766119
8420.00000 0.757322
8423.00000 0.748494
8426.00000 0.736497
8429.00000 0.729317
8432.00000 0.720953
8435.00000 0.705782
8438.00000 0.698836
8441.00000 0.68815
8444.00000 0.676052
8447.00000 0.663633
8450.00000 0.652729
8453.00000 0.641182
8456.00000 0.628533
8459.00000 0.616167
8462.00000 0.603696
8465.00000 0.589435
8468.00000 0.573718
8471.00000 0.560653
8474.00000 0.547576
8477.00000 0.532621
8480.00000 0.516125
8483.00000 0.502404
8486.00000 0.485916
8489.00000 0.46998
8492.00000 0.45683
8495.00000 0.439968
8498.00000 0.423657
8501.00000 0.408542
8504.00000 0.392698
8507.00000 0.377032
8510.00000 0.36256
8513.00000 0.348197
8516.00000 0.332184
8519.00000 0.316357
8522.00000 0.303188
8525.00000 0.287754
8528.00000 0.273106
8531.00000 0.260478
8534.00000 0.247176
8537.00000 0.232414
8540.00000 0.219677
8543.00000 0.207029
8546.00000 0.194291
8549.00000 0.182765
8552.00000 0.172541
8555.00000 0.159579
8558.00000 0.148
8561.00000 0.138387
8564.00000 0.127823
8567.00000 0.119503
8570.00000 0.108408
8573.00000 0.098865
8576.00000 0.091715
8579.00000 0.083015
8582.00000 0.074815
8585.00000 0.06749
8588.00000 0.060642
8591.00000 0.054428
8594.00000 0.047314
8597.00000 0.04178
8600.00000 0.037773
8603.00000 0.03233
8606.00000 0.028093
8609.00000 0.024163
8612.00000 0.020221
8615.00000 0.017421
8618.00000 0.014951
8621.00000 0.013391
8624.00000 0.010497
8627.00000 0.008823
8630.00000 0.007687
8633.00000 0.006827
8636.00000 0.005432
8639.00000 0.00478
9502.90039 0.0
