# %ECSV 0.9
# ---
# datatype:
# - {name: wavelength, unit: Angstrom, datatype: float32}
# - {name: response, datatype: float32}
# meta: !!omap
# - {band_name: IZ2}
# - {group_name: CAMELOT}
wavelength response
6309.00000 0.0
7010.00000 0.004097
7020.00000 0.00575
7030.00000 0.007696
7040.00000 0.01056
7050.00000 0.013779
7060.00000 0.018153
7070.00000 0.0232
7080.00000 0.029389
7090.00000 0.036693
7100.00000 0.045048
7110.00000 0.054997
7120.00000 0.066011
7130.00000 0.078243
7140.00000 0.091965
7150.00000 0.106967
7160.00000 0.122994
7170.00000 0.140243
7180.00000 0.158956
7190.00000 0.178487
7200.00000 0.199148
7210.00000 0.220146
7220.00000 0.242203
7230.00000 0.264626
7240.00000 0.287697
7250.00000 0.310498
7260.00000 0.334125
7270.00000 0.357454
7280.00000 0.380319
7290.00000 0.403416
7300.00000 0.425713
7310.00000 0.447929
7320.00000 0.469477
7330.00000 0.491107
7340.00000 0.511374
7350.00000 0.531267
7360.00000 0.550259
7370.00000 0.569012
7380.00000 0.586322
7390.00000 0.603595
7400.00000 0.619946
7410.00000 0.634957
7420.00000 0.649117
7430.00000 0.663253
7440.00000 0.676487
7450.00000 0.688067
7460.00000 0.700084
7470.00000 0.710085
7480.00000 0.720905
7490.00000 0.730287
7500.00000 0.738844
7510.00000 0.747148
7520.00000 0.75468
7530.00000 0.761769
7540.00000 0.768632
7550.00000 0.774479
7560.00000 0.78095
7570.00000 0.786549
7580.00000 0.790955
7590.00000 0.795932
7600.00000 0.799635
7610.00000 0.804396
7620.00000 0.807685
7630.00000 0.811112
7640.00000 0.814283
7650.00000 0.816905
7660.00000 0.819954
7670.00000 0.821548
7680.00000 0.824003
7690.00000 0.826789
7700.00000 0.827978
7710.00000 0.830155
7720.00000 0.831604
7730.00000 0.833007
7740.00000 0.834468
7750.00000 0.835777
7760.00000 0.83701
7770.00000 0.837585
7780.00000 0.83851
7790.00000 0.83944
7800.00000 0.840165
7810.00000 0.841387
7820.00000 0.840887
7830.00000 0.84182
7840.00000 0.842185
7850.00000 0.842828
7860.00000 0.842891
7870.00000 0.843506
7880.00000 0.844105
7890.00000 0.844135
7900.00000 0.844427
7910.00000 0.844261
7920.00000 0.844519
7930.00000 0.844641
7940.00000 0.844323
7950.00000 0.843422
7960.00000 0.845296
7970.00000 0.845575
7980.00000 0.845405
7990.00000 0.839373
8000.00000 0.838771
8010.00000 0.83869
8020.00000 0.838392
8030.00000 0.838296
8040.00000 0.837761
8050.00000 0.838015
8060.00000 0.837385
8070.00000 0.83642
8080.00000 0.83674
8090.00000 0.835997
8100.00000 0.836418
8110.00000 0.835155
8120.00000 0.835235
8130.00000 0.834626
8140.00000 0.83451
8150.00000 0.833736
8160.00000 0.833951
8170.00000 0.833149
8180.00000 0.832834
8190.00000 0.83191
8200.00000 0.831925
8210.00000 0.83176
8220.00000 0.830598
8230.00000 0.830321
8240.00000 0.829269
8250.00000 0.829062
8260.00000 0.828427
8270.00000 0.828681
8280.00000 0.827522
8290.00000 0.827206
8300.00000 0.826548
8310.00000 0.825841
8320.00000 0.825006
8330.00000 0.824706
8340.00000 0.82389
8350.00000 0.823091
8360.00000 0.822456
8370.00000 0.822071
8380.00000 0.821308
8390.00000 0.820617
8400.00000 0.819559
8410.00000 0.818839
8420.00000 0.818615
8430.00000 0.817519
8440.00000 0.817141
8450.00000 0.815825
8460.00000 0.815246
8470.00000 0.814523
8480.00000 0.813645
8490.00000 0.812946
8500.00000 0.812154
8510.00000 0.811529
8520.00000 0.810642
8530.00000 0.809625
8540.00000 0.808743
8550.00000 0.807879
8560.00000 0.807094
8570.00000 0.806155
8580.00000 0.80583
8590.00000 0.804635
8600.00000 0.803616
8610.00000 0.803184
8620.00000 0.801828
8630.00000 0.801254
8640.00000 0.799744
8650.00000 0.799016
8660.00000 0.798413
8670.00000 0.796824
8680.00000 0.795989
8690.00000 0.794693
8700.00000 0.7942
8710.00000 0.792953
8720.00000 0.791967
8730.00000 0.790857
8740.00000 0.789981
8750.00000 0.788739
8760.00000 0.787579
8770.00000 0.786507
8780.00000 0.785689
8790.00000 0.784456
8800.00000 0.783016
8810.00000 0.782367
8820.00000 0.780917
8830.00000 0.780035
8840.00000 0.778677
8850.00000 0.777458
8860.00000 0.776265
8870.00000 0.775267
8880.00000 0.77395
8890.00000 0.772963
8900.00000 0.771026
8910.00000 0.770537
8920.00000 0.768966
8930.00000 0.767555
8940.00000 0.766437
8950.00000 0.764921
8960.00000 0.763857
8970.00000 0.762238
8980.00000 0.761404
8990.00000 0.75996
9000.00000 0.758809
9010.00000 0.757104
9020.00000 0.756171
9030.00000 0.754436
9040.00000 0.753669
9050.00000 0.751646
9060.00000 0.750404
9070.00000 0.749186
9080.00000 0.747468
9090.00000 0.746156
9100.00000 0.744873
9110.00000 0.743361
9120.00000 0.741604
9130.00000 0.740227
9140.00000 0.738477
9150.00000 0.737368
9160.00000 0.735504
9170.00000 0.734418
9180.00000 0.732331
9190.00000 0.731164
9200.00000 0.729166
9210.00000 0.727916
9220.00000 0.726234
9230.00000 0.724783
9240.00000 0.722882
9250.00000 0.721345
9260.00000 0.719907
9270.00000 0.717908
9280.00000 0.716402
9290.00000 0.714238
9300.00000 0.712948
9310.00000 0.710814
9320.00000 0.709224
9330.00000 0.707309
9340.00000 0.706034
9350.00000 0.703754
9360.00000 0.702419
9370.00000 0.699925
9380.00000 0.698355
9390.00000 0.69586
9400.00000 0.694642
9410.00000 0.692613
9420.00000 0.690486
9430.00000 0.688625
9440.00000 0.686667
9450.00000 0.684803
9460.00000 0.682424
9470.00000 0.680713
9480.00000 0.678367
9490.00000 0.676244
9500.00000 0.673881
9510.00000 0.672384
9520.00000 0.669707
9530.00000 0.667505
9540.00000 0.66517
9550.00000 0.663577
9560.00000 0.660521
9570.00000 0.658359
9580.00000 0.655992
9590.00000 0.653241
9600.00000 0.651514
9610.00000 0.649054
9620.00000 0.646735
9630.00000 0.643603
9640.00000 0.641725
9650.00000 0.638708
9660.00000 0.636585
9670.00000 0.633639
9680.00000 0.631657
9690.00000 0.628328
9700.00000 0.626042
9710.00000 0.622953
9720.00000 0.620381
9730.00000 0.617737
9740.00000 0.615139
9750.00000 0.61219
9760.00000 0.609757
9770.00000 0.606577
9780.00000 0.60349
9790.00000 0.60129
9800.00000 0.597756
9810.00000 0.595132
9820.00000 0.591898
9830.00000 0.589309
9840.00000 0.585577
9850.00000 0.583195
9860.00000 0.57966
9870.00000 0.576687
9880.00000 0.573477
9890.00000 0.570289
9900.00000 0.566901
9910.00000 0.56357
9920.00000 0.560393
9930.00000 0.556952
9940.00000 0.553805
9950.00000 0.550351
9960.00000 0.547131
9970.00000 0.543315
9980.00000 0.540183
9990.00000 0.536535
10000.00000 0.533049
10010.00000 0.529433
10020.00000 0.526375
10030.00000 0.522079
10040.00000 0.518844
10050.00000 0.514949
10060.00000 0.511398
10070.00000 0.507668
10080.00000 0.503921
10090.00000 0.500248
10100.00000 0.496112
10110.00000 0.492686
10120.00000 0.488799
10130.00000 0.484809
10140.00000 0.481053
10150.00000 0.477298
10160.00000 0.472992
10170.00000 0.469432
10180.00000 0.465134
10190.00000 0.460965
10200.00000 0.457403
10210.00000 0.453303
10220.00000 0.449127
10230.00000 0.445138
10240.00000 0.440824
10250.00000 0.436667
10260.00000 0.43279
10270.00000 0.428485
10280.00000 0.42457
10290.00000 0.419913
10300.00000 0.416105
10310.00000 0.411728
10320.00000 0.407346
10330.00000 0.403109
10340.00000 0.398855
10350.00000 0.394317
10360.00000 0.390465
10370.00000 0.385982
10380.00000 0.381419
10390.00000 0.377219
10400.00000 0.372972
10410.00000 0.368334
10420.00000 0.363932
10430.00000 0.359524
10440.00000 0.355026
10450.00000 0.350836
10460.00000 0.346437
10470.00000 0.341912
10480.00000 0.33725
10490.00000 0.333175
10500.00000 0.328533
10510.00000 0.32398
10520.00000 0.319713
10530.00000 0.315204
10540.00000 0.31058
10550.00000 0.306583
10560.00000 0.302064
10570.00000 0.29755
10580.00000 0.293433
10590.00000 0.28909
10600.00000 0.284569
10610.00000 0.280421
10620.00000 0.275999
10630.00000 0.271598
10640.00000 0.267334
10650.00000 0.263274
10660.00000 0.258819
10670.00000 0.254774
10680.00000 0.250546
10690.00000 0.246096
10700.00000 0.242029
10710.00000 0.238097
10720.00000 0.233871
10730.00000 0.229558
10740.00000 0.225751
10750.00000 0.221735
10760.00000 0.217526
10770.00000 0.213734
10780.00000 0.209818
10790.00000 0.205754
10800.00000 0.202128
10810.00000 0.198272
10820.00000 0.194267
10830.00000 0.190563
10840.00000 0.186967
10850.00000 0.183106
10860.00000 0.179349
10870.00000 0.175892
10880.00000 0.172352
10890.00000 0.168698
10900.00000 0.165293
10910.00000 0.161826
10920.00000 0.15836
10930.00000 0.155018
10940.00000 0.151726
10950.00000 0.148394
10960.00000 0.145152
10970.00000 0.14195
10980.00000 0.138694
10990.00000 0.135652
11000.00000 0.132068
12100.00000 0.0
