# %ECSV 0.9
# ---
# datatype:
# - {name: wavelength, unit: Angstrom, datatype: float32}
# - {name: response, datatype: float32}
# meta: !!omap
# - {band_name: R}
# - {group_name: TCP}
wavelength response
4959.00000 0.0
5510.00000 0.004375
5515.00000 0.005365
5520.00000 0.006538
5525.00000 0.00802
5530.00000 0.009648
5535.00000 0.01165
5540.00000 0.014072
5545.00000 0.016708
5550.00000 0.01988
5555.00000 0.023634
5560.00000 0.027652
5565.00000 0.032482
5570.00000 0.03773
5575.00000 0.043746
5580.00000 0.050518
5585.00000 0.057629
5590.00000 0.065792
5595.00000 0.074884
5600.00000 0.084066
5605.00000 0.094704
5610.00000 0.105734
5615.00000 0.11736
5620.00000 0.130376
5625.00000 0.143373
5630.00000 0.157543
5635.00000 0.172469
5640.00000 0.186945
5645.00000 0.202869
5650.00000 0.219214
5655.00000 0.23566
5660.00000 0.253173
5665.00000 0.269766
5670.00000 0.287695
5675.00000 0.305816
5680.00000 0.322954
5685.00000 0.341569
5690.00000 0.3602
5695.00000 0.376457
5700.00000 0.394666
5705.00000 0.41201
5710.00000 0.429054
5715.00000 0.447006
5720.00000 0.463067
5725.00000 0.479267
5730.00000 0.495421
5735.00000 0.510449
5740.00000 0.525901
5745.00000 0.540281
5750.00000 0.554096
5755.00000 0.568142
5760.00000 0.581047
5765.00000 0.593368
5770.00000 0.605787
5775.00000 0.617135
5780.00000 0.62854
5785.00000 0.638668
5790.00000 0.648965
5795.00000 0.658539
5800.00000 0.667666
5805.00000 0.67596
5810.00000 0.684471
5815.00000 0.692239
5820.00000 0.69935
5825.00000 0.706434
5830.00000 0.712832
5835.00000 0.718898
5840.00000 0.724074
5845.00000 0.72975
5850.00000 0.734613
5855.00000 0.739236
5860.00000 0.743815
5865.00000 0.748283
5870.00000 0.751793
5875.00000 0.755273
5880.00000 0.758679
5885.00000 0.761544
5890.00000 0.764395
5895.00000 0.766903
5900.00000 0.769199
5905.00000 0.770973
5910.00000 0.773139
5915.00000 0.774554
5920.00000 0.776565
5925.00000 0.777587
5930.00000 0.778558
5935.00000 0.780122
5940.00000 0.781026
5945.00000 0.782044
5950.00000 0.782512
5955.00000 0.782917
5960.00000 0.783356
5965.00000 0.783839
5970.00000 0.784138
5975.00000 0.784534
5980.00000 0.784291
5985.00000 0.784272
5990.00000 0.784286
5995.00000 0.78412
6000.00000 0.78385
6005.00000 0.783594
6010.00000 0.782972
6015.00000 0.782753
6020.00000 0.782672
6025.00000 0.781579
6030.00000 0.781198
6035.00000 0.78068
6040.00000 0.779707
6045.00000 0.779234
6050.00000 0.777942
6055.00000 0.777293
6060.00000 0.776859
6065.00000 0.775591
6070.00000 0.774626
6075.00000 0.7737
6080.00000 0.772974
6085.00000 0.771391
6090.00000 0.770239
6095.00000 0.769196
6100.00000 0.768165
6105.00000 0.76675
6110.00000 0.765439
6115.00000 0.764557
6120.00000 0.762751
6125.00000 0.761965
6130.00000 0.760256
6135.00000 0.758947
6140.00000 0.75715
6145.00000 0.756158
6150.00000 0.754548
6155.00000 0.752841
6160.00000 0.751154
6165.00000 0.750497
6170.00000 0.748133
6175.00000 0.746562
6180.00000 0.744808
6185.00000 0.743256
6190.00000 0.741517
6195.00000 0.739518
6200.00000 0.73856
6205.00000 0.736918
6210.00000 0.734691
6215.00000 0.733111
6220.00000 0.73125
6225.00000 0.729277
6230.00000 0.727312
6235.00000 0.725689
6240.00000 0.723496
6245.00000 0.721791
6250.00000 0.720247
6255.00000 0.718106
6260.00000 0.716546
6265.00000 0.714384
6270.00000 0.712165
6275.00000 0.710118
6280.00000 0.708064
6285.00000 0.706292
6290.00000 0.704039
6295.00000 0.702234
6300.00000 0.699968
6305.00000 0.698182
6310.00000 0.69573
6315.00000 0.693675
6320.00000 0.691713
6325.00000 0.689446
6330.00000 0.687442
6335.00000 0.685284
6340.00000 0.68298
6345.00000 0.680852
6350.00000 0.678524
6355.00000 0.676266
6360.00000 0.67439
6365.00000 0.672173
6370.00000 0.669965
6375.00000 0.667556
6380.00000 0.66535
6385.00000 0.663019
6390.00000 0.661018
6395.00000 0.658919
6400.00000 0.656464
6405.00000 0.654386
6410.00000 0.652023
6415.00000 0.649815
6420.00000 0.647307
6425.00000 0.645239
6430.00000 0.642948
6435.00000 0.640554
6440.00000 0.638179
6445.00000 0.635892
6450.00000 0.633317
6455.00000 0.631055
6460.00000 0.62833
6465.00000 0.62666
6470.00000 0.623859
6475.00000 0.621746
6480.00000 0.619077
6485.00000 0.616687
6490.00000 0.614568
6495.00000 0.61198
6500.00000 0.609776
6505.00000 0.607312
6510.00000 0.604603
6515.00000 0.602299
6520.00000 0.59969
6525.00000 0.597567
6530.00000 0.594647
6535.00000 0.592554
6540.00000 0.5898
6545.00000 0.587817
6550.00000 0.58509
6555.00000 0.582483
6560.00000 0.580325
6565.00000 0.577683
6570.00000 0.575322
6575.00000 0.572866
6580.00000 0.570486
6585.00000 0.568144
6590.00000 0.565311
6595.00000 0.563336
6600.00000 0.560994
6605.00000 0.558291
6610.00000 0.555713
6615.00000 0.553523
6620.00000 0.550886
6625.00000 0.548515
6630.00000 0.545874
6635.00000 0.54336
6640.00000 0.54106
6645.00000 0.538737
6650.00000 0.536034
6655.00000 0.533782
6660.00000 0.531154
6665.00000 0.528667
6670.00000 0.52627
6675.00000 0.523698
6680.00000 0.521106
6685.00000 0.518757
6690.00000 0.516097
6695.00000 0.513753
6700.00000 0.511082
6705.00000 0.508641
6710.00000 0.506089
6715.00000 0.503511
6720.00000 0.501089
6725.00000 0.498633
6730.00000 0.496013
6735.00000 0.493461
6740.00000 0.490696
6745.00000 0.487875
6750.00000 0.485375
6755.00000 0.482718
6760.00000 0.48023
6765.00000 0.477707
6770.00000 0.474952
6775.00000 0.47216
6780.00000 0.469468
6785.00000 0.466762
6790.00000 0.46412
6795.00000 0.461228
6800.00000 0.458611
6805.00000 0.455814
6810.00000 0.453183
6815.00000 0.450386
6820.00000 0.447737
6825.00000 0.444924
6830.00000 0.442111
6835.00000 0.439401
6840.00000 0.436714
6845.00000 0.434057
6850.00000 0.431308
6855.00000 0.428458
6860.00000 0.425763
6865.00000 0.423036
6870.00000 0.420161
6875.00000 0.417552
6880.00000 0.414734
6885.00000 0.412222
6890.00000 0.409606
6895.00000 0.406925
6900.00000 0.403985
6905.00000 0.401127
6910.00000 0.39878
6915.00000 0.396188
6920.00000 0.393359
6925.00000 0.390763
6930.00000 0.38777
6935.00000 0.38494
6940.00000 0.382733
6945.00000 0.379732
6950.00000 0.377044
6955.00000 0.374507
6960.00000 0.371695
6965.00000 0.368938
6970.00000 0.366409
6975.00000 0.363867
6980.00000 0.361194
6985.00000 0.35846
6990.00000 0.355856
6995.00000 0.353165
7000.00000 0.350626
7005.00000 0.3479
7010.00000 0.345273
7015.00000 0.342621
7020.00000 0.340258
7025.00000 0.337439
7030.00000 0.335106
7035.00000 0.332532
7040.00000 0.329964
7045.00000 0.32757
7050.00000 0.32482
7055.00000 0.322454
7060.00000 0.320058
7065.00000 0.317446
7070.00000 0.314988
7075.00000 0.312675
7080.00000 0.310047
7085.00000 0.307712
7090.00000 0.305148
7095.00000 0.30277
7100.00000 0.300515
7105.00000 0.298184
7110.00000 0.295729
7115.00000 0.29322
7120.00000 0.290706
7125.00000 0.288554
7130.00000 0.286179
7135.00000 0.283933
7140.00000 0.281691
7145.00000 0.279095
7150.00000 0.277047
7155.00000 0.27459
7160.00000 0.272078
7165.00000 0.270022
7170.00000 0.267509
7175.00000 0.265366
7180.00000 0.263199
7185.00000 0.26104
7190.00000 0.258703
7195.00000 0.256586
7200.00000 0.254228
7205.00000 0.252127
7210.00000 0.249827
7215.00000 0.247798
7220.00000 0.245508
7225.00000 0.243465
7230.00000 0.241231
7235.00000 0.239042
7240.00000 0.236921
7245.00000 0.234847
7250.00000 0.232693
7255.00000 0.230636
7260.00000 0.228578
7265.00000 0.226477
7270.00000 0.224568
7275.00000 0.222352
7280.00000 0.220308
7285.00000 0.218465
7290.00000 0.216515
7295.00000 0.214613
7300.00000 0.212655
7305.00000 0.210375
7310.00000 0.208541
7315.00000 0.206669
7320.00000 0.204761
7325.00000 0.202906
7330.00000 0.200864
7335.00000 0.198838
7340.00000 0.1971
7345.00000 0.195219
7350.00000 0.193226
7355.00000 0.191507
7360.00000 0.189552
7365.00000 0.187725
7370.00000 0.185862
7375.00000 0.183912
7380.00000 0.182308
7385.00000 0.180392
7390.00000 0.178504
7395.00000 0.17678
7400.00000 0.174941
7405.00000 0.173165
7410.00000 0.171431
7415.00000 0.169627
7420.00000 0.167996
7425.00000 0.166129
7430.00000 0.164394
7435.00000 0.162661
7440.00000 0.161045
7445.00000 0.159227
7450.00000 0.157599
7455.00000 0.156006
7460.00000 0.154328
7465.00000 0.152773
7470.00000 0.151124
7475.00000 0.14956
7480.00000 0.147892
7485.00000 0.146121
7490.00000 0.144766
7495.00000 0.143196
7500.00000 0.141538
7505.00000 0.14006
7510.00000 0.138537
7515.00000 0.136934
7520.00000 0.135524
7525.00000 0.134007
7530.00000 0.132534
7535.00000 0.130915
7540.00000 0.129671
7545.00000 0.128072
7550.00000 0.12654
7555.00000 0.125216
7560.00000 0.123858
7565.00000 0.122173
7570.00000 0.120827
7575.00000 0.119502
7580.00000 0.118128
7585.00000 0.116728
7590.00000 0.115354
7595.00000 0.114156
7600.00000 0.112689
7605.00000 0.111234
7610.00000 0.110115
7615.00000 0.108729
7620.00000 0.107385
7625.00000 0.106067
7630.00000 0.104801
7635.00000 0.103569
7640.00000 0.102362
7645.00000 0.101068
7650.00000 0.099764
7655.00000 0.098557
7660.00000 0.09727
7665.00000 0.096197
7670.00000 0.094892
7675.00000 0.093759
7680.00000 0.092594
7685.00000 0.091447
7690.00000 0.090258
7695.00000 0.089234
7700.00000 0.088093
7705.00000 0.087012
7710.00000 0.085953
7715.00000 0.084746
7720.00000 0.083638
7725.00000 0.082615
7730.00000 0.081607
7735.00000 0.080538
7740.00000 0.079498
7745.00000 0.07849
7750.00000 0.077417
7755.00000 0.076505
7760.00000 0.075469
7765.00000 0.074436
7770.00000 0.073449
7775.00000 0.072541
7780.00000 0.071564
7785.00000 0.07053
7790.00000 0.069589
7795.00000 0.068796
7800.00000 0.067801
7805.00000 0.066824
7810.00000 0.065971
7815.00000 0.06516
7820.00000 0.064232
7825.00000 0.063441
7830.00000 0.062527
7835.00000 0.06159
7840.00000 0.060825
7845.00000 0.059893
7850.00000 0.059214
7855.00000 0.058363
7860.00000 0.057576
7865.00000 0.056663
7870.00000 0.055946
7875.00000 0.055107
7880.00000 0.054395
7885.00000 0.053605
7890.00000 0.052742
7895.00000 0.052034
7900.00000 0.051453
7905.00000 0.050668
7910.00000 0.049945
7915.00000 0.049224
7920.00000 0.04856
7925.00000 0.04786
7930.00000 0.047094
7935.00000 0.046533
7940.00000 0.04588
7945.00000 0.045156
7950.00000 0.044616
7955.00000 0.043854
7960.00000 0.043259
7965.00000 0.042579
7970.00000 0.041991
7975.00000 0.041375
7980.00000 0.040807
7985.00000 0.040225
7990.00000 0.039671
7995.00000 0.038038
8000.00000 0.037446
8005.00000 0.036882
8010.00000 0.036511
8015.00000 0.036013
8020.00000 0.035449
8025.00000 0.035037
8030.00000 0.034436
8035.00000 0.033829
8040.00000 0.033561
8045.00000 0.033043
8050.00000 0.032643
8055.00000 0.031967
8060.00000 0.031418
8065.00000 0.031073
8070.00000 0.030743
8075.00000 0.030327
8080.00000 0.029859
8085.00000 0.029319
8090.00000 0.028826
8095.00000 0.02846
8100.00000 0.028032
8105.00000 0.027622
8110.00000 0.027209
8115.00000 0.026792
8120.00000 0.026502
8125.00000 0.025842
8130.00000 0.025551
8135.00000 0.025292
8140.00000 0.024828
8145.00000 0.024446
8150.00000 0.023965
8155.00000 0.023661
8160.00000 0.023284
8165.00000 0.022984
8170.00000 0.0226
8175.00000 0.022344
8180.00000 0.021843
8185.00000 0.021333
8190.00000 0.021181
8195.00000 0.020722
8200.00000 0.020532
8205.00000 0.020123
8210.00000 0.019736
8215.00000 0.019649
8220.00000 0.019128
8225.00000 0.018916
8230.00000 0.018695
8235.00000 0.018123
8240.00000 0.017997
8245.00000 0.017675
8250.00000 0.017383
8255.00000 0.017111
8260.00000 0.016859
8265.00000 0.016517
8270.00000 0.016219
8275.00000 0.015986
8280.00000 0.01572
8285.00000 0.015578
8290.00000 0.015257
8295.00000 0.014942
8300.00000 0.014815
8305.00000 0.014506
8310.00000 0.014254
8315.00000 0.014123
8320.00000 0.013772
8325.00000 0.013382
8330.00000 0.013465
8335.00000 0.013165
8340.00000 0.01277
8345.00000 0.012603
8350.00000 0.012443
8355.00000 0.012213
8360.00000 0.012081
8365.00000 0.01181
8370.00000 0.011674
8375.00000 0.011433
8380.00000 0.011283
8385.00000 0.011036
8390.00000 0.011001
8395.00000 0.01056
8400.00000 0.010483
8405.00000 0.010238
8410.00000 0.010104
8415.00000 0.010029
8420.00000 0.009817
8425.00000 0.00968
8430.00000 0.009512
8435.00000 0.009324
8440.00000 0.009186
8445.00000 0.009055
8450.00000 0.008795
8455.00000 0.008647
8460.00000 0.008498
8465.00000 0.008325
8470.00000 0.008349
8475.00000 0.008145
8480.00000 0.007943
8485.00000 0.00786
8490.00000 0.007643
8495.00000 0.007508
8500.00000 0.007296
8505.00000 0.007222
8510.00000 0.007054
8515.00000 0.007149
8520.00000 0.007105
8525.00000 0.006842
8530.00000 0.006646
8535.00000 0.006507
8540.00000 0.006551
8545.00000 0.006482
8550.00000 0.006233
8555.00000 0.006042
8560.00000 0.006034
8565.00000 0.005929
8570.00000 0.00582
8575.00000 0.005742
8580.00000 0.005421
8585.00000 0.005383
8590.00000 0.005572
8595.00000 0.005252
8600.00000 0.005218
8605.00000 0.005083
8610.00000 0.0051
8615.00000 0.005006
8620.00000 0.004817
8625.00000 0.00462
8630.00000 0.004771
8635.00000 0.004557
8640.00000 0.004465
8645.00000 0.004433
8650.00000 0.004392
8655.00000 0.004302
8660.00000 0.004114
8665.00000 0.004115
9531.50000 0.0
