# %ECSV 0.9
# ---
# datatype:
# - {name: wavelength, unit: Angstrom, datatype: float32}
# - {name: response, datatype: float32}
# meta: !!omap
# - {band_name: F1000W}
# - {group_name: MIRI}
wavelength response
78687.00000 0.0
87430.00000 0.0004
87490.00000 0.0012
87550.00000 0.002
87600.00000 0.0029
87660.00000 0.0056
87720.00000 0.0082
87780.00000 0.0109
87840.00000 0.0127
87890.00000 0.0139
87950.00000 0.0151
88010.00000 0.0156
88070.00000 0.013
88130.00000 0.0104
88180.00000 0.0078
88240.00000 0.0062
88300.00000 0.005
88360.00000 0.0038
88420.00000 0.0029
88470.00000 0.0029
88530.00000 0.0029
88590.00000 0.0029
88650.00000 0.0033
88710.00000 0.0038
88760.00000 0.0043
88820.00000 0.0052
88880.00000 0.0065
88940.00000 0.0078
89000.00000 0.0092
89050.00000 0.0119
89110.00000 0.0147
89170.00000 0.0174
89230.00000 0.0211
89290.00000 0.0258
89340.00000 0.0305
89400.00000 0.0352
89460.00000 0.0416
89520.00000 0.0481
89580.00000 0.0545
89630.00000 0.0623
89690.00000 0.0711
89750.00000 0.0799
89810.00000 0.0894
89870.00000 0.1029
89920.00000 0.1163
89980.00000 0.1298
90040.00000 0.1482
90100.00000 0.1687
90160.00000 0.1893
90210.00000 0.2109
90270.00000 0.2357
90330.00000 0.2605
90390.00000 0.2853
90450.00000 0.3036
90500.00000 0.3202
90560.00000 0.3369
90620.00000 0.3482
90680.00000 0.3494
90740.00000 0.3506
90790.00000 0.3518
90850.00000 0.347
90910.00000 0.3414
90970.00000 0.3358
91030.00000 0.3312
91080.00000 0.3277
91140.00000 0.3242
91200.00000 0.3208
91260.00000 0.3223
91320.00000 0.3239
91370.00000 0.3255
91430.00000 0.3292
91490.00000 0.3347
91550.00000 0.3401
91610.00000 0.3457
91660.00000 0.3518
91720.00000 0.358
91780.00000 0.3641
91840.00000 0.3693
91900.00000 0.374
91950.00000 0.3787
92010.00000 0.383
92070.00000 0.3855
92130.00000 0.388
92190.00000 0.3905
92240.00000 0.3916
92300.00000 0.3922
92360.00000 0.3928
92420.00000 0.393
92480.00000 0.3926
92530.00000 0.3921
92590.00000 0.3917
92650.00000 0.3908
92710.00000 0.3898
92770.00000 0.3889
92820.00000 0.3878
92880.00000 0.3867
92940.00000 0.3856
93000.00000 0.3845
93060.00000 0.3835
93110.00000 0.3825
93170.00000 0.3815
93230.00000 0.3807
93290.00000 0.38
93350.00000 0.3793
93400.00000 0.3786
93460.00000 0.3784
93520.00000 0.3782
93580.00000 0.3779
93640.00000 0.378
93690.00000 0.3783
93750.00000 0.3786
93810.00000 0.379
93870.00000 0.3798
93930.00000 0.3806
93980.00000 0.3814
94040.00000 0.3823
94100.00000 0.3833
94160.00000 0.3843
94220.00000 0.3853
94270.00000 0.3862
94330.00000 0.3871
94390.00000 0.388
94450.00000 0.3887
94510.00000 0.3894
94560.00000 0.39
94620.00000 0.3906
94680.00000 0.391
94740.00000 0.3915
94800.00000 0.3919
94850.00000 0.3923
94910.00000 0.3927
94970.00000 0.393
95030.00000 0.3934
95090.00000 0.3938
95140.00000 0.3942
95200.00000 0.3946
95260.00000 0.3951
95320.00000 0.3955
95380.00000 0.396
95430.00000 0.3964
95490.00000 0.3968
95550.00000 0.3972
95610.00000 0.3976
95670.00000 0.3978
95720.00000 0.398
95780.00000 0.3982
95840.00000 0.3981
95900.00000 0.3979
95960.00000 0.3977
96010.00000 0.3974
96070.00000 0.3968
96130.00000 0.3963
96190.00000 0.3957
96250.00000 0.3951
96300.00000 0.3944
96360.00000 0.3937
96420.00000 0.3931
96480.00000 0.3925
96540.00000 0.392
96590.00000 0.3914
96650.00000 0.3911
96710.00000 0.3908
96770.00000 0.3905
96830.00000 0.3903
96880.00000 0.3903
96940.00000 0.3904
97000.00000 0.3904
97060.00000 0.3907
97120.00000 0.391
97170.00000 0.3913
97230.00000 0.3917
97290.00000 0.3922
97350.00000 0.3927
97410.00000 0.3932
97460.00000 0.3937
97520.00000 0.3941
97580.00000 0.3946
97640.00000 0.3949
97700.00000 0.3952
97750.00000 0.3955
97810.00000 0.3957
97870.00000 0.3958
97930.00000 0.3959
97990.00000 0.3959
98040.00000 0.3959
98100.00000 0.3958
98160.00000 0.3957
98220.00000 0.3956
98280.00000 0.3953
98330.00000 0.395
98390.00000 0.3948
98450.00000 0.3945
98510.00000 0.3942
98570.00000 0.3939
98620.00000 0.3936
98680.00000 0.3934
98740.00000 0.3932
98800.00000 0.3931
98860.00000 0.393
98910.00000 0.393
98970.00000 0.3929
99030.00000 0.3929
99090.00000 0.3928
99150.00000 0.3927
99200.00000 0.3927
99260.00000 0.3925
99320.00000 0.3924
99380.00000 0.3922
99440.00000 0.392
99490.00000 0.3917
99550.00000 0.3914
99610.00000 0.3912
99670.00000 0.3909
99730.00000 0.3905
99780.00000 0.3902
99840.00000 0.3899
99900.00000 0.3897
99960.00000 0.3895
100020.00000 0.3893
100070.00000 0.3895
100130.00000 0.3897
100190.00000 0.3898
100250.00000 0.3902
100310.00000 0.3905
100360.00000 0.3909
100420.00000 0.3914
100480.00000 0.392
100540.00000 0.3926
100600.00000 0.3931
100650.00000 0.3939
100710.00000 0.3947
100770.00000 0.3955
100830.00000 0.3964
100890.00000 0.3973
100940.00000 0.3982
101000.00000 0.3991
101060.00000 0.3999
101120.00000 0.4007
101180.00000 0.4016
101230.00000 0.4023
101290.00000 0.4029
101350.00000 0.4035
101410.00000 0.404
101470.00000 0.4043
101520.00000 0.4047
101580.00000 0.405
101640.00000 0.4052
101700.00000 0.4053
101760.00000 0.4054
101810.00000 0.4054
101870.00000 0.4053
101930.00000 0.4052
101990.00000 0.4051
102050.00000 0.4049
102100.00000 0.4047
102160.00000 0.4045
102220.00000 0.4042
102280.00000 0.404
102340.00000 0.4038
102390.00000 0.4036
102450.00000 0.4035
102510.00000 0.4034
102570.00000 0.4032
102630.00000 0.4032
102680.00000 0.4032
102740.00000 0.4032
102800.00000 0.4033
102860.00000 0.4035
102920.00000 0.4036
102970.00000 0.4038
103030.00000 0.404
103090.00000 0.4043
103150.00000 0.4046
103210.00000 0.4049
103260.00000 0.4052
103320.00000 0.4056
103380.00000 0.4059
103440.00000 0.4062
103500.00000 0.4065
103550.00000 0.4068
103610.00000 0.4071
103670.00000 0.4074
103730.00000 0.4077
103790.00000 0.408
103840.00000 0.4082
103900.00000 0.4085
103960.00000 0.4088
104020.00000 0.4091
104080.00000 0.4093
104130.00000 0.4096
104190.00000 0.4099
104250.00000 0.4101
104310.00000 0.4104
104370.00000 0.4107
104420.00000 0.411
104480.00000 0.4114
104540.00000 0.4117
104600.00000 0.4121
104660.00000 0.4125
104710.00000 0.4129
104770.00000 0.4133
104830.00000 0.4136
104890.00000 0.414
104950.00000 0.4143
105000.00000 0.4146
105060.00000 0.4143
105120.00000 0.414
105180.00000 0.4138
105240.00000 0.4134
105290.00000 0.4129
105350.00000 0.4124
105410.00000 0.4119
105470.00000 0.4112
105530.00000 0.4105
105580.00000 0.4098
105640.00000 0.409
105700.00000 0.4081
105760.00000 0.4072
105820.00000 0.4064
105870.00000 0.4054
105930.00000 0.4045
105990.00000 0.4035
106050.00000 0.4026
106110.00000 0.4017
106160.00000 0.4007
106220.00000 0.3999
106280.00000 0.3991
106340.00000 0.3983
106400.00000 0.3975
106450.00000 0.3969
106510.00000 0.3963
106570.00000 0.3957
106630.00000 0.3952
106690.00000 0.3949
106740.00000 0.3945
106800.00000 0.3942
106860.00000 0.394
106920.00000 0.3938
106980.00000 0.3937
107030.00000 0.3935
107090.00000 0.3934
107150.00000 0.3933
107210.00000 0.3932
107270.00000 0.393
107320.00000 0.3927
107380.00000 0.3924
107440.00000 0.3919
107500.00000 0.3912
107560.00000 0.3905
107610.00000 0.3896
107670.00000 0.3882
107730.00000 0.3868
107790.00000 0.3853
107850.00000 0.3829
107900.00000 0.3803
107960.00000 0.3777
108020.00000 0.3742
108080.00000 0.3693
108140.00000 0.3643
108190.00000 0.3594
108250.00000 0.3516
108310.00000 0.3435
108370.00000 0.3354
108430.00000 0.3257
108480.00000 0.3142
108540.00000 0.3028
108600.00000 0.2913
108660.00000 0.2771
108720.00000 0.2629
108770.00000 0.2488
108830.00000 0.2339
108890.00000 0.2184
108950.00000 0.2029
109010.00000 0.1875
109060.00000 0.1725
109120.00000 0.1575
109180.00000 0.1426
109240.00000 0.1292
109300.00000 0.1166
109350.00000 0.1041
109410.00000 0.0923
109470.00000 0.0834
109530.00000 0.0744
109590.00000 0.0655
109640.00000 0.0586
109700.00000 0.0524
109760.00000 0.0461
109820.00000 0.0405
109880.00000 0.0363
109930.00000 0.0321
109990.00000 0.0278
110050.00000 0.0249
110110.00000 0.0222
110170.00000 0.0194
110220.00000 0.0171
110280.00000 0.0154
110340.00000 0.0136
110400.00000 0.0119
110460.00000 0.0108
110510.00000 0.0097
110570.00000 0.0087
110630.00000 0.0078
110690.00000 0.0071
110750.00000 0.0065
110800.00000 0.0058
110860.00000 0.0053
110920.00000 0.0049
110980.00000 0.0044
111040.00000 0.004
111090.00000 0.0037
111150.00000 0.0033
111210.00000 0.003
111270.00000 0.0028
111330.00000 0.0026
111380.00000 0.0023
111440.00000 0.0021
111500.00000 0.002
111560.00000 0.0018
111620.00000 0.0017
111670.00000 0.0016
111730.00000 0.0015
111790.00000 0.0013
111850.00000 0.0013
111910.00000 0.0012
111960.00000 0.0011
112020.00000 0.001
112080.00000 0.0009
112140.00000 0.0009
112200.00000 0.0008
112250.00000 0.0008
112310.00000 0.0007
112370.00000 0.0007
112430.00000 0.0006
112490.00000 0.0006
112540.00000 0.0005
112600.00000 0.0005
112660.00000 0.0005
112720.00000 0.0005
112780.00000 0.0004
112830.00000 0.0004
112890.00000 0.0004
112950.00000 0.0004
113010.00000 0.0004
113070.00000 0.0004
113120.00000 0.0003
113180.00000 0.0003
113240.00000 0.0003
113300.00000 0.0003
113360.00000 0.0003
113410.00000 0.0002
113470.00000 0.0002
113530.00000 0.0002
113590.00000 0.0002
113650.00000 0.0002
113700.00000 0.0002
113760.00000 0.0002
113820.00000 0.0002
113880.00000 0.0002
113940.00000 0.0002
113990.00000 0.0002
114050.00000 0.0002
114110.00000 0.0002
114170.00000 0.0002
114230.00000 0.0002
114280.00000 0.0002
114340.00000 0.0002
114400.00000 0.0002
114460.00000 0.0002
114520.00000 0.0002
114570.00000 0.0002
114630.00000 0.0002
114690.00000 0.0001
114750.00000 0.0001
114810.00000 0.0001
114860.00000 0.0001
114920.00000 0.0001
114980.00000 0.0001
115040.00000 0.0001
115100.00000 0.0001
115150.00000 0.0001
126665.00000 0.0
