# %ECSV 0.9
# ---
# datatype:
# - {name: wavelength, unit: Angstrom, datatype: float32}
# - {name: response, datatype: float32}
# meta: !!omap
# - {band_name: A921M}
# - {group_name: ALHAMBRA}
wavelength response
8040.73877 0.0
8934.15430 0.001017
8935.88574 0.000132
8937.63672 0.000437
8939.36914 0.000809
8941.12012 0.000132
8943.21680 0.000607
8944.94824 0.000132
8946.69922 0.000131
8948.80273 0.000735
8950.53418 0.000131
8952.28613 0.000668
8954.01758 0.00053
8956.12012 0.000131
8957.86523 0.000926
8959.60352 0.000431
8961.33496 0.000528
8963.53613 0.001056
8965.18262 0.00013
8966.92090 0.000924
8968.66602 0.000852
8970.86621 0.000492
8972.50098 0.001404
8974.25195 0.000853
8975.98340 0.001011
8978.18457 0.001304
8979.91602 0.001202
8981.56934 0.001656
8983.32031 0.001596
8985.05273 0.001132
8987.25293 0.002005
8988.98535 0.001548
8990.63184 0.001508
8992.37012 0.002029
8994.57031 0.00138
8996.31543 0.001884
8998.05371 0.002144
8999.70117 0.001565
9001.90137 0.001973
9003.63281 0.001784
9005.36523 0.001427
9007.11621 0.00225
9008.84863 0.001997
9010.95117 0.001987
9012.70215 0.002526
9014.43457 0.002266
9016.16602 0.002419
9017.91699 0.002982
9020.02051 0.002661
9021.75195 0.003312
9023.50293 0.004118
9025.23535 0.003741
9026.98633 0.004316
9029.08301 0.005127
9030.82031 0.005364
9032.56543 0.006572
9034.30371 0.007782
9036.03613 0.008399
9037.78711 0.010195
9039.51855 0.012368
9041.25098 0.013875
9043.00195 0.016519
9044.73340 0.020311
9046.46582 0.024626
9048.21680 0.030322
9050.05273 0.037325
9051.78418 0.046367
9053.62012 0.058552
9055.35254 0.074414
9057.28613 0.094822
9059.10254 0.123708
9061.03613 0.159196
9062.94922 0.206276
9065.05273 0.258091
9067.16895 0.321659
9069.36914 0.37808
9071.10059 0.421464
9072.75488 0.443937
9074.58398 0.466697
9076.31543 0.469923
9078.05371 0.474418
9079.88281 0.473302
9081.63477 0.465334
9083.36621 0.468187
9085.20215 0.459407
9086.93457 0.459611
9088.68555 0.460969
9090.41699 0.455646
9092.25293 0.460319
9093.98535 0.46117
9095.71680 0.459814
9097.46777 0.464175
9099.30371 0.464186
9101.03613 0.465782
9102.86523 0.466889
9104.60352 0.467363
9106.43262 0.468978
9108.17090 0.467145
9109.91602 0.470333
9111.75195 0.467385
9113.56836 0.469512
9115.31934 0.467649
9117.05176 0.468748
9118.88672 0.467306
9120.71680 0.468028
9122.44824 0.467301
9124.19922 0.467046
9126.01562 0.466369
9127.85254 0.467214
9129.60352 0.463615
9131.43262 0.466797
9133.17090 0.461467
9135.00098 0.46542
9136.73242 0.461579
9138.56836 0.461298
9140.29980 0.462095
9142.13574 0.458012
9143.88672 0.460955
9145.70312 0.457959
9147.44824 0.456957
9149.28418 0.458604
9151.01562 0.454539
9152.85254 0.457089
9154.58398 0.45361
9156.41992 0.454547
9158.15137 0.452387
9159.98730 0.452382
9161.73242 0.450275
9163.54883 0.450217
9165.29980 0.448706
9167.13574 0.447936
9168.95215 0.447057
9170.70312 0.445754
9172.43555 0.446586
9174.26465 0.443961
9176.10059 0.446198
9177.83301 0.442704
9179.66895 0.445045
9181.40039 0.444165
9183.23633 0.441767
9184.98730 0.446985
9186.81738 0.44109
9188.54883 0.444157
9190.38477 0.44626
9192.11621 0.439891
9193.95215 0.445922
9195.78223 0.444333
9197.52051 0.440222
9199.34961 0.447313
9201.08789 0.441818
9202.91699 0.442637
9204.75293 0.445745
9206.48535 0.439033
9208.32031 0.444134
9210.15039 0.439679
9211.88184 0.440439
9213.71777 0.440107
9215.55371 0.438597
9217.29883 0.438004
9219.11523 0.437164
9220.95117 0.435467
9222.70215 0.434874
9224.51855 0.433943
9226.34863 0.433816
9228.09961 0.432594
9229.93555 0.431899
9231.66699 0.430919
9233.50293 0.429504
9235.33301 0.429794
9237.07031 0.427664
9238.90039 0.428929
9240.73633 0.427628
9242.46777 0.426703
9244.30371 0.427422
9246.13281 0.424438
9247.86523 0.425921
9249.70117 0.424677
9251.43262 0.423335
9253.26855 0.426229
9255.09863 0.421365
9256.93457 0.425194
9258.66602 0.420528
9260.50195 0.422535
9262.23340 0.4207
9264.06934 0.421047
9265.89941 0.42017
9267.63672 0.419807
9269.46680 0.417885
9271.30273 0.417469
9273.05371 0.413954
9274.87012 0.415729
9276.69922 0.410352
9278.45117 0.412736
9280.26758 0.406299
9282.01855 0.406531
9283.84863 0.402932
9285.67090 0.399531
9287.41602 0.39805
9289.15430 0.394238
9290.98340 0.392088
9292.71582 0.387872
9294.55176 0.388636
9296.30273 0.385116
9298.03418 0.382851
9299.87012 0.386144
9301.60254 0.380095
9303.35352 0.385648
9305.16992 0.381469
9306.92090 0.382362
9308.75098 0.387628
9310.48242 0.383873
9312.22070 0.387912
9314.04980 0.385469
9315.80176 0.39204
9317.61816 0.387709
9319.36914 0.392373
9321.19824 0.388301
9322.93652 0.392492
9324.76562 0.38934
9326.60254 0.38929
9328.33398 0.388743
9330.16992 0.385982
9331.90137 0.385477
9333.65332 0.383859
9335.46973 0.381872
9337.22070 0.381896
9339.04980 0.378842
9340.78223 0.379445
9342.61816 0.379238
9344.34961 0.374969
9346.18555 0.378405
9347.91699 0.37726
9349.75293 0.375339
9351.50488 0.377485
9353.32031 0.373017
9355.06543 0.373087
9356.90137 0.362818
9358.63281 0.353861
9360.36523 0.335697
9362.01855 0.311002
9364.31738 0.26757
9366.41992 0.218807
9368.51562 0.168474
9370.44922 0.125181
9372.37012 0.090958
9374.19922 0.066242
9376.03613 0.047392
9377.85254 0.034648
9379.60352 0.024758
9381.33496 0.018262
9383.08691 0.013473
9385.26758 0.009587
9387.01855 0.007151
9388.75098 0.005114
9390.48242 0.004354
9392.23340 0.003404
9393.96582 0.002464
9396.06836 0.002317
9397.81934 0.001716
9399.55176 0.001254
9401.30273 0.001515
9403.03418 0.001157
9405.13672 0.001118
9406.88184 0.001286
10347.57031 0.0
