# %ECSV 0.9
# ---
# datatype:
# - {name: wavelength, unit: Angstrom, datatype: float32}
# - {name: response, datatype: float32}
# meta: !!omap
# - {band_name: F892W_3}
# - {group_name: ALHAMBRA}
wavelength response
7808.89551 0.0
8676.55078 0.000805
8678.19824 0.001277
8679.92969 0.00187
8681.68164 0.001141
8683.86230 0.002069
8685.61328 0.001867
8687.26758 0.001539
8688.99902 0.002666
8691.19922 0.002061
8692.93164 0.003
8694.57812 0.003522
8696.31641 0.002055
8698.51758 0.003189
8700.26172 0.002643
8701.89648 0.001918
8703.64746 0.003581
8705.84766 0.002974
8707.58008 0.003291
8709.31836 0.004092
8711.06250 0.002633
8713.16602 0.003299
8714.89746 0.002954
8716.64844 0.002759
8718.38086 0.004197
8720.48340 0.00341
8722.23438 0.004001
8723.96680 0.005104
8725.69824 0.003993
8727.44922 0.005225
8729.54590 0.006071
8731.29688 0.005489
8733.02930 0.007167
8734.76758 0.008247
8736.51172 0.007919
8738.61523 0.010312
8740.34668 0.011358
8742.09766 0.012301
8743.83008 0.01567
8745.56836 0.017912
8747.31250 0.020326
8749.51367 0.026257
8751.24512 0.031645
8752.98340 0.037579
8754.73438 0.045158
8756.91602 0.058987
8758.66699 0.074014
8760.39844 0.093049
8762.23438 0.117151
8764.06445 0.146085
8765.90039 0.183291
8767.72949 0.229688
8769.54590 0.284796
8771.47949 0.346906
8773.49805 0.415535
8775.49609 0.489789
8777.51465 0.554214
8779.63086 0.62082
8781.81836 0.679171
8783.93359 0.733786
8786.13477 0.771239
8788.41309 0.79602
8790.61328 0.817695
8792.34570 0.826005
8794.54590 0.834164
8796.28418 0.826284
8798.48438 0.812457
8800.76367 0.807966
8802.96387 0.795076
8805.16406 0.785709
8807.36523 0.765679
8809.65039 0.760877
8811.85059 0.756453
8814.05078 0.752515
8816.24512 0.742919
8818.43262 0.750384
8820.63281 0.747813
8822.83398 0.749649
8825.03418 0.75797
8827.23438 0.758541
8829.51367 0.767555
8831.71387 0.776642
8833.91406 0.779281
8836.19922 0.793344
8838.40039 0.797658
8840.67871 0.810434
8842.33203 0.812584
8844.61719 0.825699
8846.26465 0.828778
8848.54980 0.841586
8850.30078 0.846086
8852.49512 0.857301
8854.78027 0.862754
8857.06543 0.875897
8859.36328 0.876939
8861.64844 0.88559
8863.93359 0.896717
8866.31641 0.891565
8868.04883 0.90474
8870.34668 0.904031
8872.07812 0.903543
8873.81641 0.907346
8875.56836 0.902608
8877.84668 0.903821
8879.57812 0.907442
8881.33008 0.90504
8883.06836 0.905936
8884.81250 0.903601
8886.55078 0.900808
8888.28320 0.90404
8890.58105 0.904018
8892.31250 0.898199
8894.05078 0.896335
8895.79590 0.901859
8897.53418 0.896176
8899.81250 0.891187
8901.56445 0.903846
8903.29590 0.893062
8905.03418 0.892757
8906.77930 0.901367
8908.51758 0.890879
8910.24902 0.900238
8912.00000 0.893512
8913.73242 0.898274
8916.01758 0.897505
8917.76172 0.894684
8919.50000 0.899391
8921.33008 0.895159
8922.98340 0.897996
8924.81250 0.893731
8926.55078 0.895658
8928.28320 0.895456
8930.03418 0.89299
8931.76562 0.89622
8933.51758 0.892766
8935.24902 0.89725
8936.98047 0.892733
8938.73242 0.893649
8940.46387 0.893865
8942.19531 0.891095
8943.94727 0.893784
8945.67871 0.891261
8947.41699 0.890134
8949.16211 0.895339
8950.90039 0.889771
8952.65137 0.893597
8954.38281 0.88731
8956.11523 0.890584
8957.86621 0.889936
8959.59766 0.88684
8961.33008 0.890287
8963.08105 0.884484
8964.81250 0.890989
8966.55078 0.880633
8968.29590 0.88557
8970.03418 0.877833
8971.76562 0.879787
8973.51758 0.876352
8975.24902 0.866786
8977.00000 0.875003
8978.73242 0.856388
8981.01758 0.853576
8982.76172 0.854177
8985.04688 0.838396
8987.33203 0.831304
8989.61719 0.814418
8991.91602 0.814435
8994.20117 0.804806
8995.84766 0.795719
8998.13281 0.790281
9000.43164 0.783868
9002.06543 0.789773
9004.36328 0.779513
9006.09570 0.787997
9008.29590 0.790686
9010.58105 0.793383
9012.33203 0.798841
9014.51367 0.810747
9016.81836 0.810794
9019.09668 0.827471
9021.38184 0.839229
9023.76465 0.843105
9025.51562 0.857458
9027.24805 0.856084
9028.97949 0.86672
9030.73047 0.866244
9032.46289 0.871333
9034.20117 0.87133
9035.94531 0.86872
9037.68359 0.868888
9039.41602 0.861372
9041.16699 0.854798
9042.89844 0.85293
9044.65039 0.838442
9046.92871 0.830063
9049.21387 0.809719
9051.49902 0.80224
9053.79688 0.77697
9055.99805 0.760504
9058.28320 0.746959
9060.56836 0.7229
9062.76172 0.704165
9064.96289 0.672903
9067.16309 0.634366
9069.26562 0.581573
9071.36230 0.504518
9073.38086 0.426672
9075.39844 0.337198
9077.31250 0.258379
9079.24609 0.190898
9080.98438 0.137737
9082.81445 0.099139
9084.65039 0.069653
9086.38184 0.050072
9088.11328 0.036592
9089.86523 0.027082
9091.59668 0.018939
9093.34766 0.014095
9095.08008 0.011671
9096.81836 0.008537
9098.56250 0.006356
9100.66602 0.005997
9102.39746 0.004426
9104.14844 0.003674
9105.88086 0.004415
9107.61230 0.002437
9109.73438 0.002595
9111.46680 0.002318
9113.19824 0.001294
9114.94922 0.002261
9117.04590 0.001352
9118.78418 0.00186
9120.52930 0.002421
9122.63184 0.000901
10034.89453 0.0
