# %ECSV 0.9
# ---
# datatype:
# - {name: wavelength, unit: Angstrom, datatype: float32}
# - {name: response, datatype: float32}
# meta: !!omap
# - {band_name: R2}
# - {group_name: Astralux}
wavelength response
4680.00000 0.0
5200.00000 0.00106033
5210.00000 0.00129345
5220.00000 0.00153654
5230.00000 0.0017896
5240.00000 0.0020526
5250.00000 0.00232557
5260.00000 0.00260847
5270.00000 0.00290134
5280.00000 0.00320413
5290.00000 0.0035169
5300.00000 0.00383958
5310.00000 0.00417223
5320.00000 0.00451487
5330.00000 0.00486749
5340.00000 0.00522999
5350.00000 0.00560244
5360.00000 0.00598485
5370.00000 0.00637713
5380.00000 0.0067794
5390.00000 0.00719154
5400.00000 0.00761367
5410.00000 0.00804563
5420.00000 0.0084876
5430.00000 0.00893951
5440.00000 0.00940613
5450.00000 0.00991352
5460.00000 0.0105572
5470.00000 0.0114977
5480.00000 0.0127752
5490.00000 0.0141381
5500.00000 0.0153621
5510.00000 0.0167706
5520.00000 0.0191077
5530.00000 0.0230434
5540.00000 0.0291499
5550.00000 0.0380046
5560.00000 0.0501581
5570.00000 0.0662144
5580.00000 0.0866285
5590.00000 0.111535
5600.00000 0.140883
5610.00000 0.174501
5620.00000 0.211775
5630.00000 0.251409
5640.00000 0.291935
5650.00000 0.33206
5660.00000 0.370562
5670.00000 0.406681
5680.00000 0.440637
5690.00000 0.473007
5700.00000 0.50369
5710.00000 0.532038
5720.00000 0.557576
5730.00000 0.58039
5740.00000 0.600726
5750.00000 0.618662
5760.00000 0.634432
5770.00000 0.648419
5780.00000 0.660655
5790.00000 0.671135
5800.00000 0.680595
5810.00000 0.689945
5820.00000 0.699215
5830.00000 0.707865
5840.00000 0.715953
5850.00000 0.723968
5860.00000 0.731907
5870.00000 0.739469
5880.00000 0.746514
5890.00000 0.752982
5900.00000 0.758883
5910.00000 0.764433
5920.00000 0.769935
5930.00000 0.775328
5940.00000 0.779801
5950.00000 0.782247
5960.00000 0.782282
5970.00000 0.781173
5980.00000 0.780313
5990.00000 0.778058
6000.00000 0.7721
6010.00000 0.763953
6020.00000 0.756253
6030.00000 0.748912
6040.00000 0.740826
6050.00000 0.732425
6060.00000 0.724995
6070.00000 0.718955
6080.00000 0.713815
6090.00000 0.709187
6100.00000 0.70509
6110.00000 0.701403
6120.00000 0.697785
6130.00000 0.694479
6140.00000 0.692193
6150.00000 0.691028
6160.00000 0.690729
6170.00000 0.69122
6180.00000 0.692006
6190.00000 0.692493
6200.00000 0.693002
6210.00000 0.694127
6220.00000 0.695806
6230.00000 0.697978
6240.00000 0.700983
6250.00000 0.704506
6260.00000 0.707671
6270.00000 0.710348
6280.00000 0.713192
6290.00000 0.716534
6300.00000 0.72021
6310.00000 0.724192
6320.00000 0.728467
6330.00000 0.73261
6340.00000 0.736188
6350.00000 0.739184
6360.00000 0.741905
6370.00000 0.744928
6380.00000 0.74938
6390.00000 0.75706
6400.00000 0.768829
6410.00000 0.782616
6420.00000 0.794369
6430.00000 0.801355
6440.00000 0.804423
6450.00000 0.806142
6460.00000 0.807598
6470.00000 0.808475
6480.00000 0.808866
6490.00000 0.809398
6500.00000 0.810362
6510.00000 0.811572
6520.00000 0.812598
6530.00000 0.813223
6540.00000 0.813515
6550.00000 0.813467
6560.00000 0.813064
6570.00000 0.812518
6580.00000 0.812175
6590.00000 0.812207
6600.00000 0.812444
6610.00000 0.812695
6620.00000 0.813021
6630.00000 0.813303
6640.00000 0.813228
6650.00000 0.812934
6660.00000 0.812829
6670.00000 0.81301
6680.00000 0.813276
6690.00000 0.813329
6700.00000 0.813132
6710.00000 0.813026
6720.00000 0.81327
6730.00000 0.813705
6740.00000 0.813912
6750.00000 0.813811
6760.00000 0.813755
6770.00000 0.81383
6780.00000 0.813853
6790.00000 0.813741
6800.00000 0.813351
6810.00000 0.812673
6820.00000 0.812198
6830.00000 0.812706
6840.00000 0.814664
6850.00000 0.817769
6860.00000 0.821157
6870.00000 0.824084
6880.00000 0.825993
6890.00000 0.826518
6900.00000 0.826063
6910.00000 0.82558
6920.00000 0.825343
6930.00000 0.824761
6940.00000 0.82364
6950.00000 0.822506
6960.00000 0.821648
6970.00000 0.820983
6980.00000 0.820427
6990.00000 0.819632
7000.00000 0.817981
7010.00000 0.81519
7020.00000 0.811292
7030.00000 0.806026
7040.00000 0.798759
7050.00000 0.788867
7060.00000 0.775663
7070.00000 0.758246
7080.00000 0.735812
7090.00000 0.708176
7100.00000 0.675824
7110.00000 0.639308
7120.00000 0.599064
7130.00000 0.555727
7140.00000 0.509812
7150.00000 0.461277
7160.00000 0.410917
7170.00000 0.361952
7180.00000 0.317828
7190.00000 0.279209
7200.00000 0.244955
7210.00000 0.214305
7220.00000 0.187064
7230.00000 0.163237
7240.00000 0.142858
7250.00000 0.125627
7260.00000 0.110847
7270.00000 0.0978468
7280.00000 0.086266
7290.00000 0.0759801
7300.00000 0.067021
7310.00000 0.0594659
7320.00000 0.0532447
7330.00000 0.0481049
7340.00000 0.0436812
7350.00000 0.039664
7360.00000 0.0359588
7370.00000 0.0326222
7380.00000 0.0297147
7390.00000 0.0272373
7400.00000 0.025126
7410.00000 0.0232926
7420.00000 0.0216676
7430.00000 0.0201992
7440.00000 0.0188449
7450.00000 0.017604
7460.00000 0.0165504
7470.00000 0.0157447
7480.00000 0.0151222
7490.00000 0.0145201
7500.00000 0.0138404
7510.00000 0.013134
7520.00000 0.0124977
7530.00000 0.0119589
7540.00000 0.0114705
7550.00000 0.0109772
7560.00000 0.0104721
7570.00000 0.010011
7580.00000 0.00964819
7590.00000 0.0093389
7600.00000 0.00895922
7610.00000 0.00847126
7620.00000 0.00799802
7630.00000 0.00766408
7640.00000 0.0074574
7650.00000 0.00728519
7660.00000 0.00708502
7670.00000 0.00687175
7680.00000 0.00669887
7690.00000 0.00658946
7700.00000 0.00650385
7710.00000 0.00637135
7720.00000 0.0061681
7730.00000 0.00593828
7740.00000 0.00573594
7750.00000 0.00558904
7760.00000 0.00548392
7770.00000 0.0053717
7780.00000 0.00522385
7790.00000 0.00508647
7800.00000 0.00503955
7810.00000 0.00504974
7820.00000 0.00496672
7830.00000 0.00472312
7840.00000 0.00443694
7850.00000 0.00426091
7860.00000 0.00419739
7870.00000 0.00412564
7880.00000 0.00398364
7890.00000 0.00384083
7900.00000 0.0037928
7910.00000 0.00386078
7920.00000 0.00397676
7930.00000 0.00401344
7940.00000 0.00388355
7950.00000 0.00364381
7960.00000 0.003425
7970.00000 0.00331038
7980.00000 0.0033021
7990.00000 0.00333628
8000.00000 0.00337523
8010.00000 0.00342951
8020.00000 0.00347229
8030.00000 0.00347727
8040.00000 0.00345102
8050.00000 0.00338748
8060.00000 0.00330013
8070.00000 0.00321777
8080.00000 0.00312695
8090.00000 0.00298793
8100.00000 0.00281999
8110.00000 0.00305111
8120.00000 0.00293549
8130.00000 0.00281987
8140.00000 0.00270427
8150.00000 0.00258867
8160.00000 0.00247308
8170.00000 0.00235752
8180.00000 0.00224196
8190.00000 0.0021264
8300.00000 0.0015
8400.00000 0.001
8500.00000 0.005
8600.00000 0.002
9460.00000 0.0
