# %ECSV 0.9
# ---
# datatype:
# - {name: wavelength, unit: Angstrom, datatype: float32}
# - {name: response, datatype: float32}
# meta: !!omap
# - {band_name: f_500_9}
# - {group_name: CAHA}
wavelength response
4395.38379 0.0
4883.75977 0.004308
4884.02002 0.003476
4884.27979 0.00389
4884.54004 0.003974
4884.79980 0.003421
4885.06006 0.003762
4885.31982 0.003508
4885.58008 0.003626
4885.83984 0.003208
4886.10010 0.003692
4886.35986 0.003394
4886.62012 0.00403
4886.87988 0.003845
4887.14014 0.003647
4887.39990 0.003458
4887.66016 0.003909
4887.91992 0.003544
4888.18018 0.00418
4888.43994 0.003575
4888.68994 0.004103
4888.95996 0.004113
4889.20996 0.004294
4889.47021 0.00388
4889.72998 0.004596
4889.99023 0.004154
4890.25000 0.003525
4890.50977 0.004534
4890.77002 0.003936
4891.02979 0.004464
4891.29004 0.004873
4891.54980 0.004815
4891.81006 0.004163
4892.06982 0.004625
4892.33008 0.004633
4892.58984 0.004768
4892.85010 0.005107
4893.10986 0.004828
4893.37012 0.005079
4893.62988 0.004983
4893.89014 0.005245
4894.14990 0.004487
4894.41016 0.004738
4894.66992 0.005091
4894.93018 0.004995
4895.18994 0.004799
4895.45020 0.004931
4895.70996 0.005391
4895.97021 0.005873
4896.22998 0.004944
4896.49023 0.00462
4896.75000 0.006064
4897.00977 0.005662
4897.27002 0.005313
4897.52979 0.005161
4897.79004 0.005784
4898.04980 0.005922
4898.31006 0.005727
4898.56982 0.005522
4898.83008 0.005758
4899.08984 0.006714
4899.35010 0.005794
4899.60986 0.00621
4899.87012 0.005952
4900.12988 0.006281
4900.39014 0.006463
4900.64990 0.006261
4900.91016 0.006638
4901.16992 0.006503
4901.43018 0.00587
4901.68994 0.006234
4901.95020 0.00622
4902.20996 0.006351
4902.47021 0.007174
4902.72998 0.006874
4902.99023 0.006763
4903.25000 0.006964
4903.50977 0.007448
4903.77002 0.00751
4904.02979 0.007473
4904.29004 0.007795
4904.54980 0.007439
4904.81006 0.006997
4905.06982 0.007162
4905.33008 0.007517
4905.58984 0.00779
4905.85010 0.008398
4906.10986 0.008201
4906.37012 0.008331
4906.62988 0.008537
4906.89014 0.008017
4907.14990 0.008361
4907.41016 0.008727
4907.66992 0.008534
4907.93018 0.009066
4908.18994 0.008644
4908.45020 0.009075
4908.70996 0.00923
4908.97021 0.00976
4909.22998 0.009472
4909.49023 0.0089
4909.75000 0.009336
4910.00977 0.009616
4910.27002 0.009633
4910.52979 0.009847
4910.79004 0.009471
4911.04980 0.009907
4911.31006 0.010375
4911.56982 0.010452
4911.83008 0.009981
4912.08984 0.010428
4912.35010 0.010221
4912.60986 0.010838
4912.87012 0.01084
4913.12988 0.010351
4913.39014 0.011038
4913.64990 0.011223
4913.91016 0.011531
4914.16992 0.011219
4914.43018 0.012031
4914.68994 0.011751
4914.93994 0.011947
4915.20020 0.012862
4915.45996 0.012434
4915.72021 0.012513
4915.97998 0.013639
4916.24023 0.012816
4916.50000 0.013404
4916.75977 0.013966
4917.02002 0.013282
4917.27979 0.014387
4917.54004 0.014037
4917.79980 0.01399
4918.06006 0.014427
4918.31982 0.013755
4918.58008 0.015559
4918.83984 0.014677
4919.10010 0.0148
4919.35986 0.015113
4919.62012 0.015789
4919.87988 0.015884
4920.14014 0.016431
4920.39990 0.016829
4920.66016 0.016298
4920.91992 0.017099
4921.18018 0.017168
4921.43994 0.016997
4921.70020 0.017743
4921.95996 0.017913
4922.22021 0.018061
4922.47998 0.019774
4922.74023 0.019239
4923.00000 0.019835
4923.25977 0.019203
4923.52002 0.019957
4923.77979 0.020214
4924.04004 0.020824
4924.29980 0.020652
4924.56006 0.021858
4924.81982 0.021923
4925.08008 0.02133
4925.33984 0.022403
4925.60010 0.023194
4925.85986 0.022284
4926.12012 0.022871
4926.37988 0.024069
4926.64014 0.024268
4926.89990 0.024912
4927.16016 0.025447
4927.41992 0.026134
4927.68018 0.027345
4927.93994 0.026562
4928.20020 0.026106
4928.45996 0.026905
4928.72021 0.027607
4928.97998 0.028508
4929.24023 0.028747
4929.50000 0.02848
4929.75977 0.030158
4930.02002 0.030196
4930.27979 0.031147
4930.54004 0.031219
4930.79980 0.032005
4931.06006 0.032688
4931.31982 0.033484
4931.58008 0.034833
4931.83984 0.033825
4932.10010 0.035277
4932.35986 0.034938
4932.62012 0.036367
4932.87988 0.038033
4933.14014 0.038056
4933.39990 0.038783
4933.66016 0.039091
4933.91992 0.040288
4934.18018 0.040852
4934.43994 0.041814
4934.70020 0.04216
4934.95996 0.043091
4935.22021 0.04341
4935.47998 0.045033
4935.74023 0.045053
4936.00000 0.046121
4936.25977 0.048166
4936.52002 0.048941
4936.77979 0.048821
4937.04004 0.049986
4937.29980 0.052052
4937.56006 0.0523
4937.81982 0.0549
4938.08008 0.054898
4938.33984 0.055169
4938.60010 0.056046
4938.85986 0.05619
4939.12012 0.058075
4939.37988 0.060974
4939.64014 0.061671
4939.89990 0.064014
4940.16016 0.06427
4940.41992 0.06554
4940.66992 0.066634
4940.93994 0.069373
4941.18994 0.071054
4941.45020 0.07027
4941.70996 0.07314
4941.97021 0.074097
4942.22998 0.076425
4942.49023 0.076362
4942.75000 0.078538
4943.00977 0.078636
4943.27002 0.082676
4943.52979 0.083307
4943.79004 0.086931
4944.04980 0.086505
4944.31006 0.089272
4944.56982 0.092256
4944.83008 0.09466
4945.08984 0.095091
4945.35010 0.098935
4945.60986 0.098905
4945.87012 0.101191
4946.12988 0.102265
4946.39014 0.106963
4946.64990 0.108107
4946.91016 0.11138
4947.16992 0.113063
4947.43018 0.116472
4947.68994 0.118846
4947.95020 0.121841
4948.20996 0.123013
4948.47021 0.125692
4948.72998 0.128202
4948.99023 0.131336
4949.25000 0.135852
4949.50977 0.13805
4949.77002 0.139621
4950.02979 0.142252
4950.29004 0.145926
4950.54980 0.152134
4950.81006 0.152307
4951.06982 0.157543
4951.33008 0.16054
4951.58984 0.163186
4951.85010 0.1649
4952.10986 0.170724
4952.37012 0.17429
4952.62988 0.177822
4952.89014 0.18251
4953.14990 0.183276
4953.41016 0.189859
4953.66992 0.194162
4953.93018 0.199217
4954.18994 0.20199
4954.45020 0.209174
4954.70996 0.209083
4954.97021 0.214301
4955.22998 0.219765
4955.49023 0.224411
4955.75000 0.228193
4956.00977 0.235963
4956.27002 0.2385
4956.52979 0.244621
4956.79004 0.2483
4957.04980 0.253364
4957.31006 0.258533
4957.56982 0.263247
4957.83008 0.26781
4958.08984 0.273029
4958.35010 0.281976
4958.60986 0.288765
4958.87012 0.292834
4959.12988 0.296212
4959.39014 0.301056
4959.64990 0.308429
4959.91016 0.314051
4960.16992 0.31863
4960.43018 0.324282
4960.68994 0.331536
4960.95020 0.337643
4961.20996 0.342607
4961.47021 0.347298
4961.72998 0.358219
4961.99023 0.362664
4962.25000 0.370382
4962.50977 0.373835
4962.77002 0.377256
4963.02979 0.390493
4963.29004 0.395071
4963.54980 0.399619
4963.81006 0.404713
4964.06982 0.40741
4964.33008 0.419671
4964.58984 0.422036
4964.85010 0.429289
4965.10986 0.434197
4965.37012 0.440604
4965.62988 0.447454
4965.89014 0.457442
4966.14990 0.462038
4966.41016 0.470348
4966.66992 0.472205
4966.91992 0.478036
4967.18018 0.48968
4967.43994 0.494705
4967.70020 0.498909
4967.95996 0.501887
4968.22021 0.511599
4968.47998 0.513511
4968.74023 0.521837
4969.00000 0.528957
4969.25977 0.533285
4969.52002 0.536792
4969.77979 0.546214
4970.04004 0.549212
4970.29980 0.556139
4970.56006 0.562242
4970.81982 0.562472
4971.08008 0.568206
4971.33984 0.577572
4971.60010 0.581102
4971.85986 0.584337
4972.12012 0.592771
4972.37988 0.597625
4972.64014 0.599014
4972.89990 0.602685
4973.16016 0.611917
4973.41992 0.61538
4973.68018 0.614601
4973.93994 0.623995
4974.20020 0.625025
4974.45996 0.63004
4974.72021 0.63113
4974.97998 0.639386
4975.24023 0.64505
4975.50000 0.644093
4975.75977 0.645354
4976.02002 0.653529
4976.27979 0.653721
4976.54004 0.653506
4976.79980 0.657908
4977.06006 0.668115
4977.31982 0.67022
4977.58008 0.6675
4977.83984 0.677156
4978.10010 0.67401
4978.35986 0.679587
4978.62012 0.68002
4978.87988 0.684196
4979.14014 0.681762
4979.39990 0.687554
4979.66016 0.69141
4979.91992 0.693403
4980.18018 0.689022
4980.43994 0.700478
4980.70020 0.700408
4980.95996 0.702398
4981.22021 0.707148
4981.47998 0.700388
4981.74023 0.708174
4982.00000 0.70475
4982.25977 0.709747
4982.52002 0.705945
4982.77979 0.7069
4983.04004 0.710006
4983.29980 0.710699
4983.56006 0.715184
4983.81982 0.721531
4984.08008 0.715412
4984.33984 0.713432
4984.60010 0.722223
4984.85986 0.722615
4985.12012 0.720925
4985.37988 0.721743
4985.64014 0.731626
4985.89990 0.725055
4986.16016 0.725916
4986.41992 0.731647
4986.68018 0.725997
4986.93994 0.726158
4987.20020 0.729728
4987.45996 0.733336
4987.72021 0.724352
4987.97998 0.731605
4988.24023 0.726736
4988.50000 0.73288
4988.75977 0.732885
4989.02002 0.735526
4989.27979 0.736719
4989.54004 0.731927
4989.79980 0.736282
4990.06006 0.737986
4990.31982 0.73447
4990.58008 0.739656
4990.83984 0.738579
4991.10010 0.740378
4991.35986 0.736529
4991.62012 0.727246
4991.87988 0.737931
4992.14014 0.739209
4992.39990 0.74027
4992.64990 0.741275
4992.91992 0.741012
4993.16992 0.740395
4993.43018 0.742135
4993.68994 0.735539
4993.95020 0.738935
4994.20996 0.737002
4994.47021 0.743739
4994.72998 0.738516
4994.99023 0.735571
4995.25000 0.738056
4995.50977 0.737206
4995.77002 0.739324
4996.02979 0.736836
4996.29004 0.735402
4996.54980 0.73639
4996.81006 0.736874
4997.06982 0.740175
4997.33008 0.743955
4997.58984 0.73824
4997.85010 0.741497
4998.10986 0.738787
4998.37012 0.738095
4998.62988 0.739429
4998.89014 0.736838
4999.14990 0.737021
4999.41016 0.742492
4999.66992 0.735775
4999.93018 0.74012
5000.18994 0.742415
5000.45020 0.737684
5000.70996 0.739526
5000.97021 0.740065
5001.22998 0.738591
5001.49023 0.740263
5001.75000 0.737833
5002.00977 0.742223
5002.27002 0.740392
5002.52979 0.743778
5002.79004 0.737871
5003.04980 0.74508
5003.31006 0.738197
5003.56982 0.737856
5003.83008 0.738463
5004.08984 0.735918
5004.35010 0.738639
5004.60986 0.739733
5004.87012 0.740154
5005.12988 0.737879
5005.39014 0.736618
5005.64990 0.740885
5005.91016 0.743094
5006.16992 0.741373
5006.43018 0.740734
5006.68994 0.739867
5006.95020 0.73755
5007.20996 0.736819
5007.47021 0.735724
5007.72998 0.733885
5007.99023 0.733745
5008.25000 0.740858
5008.50977 0.733223
5008.77002 0.732941
5009.02979 0.731874
5009.29004 0.731999
5009.54980 0.73247
5009.81006 0.733103
5010.06982 0.738125
5010.33008 0.730942
5010.58984 0.736691
5010.85010 0.732929
5011.10986 0.731033
5011.37012 0.733948
5011.62988 0.732602
5011.89014 0.734519
5012.14990 0.7324
5012.41016 0.731207
5012.66992 0.726037
5012.93018 0.735337
5013.18994 0.730884
5013.45020 0.725624
5013.70996 0.731968
5013.97021 0.725432
5014.22998 0.728566
5014.49023 0.725764
5014.75000 0.728011
5015.00977 0.730353
5015.27002 0.727198
5015.52979 0.726511
5015.79004 0.728484
5016.04980 0.72445
5016.31006 0.72893
5016.56982 0.726829
5016.83008 0.720097
5017.08984 0.721161
5017.35010 0.720549
5017.60986 0.724411
5017.87012 0.720688
5018.12012 0.727059
5018.39014 0.719312
5018.64990 0.718211
5018.89990 0.719194
5019.16992 0.71529
5019.41992 0.716435
5019.68018 0.716825
5019.93994 0.71449
5020.20020 0.719157
5020.45996 0.720364
5020.72021 0.712593
5020.97998 0.724234
5021.24023 0.717638
5021.50000 0.717039
5021.75977 0.71112
5022.02002 0.713233
5022.27979 0.712034
5022.54004 0.712234
5022.79980 0.718444
5023.06006 0.711306
5023.31982 0.704391
5023.58008 0.705809
5023.83984 0.704709
5024.10010 0.704025
5024.35986 0.701683
5024.62012 0.705728
5024.87988 0.705123
5025.14014 0.705732
5025.39990 0.703641
5025.66016 0.699984
5025.91992 0.699199
5026.18018 0.697176
5026.43994 0.695976
5026.70020 0.691334
5026.95996 0.69909
5027.22021 0.689787
5027.47998 0.688648
5027.74023 0.691151
5028.00000 0.6871
5028.25977 0.688386
5028.52002 0.685804
5028.77979 0.685106
5029.04004 0.685529
5029.29980 0.682908
5029.56006 0.674618
5029.81982 0.675209
5030.08008 0.674475
5030.33984 0.671596
5030.60010 0.665783
5030.85986 0.672067
5031.12012 0.668407
5031.37988 0.662505
5031.64014 0.660889
5031.89990 0.659016
5032.16016 0.655111
5032.41992 0.653493
5032.68018 0.660748
5032.93994 0.649497
5033.20020 0.648878
5033.45996 0.644286
5033.72021 0.641095
5033.97998 0.639899
5034.24023 0.637683
5034.50000 0.62708
5034.75977 0.632562
5035.02002 0.623544
5035.27979 0.623411
5035.54004 0.622295
5035.79980 0.611403
5036.06006 0.612337
5036.31982 0.605552
5036.58008 0.604169
5036.83984 0.602967
5037.10010 0.602185
5037.35986 0.596242
5037.62012 0.591637
5037.87988 0.588523
5038.14014 0.577851
5038.39990 0.582558
5038.66016 0.574069
5038.91992 0.572106
5039.18018 0.562423
5039.43994 0.560685
5039.70020 0.554581
5039.95996 0.551478
5040.22021 0.551424
5040.47998 0.548318
5040.74023 0.536899
5041.00000 0.534408
5041.25977 0.526692
5041.52002 0.520931
5041.77979 0.513361
5042.04004 0.51397
5042.29980 0.5027
5042.56006 0.502551
5042.81982 0.498178
5043.08008 0.493323
5043.33984 0.488969
5043.60010 0.481711
5043.85986 0.479852
5044.12012 0.466735
5044.37988 0.465894
5044.62988 0.461287
5044.89990 0.458155
5045.14990 0.444925
5045.41016 0.439693
5045.66992 0.438176
5045.93018 0.43462
5046.18994 0.425037
5046.45020 0.41622
5046.70996 0.411281
5046.97021 0.409677
5047.22998 0.402988
5047.49023 0.395611
5047.75000 0.392617
5048.00977 0.387631
5048.27002 0.381684
5048.52979 0.373977
5048.79004 0.366672
5049.04980 0.363899
5049.31006 0.35618
5049.56982 0.351954
5049.83008 0.347127
5050.08984 0.335041
5050.35010 0.335277
5050.60986 0.33162
5050.87012 0.326318
5051.12988 0.320284
5051.39014 0.31553
5051.64990 0.307618
5051.91016 0.302655
5052.16992 0.297088
5052.43018 0.29035
5052.68994 0.285731
5052.95020 0.282022
5053.20996 0.276574
5053.47021 0.272462
5053.72998 0.267758
5053.99023 0.262483
5054.25000 0.25652
5054.50977 0.253946
5054.77002 0.249209
5055.02979 0.242504
5055.29004 0.239077
5055.54980 0.234261
5055.81006 0.229801
5056.06982 0.227644
5056.33008 0.2226
5056.58984 0.216586
5056.85010 0.214592
5057.10986 0.210247
5057.37012 0.207072
5057.62988 0.200305
5057.89014 0.195689
5058.14990 0.19324
5058.41016 0.188177
5058.66992 0.184829
5058.93018 0.181271
5059.18994 0.178681
5059.45020 0.176064
5059.70996 0.172422
5059.97021 0.167684
5060.22998 0.163813
5060.49023 0.161312
5060.75000 0.157924
5061.00977 0.155164
5061.27002 0.151659
5061.52979 0.14879
5061.79004 0.147027
5062.04980 0.144493
5062.31006 0.138703
5062.56982 0.13695
5062.83008 0.134081
5063.08984 0.130151
5063.35010 0.128863
5063.60986 0.125831
5063.87012 0.123813
5064.12988 0.120064
5064.39014 0.11891
5064.64990 0.11771
5064.91016 0.115374
5065.16992 0.111218
5065.43018 0.110388
5065.68994 0.106674
5065.95020 0.105395
5066.20996 0.104002
5066.47021 0.102149
5066.72998 0.100654
5066.99023 0.096545
5067.25000 0.094815
5067.50977 0.093247
5067.77002 0.092186
5068.02979 0.089291
5068.29004 0.087898
5068.54980 0.085511
5068.81006 0.084507
5069.06982 0.082422
5069.33008 0.080517
5069.58984 0.079964
5069.85010 0.079502
5070.10010 0.076791
5070.37012 0.0754
5070.62012 0.073196
5070.87988 0.070757
5071.14990 0.071031
5071.39990 0.070228
5071.66016 0.067526
5071.91992 0.06769
5072.18018 0.064299
5072.43994 0.064928
5072.70020 0.062647
5072.95996 0.062069
5073.22021 0.06036
5073.47998 0.059633
5073.74023 0.05783
5074.00000 0.058074
5074.25977 0.055015
5074.52002 0.055828
5074.77979 0.053734
5075.04004 0.05301
5075.29980 0.051505
5075.56006 0.050826
5075.81982 0.04955
5076.08008 0.048798
5076.33984 0.049061
5076.60010 0.047882
5076.85986 0.04601
5077.12012 0.044531
5077.37988 0.043836
5077.64014 0.044118
5077.89990 0.042227
5078.16016 0.042254
5078.41992 0.042431
5078.68018 0.041426
5078.93994 0.039134
5079.20020 0.04036
5079.45996 0.038785
5079.72021 0.037795
5079.97998 0.037131
5080.24023 0.036863
5080.50000 0.036257
5080.75977 0.035157
5081.02002 0.034732
5081.27979 0.034997
5081.54004 0.033938
5081.79980 0.033939
5082.06006 0.032354
5082.31982 0.032448
5082.58008 0.032094
5082.83984 0.031309
5083.10010 0.029863
5083.35986 0.030093
5083.62012 0.029707
5083.87988 0.02835
5084.14014 0.02854
5084.39990 0.028169
5084.66016 0.027555
5084.91992 0.026568
5085.18018 0.026743
5085.43994 0.025428
5085.70020 0.026068
5085.95996 0.025191
5086.22021 0.025032
5086.47998 0.025115
5086.74023 0.024559
5087.00000 0.023988
5087.25977 0.023324
5087.52002 0.023445
5087.77979 0.022637
5088.04004 0.023143
5088.29980 0.021994
5088.56006 0.021127
5088.81982 0.021014
5089.08008 0.021048
5089.33984 0.020639
5089.60010 0.020348
5089.85986 0.019783
5090.12012 0.019786
5090.37988 0.019738
5090.64014 0.019401
5090.89990 0.018492
5091.16016 0.017994
5091.41992 0.017774
5091.68018 0.017343
5091.93994 0.017514
5092.20020 0.017801
5092.45996 0.016822
5092.72021 0.016668
5092.97998 0.01672
5093.24023 0.016996
5093.50000 0.017102
5093.75977 0.016152
5094.02002 0.015447
5094.27979 0.015726
5094.54004 0.015478
5094.79980 0.01448
5095.06006 0.014956
5095.31982 0.015152
5095.58008 0.014127
5095.83984 0.014451
5096.10010 0.013984
5096.35010 0.01398
5096.62012 0.013769
5096.87988 0.014144
5097.12988 0.01342
5097.39014 0.01271
5097.64990 0.013179
5097.91016 0.012304
5098.16992 0.011972
5098.43018 0.012143
5098.68994 0.011886
5098.95020 0.012064
5099.20996 0.011487
5099.47021 0.011937
5099.72998 0.011083
5099.99023 0.011108
5100.25000 0.010959
5100.50977 0.011223
5100.77002 0.010776
5101.02979 0.010925
5101.29004 0.011049
5101.54980 0.010883
5101.81006 0.010695
5102.06982 0.01053
5102.33008 0.009689
5102.58984 0.009942
5102.85010 0.010111
5103.10986 0.009559
5103.37012 0.009234
5103.62988 0.009368
5103.89014 0.009115
5104.14990 0.008998
5104.41016 0.00913
5104.66992 0.009046
5104.93018 0.008394
5105.18994 0.008418
5105.45020 0.008571
5105.70996 0.008545
5105.97021 0.008139
5106.22998 0.007737
5106.49023 0.008509
5106.75000 0.00786
5107.00977 0.008322
5107.27002 0.007854
5107.52979 0.007595
5107.79004 0.007532
5108.04980 0.007859
5108.31006 0.007431
5108.56982 0.007444
5108.83008 0.007593
5109.08984 0.00725
5109.35010 0.006856
5109.60986 0.006941
5109.87012 0.007044
5110.12988 0.007172
5110.39014 0.00712
5110.64990 0.006302
5110.91016 0.006799
5111.16992 0.006702
5111.43018 0.006635
5111.68994 0.007149
5111.95020 0.006325
5112.20996 0.006207
5112.47021 0.006748
5112.72998 0.006305
5112.99023 0.006233
5113.25000 0.006492
5113.50977 0.006142
5113.77002 0.005797
5114.02979 0.006059
5114.29004 0.006017
5114.54980 0.005408
5114.81006 0.005753
5115.06982 0.005836
5115.33008 0.005823
5115.58984 0.005684
5115.85010 0.00564
5116.10986 0.005761
5116.37012 0.005279
5116.62988 0.005381
5116.89014 0.005322
5117.14990 0.004973
5117.41016 0.005014
5117.66992 0.005029
5117.93018 0.005191
5118.18994 0.005145
5118.45020 0.005172
5118.70996 0.004932
5118.97021 0.004696
5119.22998 0.004601
5119.49023 0.00496
5119.75000 0.004475
5120.00977 0.004704
5120.27002 0.004501
5120.52979 0.004331
5120.79004 0.004252
5121.04980 0.00445
5121.31006 0.004288
5121.56982 0.004236
5121.83008 0.004421
5122.08008 0.004633
5122.35010 0.004098
5122.60010 0.004238
5122.85986 0.004084
5123.12012 0.004482
5123.37988 0.00426
5635.71777 0.0
