# %ECSV 0.9
# ---
# datatype:
# - {name: wavelength, unit: Angstrom, datatype: float32}
# - {name: response, datatype: float32}
# meta: !!omap
# - {band_name: f_630_10b}
# - {group_name: CAHA}
wavelength response
5563.53027 0.0
6181.70020 0.004239
6181.95996 0.003981
6182.22021 0.003979
6182.47998 0.004205
6182.74023 0.004058
6183.00000 0.004083
6183.27002 0.004183
6183.52979 0.004279
6183.79004 0.00401
6184.04980 0.00424
6184.31006 0.004234
6184.56982 0.004422
6184.83008 0.004313
6185.08984 0.004416
6185.35010 0.004418
6185.60986 0.00449
6185.87012 0.004476
6186.12988 0.004598
6186.39990 0.004477
6186.66016 0.004443
6186.91992 0.004629
6187.18018 0.004621
6187.43994 0.004555
6187.70020 0.004634
6187.95996 0.004742
6188.22021 0.004734
6188.47998 0.004889
6188.74023 0.004931
6189.00000 0.004881
6189.25977 0.005012
6189.52002 0.004954
6189.79004 0.004821
6190.04980 0.005083
6190.31006 0.005015
6190.56982 0.005127
6190.83008 0.005217
6191.08984 0.005351
6191.35010 0.005184
6191.60986 0.005249
6191.87012 0.005122
6192.12988 0.005328
6192.39014 0.005508
6192.64990 0.005609
6192.91992 0.005605
6193.18018 0.005459
6193.43994 0.005484
6193.70020 0.005752
6193.95996 0.005765
6194.22021 0.005765
6194.47998 0.005678
6194.74023 0.005837
6195.00000 0.005985
6195.25977 0.006035
6195.52002 0.006051
6195.77979 0.006077
6196.04004 0.006007
6196.31006 0.006193
6196.56982 0.006358
6196.83008 0.006368
6197.08984 0.006165
6197.35010 0.00642
6197.60986 0.006337
6197.87012 0.006607
6198.12988 0.0067
6198.39014 0.006734
6198.64990 0.006653
6198.91016 0.006801
6199.16992 0.00665
6199.43994 0.006706
6199.70020 0.00709
6199.95996 0.00709
6200.22021 0.007023
6200.47998 0.007275
6200.74023 0.007158
6201.00000 0.007376
6201.25977 0.007251
6201.52002 0.00748
6201.77979 0.007651
6202.04004 0.007684
6202.29980 0.007609
6202.56006 0.007713
6202.83008 0.007887
6203.08984 0.008139
6203.35010 0.008138
6203.60986 0.007962
6203.87012 0.008285
6204.12988 0.008233
6204.39014 0.008569
6204.64990 0.008503
6204.91016 0.008811
6205.16992 0.008784
6205.43018 0.008888
6205.68994 0.009009
6205.95996 0.008918
6206.22021 0.009095
6206.47998 0.009214
6206.74023 0.009273
6207.00000 0.009557
6207.25977 0.009562
6207.52002 0.009811
6207.77979 0.009731
6208.04004 0.009959
6208.29980 0.009921
6208.56006 0.010104
6208.81982 0.010309
6209.08008 0.010294
6209.35010 0.010618
6209.60986 0.010767
6209.87012 0.010857
6210.12988 0.010873
6210.39014 0.011232
6210.64990 0.011253
6210.91016 0.011308
6211.16992 0.011585
6211.43018 0.011727
6211.68994 0.011878
6211.95020 0.011983
6212.20996 0.012439
6212.47998 0.012542
6212.74023 0.012388
6213.00000 0.012697
6213.25977 0.012797
6213.52002 0.012893
6213.77979 0.013253
6214.04004 0.013437
6214.29980 0.01362
6214.56006 0.013544
6214.81982 0.013676
6215.08008 0.01411
6215.33984 0.014332
6215.60010 0.014418
6215.87012 0.014705
6216.12988 0.014916
6216.39014 0.015267
6216.64990 0.015514
6216.91016 0.015854
6217.16992 0.015878
6217.43018 0.016077
6217.68994 0.016709
6217.95020 0.016542
6218.20996 0.016866
6218.47021 0.017036
6218.72998 0.017207
6219.00000 0.017683
6219.25977 0.017998
6219.52002 0.017959
6219.77979 0.018495
6220.04004 0.018784
6220.29980 0.019026
6220.56006 0.019362
6220.81982 0.019526
6221.08008 0.020056
6221.33984 0.020367
6221.60010 0.02032
6221.85986 0.021042
6222.12012 0.021104
6222.39014 0.021497
6222.64990 0.022328
6222.91016 0.022298
6223.16992 0.022521
6223.43018 0.023398
6223.68994 0.023593
6223.95020 0.024036
6224.20996 0.024605
6224.47021 0.024669
6224.72998 0.025047
6224.99023 0.025714
6225.25000 0.025794
6225.52002 0.026295
6225.77979 0.027193
6226.04004 0.027146
6226.29980 0.028194
6226.56006 0.028215
6226.81982 0.028795
6227.08008 0.029548
6227.33984 0.029981
6227.60010 0.029831
6227.85986 0.030855
6228.12012 0.031558
6228.37988 0.031759
6228.64014 0.032339
6228.91016 0.032956
6229.16992 0.033782
6229.43018 0.034648
6229.68994 0.035395
6229.95020 0.03542
6230.20996 0.036699
6230.47021 0.037233
6230.72998 0.037658
6230.99023 0.038715
6231.25000 0.038955
6231.50977 0.039662
6231.77002 0.040332
6232.04004 0.0418
6232.29980 0.042353
6232.56006 0.042986
6232.81982 0.043837
6233.08008 0.04458
6233.33984 0.045993
6233.60010 0.046782
6233.85986 0.047627
6234.12012 0.048173
6234.37988 0.049539
6234.64014 0.050128
6234.89990 0.050872
6235.16016 0.051881
6235.43018 0.053425
6235.68994 0.054154
6235.95020 0.055281
6236.20996 0.056132
6236.47021 0.058135
6236.72998 0.059214
6236.99023 0.060048
6237.25000 0.061253
6237.50977 0.062569
6237.77002 0.063926
6238.02979 0.064993
6238.29004 0.06604
6238.56006 0.067577
6238.81982 0.069152
6239.08008 0.070382
6239.33984 0.071708
6239.60010 0.072987
6239.85986 0.074821
6240.12012 0.076694
6240.37988 0.077959
6240.64014 0.079479
6240.89990 0.08145
6241.16016 0.08345
6241.41992 0.085589
6241.68018 0.086666
6241.95020 0.088364
6242.20996 0.090656
6242.47021 0.092799
6242.72998 0.094493
6242.99023 0.096366
6243.25000 0.098199
6243.50977 0.100871
6243.77002 0.102754
6244.02979 0.104479
6244.29004 0.106812
6244.54980 0.10978
6244.81006 0.111725
6245.08008 0.113992
6245.33984 0.115823
6245.60010 0.119048
6245.85986 0.122029
6246.12012 0.124676
6246.37988 0.12694
6246.64014 0.129288
6246.89990 0.13221
6247.16016 0.134979
6247.41992 0.137649
6247.68018 0.140809
6247.93994 0.143951
6248.20020 0.146653
6248.47021 0.149409
6248.72998 0.152206
6248.99023 0.155707
6249.25000 0.15789
6249.50977 0.161885
6249.77002 0.165617
6250.02979 0.168325
6250.29004 0.17191
6250.54980 0.177238
6250.81006 0.179874
6251.06982 0.183038
6251.33008 0.18619
6251.60010 0.190497
6251.85986 0.195262
6252.12012 0.198591
6252.37988 0.201743
6252.64014 0.206407
6252.89990 0.209817
6253.16016 0.214606
6253.41992 0.218248
6253.68018 0.222031
6253.93994 0.227091
6254.20020 0.230917
6254.45996 0.23574
6254.72021 0.240243
6254.99023 0.243973
6255.25000 0.24918
6255.50977 0.253141
6255.77002 0.257436
6256.02979 0.263341
6256.29004 0.267064
6256.54980 0.271661
6256.81006 0.276623
6257.06982 0.279866
6257.33008 0.285585
6257.58984 0.290166
6257.85010 0.294789
6258.12012 0.299266
6258.37988 0.303408
6258.64014 0.309922
6258.89990 0.313783
6259.16016 0.318872
6259.41992 0.323323
6259.68018 0.328434
6259.93994 0.332925
6260.20020 0.338046
6260.45996 0.342996
6260.72021 0.347551
6260.97998 0.351647
6261.24023 0.35782
6261.50977 0.361706
6261.77002 0.366323
6262.02979 0.370654
6262.29004 0.377162
6262.54980 0.379888
6262.81006 0.384965
6263.06982 0.388737
6263.33008 0.392084
6263.58984 0.398355
6263.85010 0.401761
6264.10986 0.406665
6264.37012 0.411557
6264.62988 0.414431
6264.89990 0.418868
6265.16016 0.424197
6265.41992 0.428742
6265.68018 0.432522
6265.93994 0.435687
6266.20020 0.439964
6266.45996 0.445335
6266.72021 0.4474
6266.97998 0.451585
6267.24023 0.455166
6267.50000 0.457352
6267.75977 0.46274
6268.02979 0.466844
6268.29004 0.467054
6268.54980 0.472219
6268.81006 0.475384
6269.06982 0.479195
6269.33008 0.480505
6269.58984 0.484052
6269.85010 0.487478
6270.10986 0.490605
6270.37012 0.493016
6270.62988 0.496058
6270.89014 0.497068
6271.14990 0.501377
6271.41992 0.504053
6271.68018 0.505739
6271.93994 0.507012
6272.20020 0.509924
6272.45996 0.511735
6272.72021 0.513753
6272.97998 0.516991
6273.24023 0.520129
6273.50000 0.521987
6273.75977 0.523377
6274.02002 0.524344
6274.27979 0.526262
6274.54980 0.526099
6274.81006 0.530283
6275.06982 0.532795
6275.33008 0.531793
6275.58984 0.533586
6275.85010 0.534857
6276.10986 0.536584
6276.37012 0.536965
6276.62988 0.538978
6276.89014 0.539521
6277.14990 0.539632
6277.41016 0.542513
6277.66992 0.544215
6277.93994 0.544174
6278.20020 0.545261
6278.45996 0.547207
6278.72021 0.546586
6278.97998 0.548932
6279.24023 0.547465
6279.50000 0.548996
6279.75977 0.549805
6280.02002 0.551063
6280.27979 0.553088
6280.54004 0.552839
6280.79980 0.552197
6281.06982 0.5543
6281.33008 0.552978
6281.58984 0.555467
6281.85010 0.554543
6282.10986 0.554888
6282.37012 0.552414
6282.62988 0.556126
6282.89014 0.556035
6283.14990 0.55683
6283.41016 0.557764
6283.66992 0.557678
6283.93018 0.558116
6284.18994 0.560005
6284.45996 0.558381
6284.72021 0.559142
6284.97998 0.558299
6285.24023 0.558142
6285.50000 0.558479
6285.75977 0.559138
6286.02002 0.55956
6286.27979 0.55969
6286.54004 0.560707
6286.79980 0.560638
6287.06006 0.561073
6287.31982 0.560332
6287.58984 0.561028
6287.85010 0.560898
6288.10986 0.560509
6288.37012 0.560768
6288.62988 0.562444
6288.89014 0.559
6289.14990 0.56175
6289.41016 0.563428
6289.66992 0.562049
6289.93018 0.561687
6290.18994 0.560306
6290.45020 0.564105
6290.70996 0.562063
6290.97998 0.564706
6291.24023 0.562223
6291.50000 0.560482
6291.75977 0.561891
6292.02002 0.562312
6292.27979 0.561175
6292.54004 0.562048
6292.79980 0.562261
6293.06006 0.563795
6293.31982 0.563232
6293.58008 0.563869
6293.83984 0.56412
6294.10986 0.560838
6294.37012 0.562588
6294.62988 0.563001
6294.89014 0.562071
6295.14990 0.56297
6295.41016 0.563103
6295.66992 0.561062
6295.93018 0.562757
6296.18994 0.564098
6296.45020 0.564956
6296.70996 0.562364
6296.97021 0.562953
6297.22998 0.563224
6297.50000 0.56252
6297.75977 0.566274
6298.02002 0.564647
6298.27979 0.563194
6298.54004 0.563362
6298.79980 0.563895
6299.06006 0.563962
6299.31982 0.562751
6299.58008 0.562614
6299.83984 0.564801
6300.10010 0.563989
6300.35986 0.563175
6300.62988 0.56331
6300.89014 0.561952
6301.14990 0.561755
6301.41016 0.562193
6301.66992 0.562102
6301.93018 0.561036
6302.18994 0.562086
6302.45020 0.563316
6302.70996 0.562624
6302.97021 0.561768
6303.22998 0.562245
6303.49023 0.561862
6303.75000 0.563124
6304.02002 0.562146
6304.27979 0.561592
6304.54004 0.559892
6304.79980 0.56166
6305.06006 0.562168
6305.31982 0.561891
6305.58008 0.56
6305.83984 0.560865
6306.10010 0.561234
6306.35986 0.561917
6306.62012 0.560711
6306.87988 0.560957
6307.14990 0.560055
6307.41016 0.560361
6307.66992 0.558691
6307.93018 0.558061
6308.18994 0.559229
6308.45020 0.55812
6308.70996 0.559194
6308.97021 0.559359
6309.22998 0.558961
6309.49023 0.558738
6309.75000 0.557612
6310.00977 0.558337
6310.27002 0.558404
6310.54004 0.557144
6310.79980 0.557054
6311.06006 0.555378
6311.31982 0.556098
6311.58008 0.555991
6311.83984 0.556302
6312.10010 0.555889
6312.35986 0.553982
6312.62012 0.556328
6312.87988 0.555733
6313.14014 0.555203
6313.39990 0.553639
6313.66992 0.554187
6313.93018 0.553472
6314.18994 0.551701
6314.45020 0.553728
6314.70996 0.553807
6314.97021 0.552453
6315.22998 0.552094
6315.49023 0.552118
6315.75000 0.552041
6316.00977 0.549382
6316.27002 0.549886
6316.52979 0.550022
6316.79004 0.549242
6317.06006 0.549281
6317.31982 0.548856
6317.58008 0.548317
6317.83984 0.547775
6318.10010 0.547202
6318.35986 0.547357
6318.62012 0.547498
6318.87988 0.547386
6319.14014 0.545496
6319.39990 0.546226
6319.66016 0.545179
6319.91992 0.544752
6320.18994 0.545076
6320.45020 0.540945
6320.70996 0.545302
6320.97021 0.54429
6321.22998 0.544475
6321.49023 0.54183
6321.75000 0.541945
6322.00977 0.541841
6322.27002 0.541667
6322.52979 0.540694
6322.79004 0.541014
6323.04980 0.540255
6323.31006 0.540345
6323.58008 0.538784
6323.83984 0.540639
6324.10010 0.54059
6324.35986 0.538592
6324.62012 0.537453
6324.87988 0.539537
6325.14014 0.536679
6325.39990 0.538072
6325.66016 0.539192
6325.91992 0.538834
6326.18018 0.538467
6326.43994 0.537028
6326.70996 0.538096
6326.97021 0.534991
6327.22998 0.536378
6327.49023 0.536213
6327.75000 0.534908
6328.00977 0.535298
6328.27002 0.536125
6328.52979 0.534513
6328.79004 0.535522
6329.04980 0.535225
6329.31006 0.535882
6329.56982 0.533398
6329.83008 0.532988
6330.10010 0.53412
6330.35986 0.535028
6330.62012 0.5326
6330.87988 0.533041
6331.14014 0.533233
6331.39990 0.533902
6331.66016 0.532699
6331.91992 0.532991
6332.18018 0.531281
6332.43994 0.533188
6332.70020 0.532619
6332.95996 0.53143
6333.22998 0.531698
6333.49023 0.532439
6333.75000 0.532892
6334.00977 0.530951
6334.27002 0.5315
6334.52979 0.531006
6334.79004 0.530731
6335.04980 0.53147
6335.31006 0.532449
6335.56982 0.529718
6335.83008 0.530169
6336.08984 0.529518
6336.35010 0.531653
6336.62012 0.530746
6336.87988 0.530424
6337.14014 0.530394
6337.39990 0.528972
6337.66016 0.529276
6337.91992 0.529506
6338.18018 0.529601
6338.43994 0.528903
6338.70020 0.527439
6338.95996 0.528111
6339.22021 0.529157
6339.47998 0.526654
6339.75000 0.527962
6340.00977 0.528231
6340.27002 0.526791
6340.52979 0.526491
6340.79004 0.526893
6341.04980 0.526617
6341.31006 0.524387
6341.56982 0.525982
6341.83008 0.523237
6342.08984 0.522395
6342.35010 0.523808
6342.60986 0.523365
6342.87988 0.521016
6343.14014 0.521824
6343.39990 0.521505
6343.66016 0.520878
6343.91992 0.519231
6344.18018 0.518193
6344.43994 0.516593
6344.70020 0.518447
6344.95996 0.513996
6345.22021 0.514236
6345.47998 0.513204
6345.74023 0.511718
6346.00000 0.51091
6346.27002 0.510012
6346.52979 0.508189
6346.79004 0.507681
6347.04980 0.506119
6347.31006 0.504583
6347.56982 0.502835
6347.83008 0.502131
6348.08984 0.499786
6348.35010 0.49883
6348.60986 0.496498
6348.87012 0.49416
6349.12988 0.493406
6349.39990 0.490772
6349.66016 0.489654
6349.91992 0.486752
6350.18018 0.483235
6350.43994 0.481899
6350.70020 0.479707
6350.95996 0.478194
6351.22021 0.475508
6351.47998 0.47093
6351.74023 0.47083
6352.00000 0.469419
6352.25977 0.464291
6352.52002 0.46095
6352.79004 0.457915
6353.04980 0.455335
6353.31006 0.453573
6353.56982 0.448889
6353.83008 0.445911
6354.08984 0.44525
6354.35010 0.440789
6354.60986 0.435888
6354.87012 0.43186
6355.12988 0.430212
6355.39014 0.426968
6355.64990 0.422215
6355.91992 0.418222
6356.18018 0.413398
6356.43994 0.409927
6356.70020 0.406572
6356.95996 0.40306
6357.22021 0.398156
6357.47998 0.394114
6357.74023 0.391139
6358.00000 0.385839
6358.25977 0.381777
6358.52002 0.378423
6358.77979 0.373474
6359.04004 0.367986
6359.31006 0.364274
6359.56982 0.359272
6359.83008 0.354714
6360.08984 0.350959
6360.35010 0.345861
6360.60986 0.341967
6360.87012 0.336148
6361.12988 0.332228
6361.39014 0.326705
6361.64990 0.322939
6361.91016 0.318472
6362.16992 0.313731
6362.43994 0.309826
6362.70020 0.305436
6362.95996 0.299175
6363.22021 0.294563
6363.47998 0.290288
6363.74023 0.285662
6364.00000 0.28137
6364.25977 0.274716
6364.52002 0.271668
6364.77979 0.267197
6365.04004 0.262876
6365.29980 0.257844
6365.56006 0.252306
6365.83008 0.248621
6366.08984 0.243968
6366.35010 0.241586
6366.60986 0.235355
6366.87012 0.230639
6367.12988 0.227692
6367.39014 0.223739
6367.64990 0.218684
6367.91016 0.214641
6368.16992 0.210254
6368.43018 0.207781
6368.68994 0.202243
6368.95996 0.199248
6369.22021 0.194267
6369.47998 0.191129
6369.74023 0.187531
6370.00000 0.183881
6370.25977 0.179641
6370.52002 0.175562
6370.77979 0.172211
6371.04004 0.169319
6371.29980 0.166199
6371.56006 0.163444
6371.81982 0.159413
6372.08008 0.15532
6372.35010 0.152851
6372.60986 0.149309
6372.87012 0.146522
6373.12988 0.14369
6373.39014 0.141427
6373.64990 0.137959
6373.91016 0.134692
6374.16992 0.131223
6374.43018 0.128954
6374.68994 0.125981
6374.95020 0.123695
6375.20996 0.121397
6375.47998 0.118517
6375.74023 0.116674
6376.00000 0.113996
6376.25977 0.110976
6376.52002 0.109244
6376.77979 0.106201
6377.04004 0.104198
6377.29980 0.102638
6377.56006 0.099893
6377.81982 0.097929
6378.08008 0.095847
6378.33984 0.094312
6378.60010 0.092298
6378.87012 0.089948
6379.12988 0.088461
6379.39014 0.086237
6379.64990 0.085137
6379.91016 0.082854
6380.16992 0.081581
6380.43018 0.079349
6380.68994 0.077552
6380.95020 0.076502
6381.20996 0.074024
6381.47021 0.073192
6381.72998 0.071619
6382.00000 0.069541
6382.25977 0.068485
6382.52002 0.06752
6382.77979 0.065836
6383.04004 0.064462
6383.29980 0.063459
6383.56006 0.062401
6383.81982 0.060935
6384.08008 0.05944
6384.33984 0.058452
6384.60010 0.057246
6384.85986 0.055778
6385.12012 0.054989
6385.39014 0.053652
6385.64990 0.052979
6385.91016 0.052099
6386.16992 0.05076
6386.43018 0.049478
6386.68994 0.048637
6386.95020 0.048093
6387.20996 0.047007
6387.47021 0.045826
6387.72998 0.045332
6387.99023 0.04423
6388.25000 0.043866
6388.52002 0.043049
6388.77979 0.042198
6389.04004 0.041304
6389.29980 0.040381
6389.56006 0.039768
6389.81982 0.03853
6390.08008 0.03812
6390.33984 0.037398
6390.60010 0.036756
6390.85986 0.03592
6391.12012 0.035234
6391.37988 0.034756
6391.64014 0.033715
6391.91016 0.033646
6392.16992 0.033051
6392.43018 0.032308
6392.68994 0.031752
6392.95020 0.031323
6393.20996 0.030541
6393.47021 0.030298
6393.72998 0.029296
6393.99023 0.029014
6394.25000 0.028255
6394.50977 0.028244
6394.77002 0.027649
6395.04004 0.027451
6395.29980 0.026733
6395.56006 0.026332
6395.81982 0.025773
6396.08008 0.025771
6396.33984 0.02514
6396.60010 0.02466
6396.85986 0.024224
6397.12012 0.023632
6397.37988 0.023546
6397.64014 0.022897
6397.89990 0.022855
6398.16016 0.022326
6398.43018 0.022003
6398.68994 0.021591
6398.95020 0.021343
6399.20996 0.020946
6399.47021 0.020455
6399.72998 0.020193
6399.99023 0.019951
6400.25000 0.019631
6400.50977 0.019159
6400.77002 0.019247
6401.02979 0.018968
6401.29004 0.018543
6401.56006 0.018001
6401.81982 0.017857
6402.08008 0.017814
6402.33984 0.017302
6402.60010 0.016995
6402.85986 0.017171
6403.12012 0.016879
6403.37988 0.016185
6403.64014 0.016123
6403.89990 0.015877
6404.16016 0.015707
6404.41992 0.015428
6404.68018 0.015165
6404.95020 0.01512
6405.20996 0.014727
6405.47021 0.014701
6405.72998 0.014686
6405.99023 0.014223
6406.25000 0.013982
6406.50977 0.014085
6406.77002 0.01369
6407.02979 0.013271
6407.29004 0.013293
6407.54980 0.013168
6407.81006 0.012684
6408.08008 0.012401
6408.33984 0.012583
6408.60010 0.01253
6408.85986 0.012455
6409.12012 0.012057
6409.37988 0.011954
6409.64014 0.011919
6409.89990 0.011803
6410.16016 0.01153
6410.41992 0.011135
6410.68018 0.011169
6410.93994 0.011047
6411.20020 0.011013
6411.47021 0.01073
6411.72998 0.010596
6411.99023 0.010384
6412.25000 0.010399
6412.50977 0.010257
6412.77002 0.010176
6413.02979 0.010097
6413.29004 0.009996
6413.54980 0.009839
6413.81006 0.009678
6414.06982 0.009575
6414.33008 0.009215
6414.60010 0.009336
6414.85986 0.00934
6415.12012 0.00909
6415.37988 0.009037
6415.64014 0.008783
6415.89990 0.008768
6416.16016 0.008558
6416.41992 0.008764
6416.68018 0.008446
6416.93994 0.008407
6417.20020 0.008317
6417.45996 0.008106
6417.72021 0.007937
6417.99023 0.008049
6418.25000 0.008104
6418.50977 0.007738
6418.77002 0.007694
6419.02979 0.007761
6419.29004 0.007646
6419.54980 0.007526
6419.81006 0.007681
6420.06982 0.007552
6420.33008 0.007482
6420.58984 0.007487
6420.85010 0.00729
6421.12012 0.007223
6421.37988 0.00723
6421.64014 0.006999
6421.89990 0.006929
6422.16016 0.006766
6422.41992 0.00688
6422.68018 0.00674
6422.93994 0.006643
6423.20020 0.006579
6423.45996 0.006524
6423.72021 0.0066
6423.97998 0.00648
6424.24023 0.006251
6424.50977 0.006348
6424.77002 0.006381
6425.02979 0.006265
6425.29004 0.006202
6425.54980 0.006037
6425.81006 0.006164
6426.06982 0.005975
6426.33008 0.006037
6426.58984 0.005842
6426.85010 0.00582
6427.10986 0.005572
6427.37012 0.005724
6427.62988 0.005705
6427.89990 0.005663
6428.16016 0.005469
6428.41992 0.005493
6428.68018 0.005336
6428.93994 0.005404
6429.20020 0.005382
6429.45996 0.005459
6429.72021 0.005155
6429.97998 0.005116
6430.24023 0.005222
6430.50000 0.005208
6430.75977 0.005065
6431.02979 0.005081
6431.29004 0.005188
6431.54980 0.005193
6431.81006 0.005134
6432.06982 0.004838
6432.33008 0.004904
6432.58984 0.00478
6432.85010 0.004873
6433.10986 0.004713
6433.37012 0.004876
6433.62988 0.00453
6433.89014 0.004608
6434.14990 0.004576
6434.41992 0.004512
6434.68018 0.004646
6434.93994 0.004619
6435.20020 0.004482
6435.45996 0.004446
6435.72021 0.004391
6435.97998 0.004337
6436.24023 0.00434
6436.50000 0.00425
6436.75977 0.00443
6437.02002 0.00423
6437.27979 0.00435
6437.54980 0.004235
6437.81006 0.004298
6438.06982 0.004211
6438.33008 0.00417
6438.58984 0.004181
6438.85010 0.004158
7082.73535 0.0
