# %ECSV 0.9
# ---
# datatype:
# - {name: wavelength, unit: Angstrom, datatype: float32}
# - {name: response, datatype: float32}
# meta: !!omap
# - {band_name: f_433_12}
# - {group_name: CAHA}
wavelength response
3777.23706 0.0
4196.93018 0.004914
4197.18994 0.003952
4197.43994 0.002946
4197.70020 0.0066
4197.95996 0.002549
4198.22021 0.006217
4198.47998 0.007165
4198.74023 0.004166
4199.00000 0.003853
4199.25000 0.001901
4199.50977 0.003217
4199.77002 0.009556
4200.02979 0.006144
4200.29004 0.005909
4200.54980 0.008558
4200.81006 0.004748
4201.06006 0.007619
4201.31982 0.002514
4201.58008 0.007946
4201.83984 0.007294
4202.10010 0.007097
4202.35986 0.005647
4202.62012 0.002945
4202.87012 0.004537
4203.12988 0.005442
4203.39014 0.002818
4203.64990 0.007496
4203.91016 0.003782
4204.16992 0.010375
4204.43018 0.005996
4204.68018 0.0077
4204.93994 0.006736
4205.20020 0.006961
4205.45996 0.006821
4205.72021 0.002698
4205.97998 0.004099
4206.24023 0.006098
4206.49023 0.008014
4206.75000 0.005929
4207.00977 0.008946
4207.27002 0.008915
4207.52979 0.006668
4207.79004 0.007245
4208.04980 0.006637
4208.31006 0.006875
4208.56006 0.007747
4208.81982 0.008889
4209.08008 0.003348
4209.33984 0.010135
4209.60010 0.007209
4209.85986 0.008367
4210.12012 0.006161
4210.37012 0.006768
4210.62988 0.007613
4210.89014 0.006631
4211.14990 0.002991
4211.41016 0.007638
4211.66992 0.008549
4211.93018 0.007908
4212.18018 0.011054
4212.43994 0.011347
4212.70020 0.009032
4212.95996 0.009313
4213.22021 0.010431
4213.47998 0.009182
4213.74023 0.010772
4213.99023 0.010567
4214.25000 0.009581
4214.50977 0.009751
4214.77002 0.004962
4215.02979 0.011295
4215.29004 0.009471
4215.54980 0.009229
4215.79980 0.010096
4216.06006 0.010635
4216.31982 0.008506
4216.58008 0.007641
4216.83984 0.015528
4217.10010 0.01115
4217.35986 0.006595
4217.60986 0.008967
4217.87012 0.010735
4218.12988 0.007988
4218.39014 0.009655
4218.64990 0.011831
4218.91016 0.012319
4219.16992 0.012314
4219.41992 0.01166
4219.68018 0.009784
4219.93994 0.008083
4220.20020 0.014608
4220.45996 0.011277
4220.72021 0.014754
4220.97998 0.012507
4221.22998 0.013719
4221.49023 0.010509
4221.75000 0.01147
4222.00977 0.016029
4222.27002 0.01274
4222.52979 0.015687
4222.79004 0.012124
4223.04980 0.015458
4223.29980 0.015159
4223.56006 0.013876
4223.81982 0.015945
4224.08008 0.013581
4224.33984 0.012937
4224.60010 0.014521
4224.85986 0.015821
4225.10986 0.014665
4225.37012 0.018208
4225.62988 0.015405
4225.89014 0.015001
4226.14990 0.016853
4226.41016 0.014719
4226.66992 0.015278
4226.91992 0.016641
4227.18018 0.017772
4227.43994 0.012807
4227.70020 0.015847
4227.95996 0.016706
4228.22021 0.018149
4228.47998 0.016193
4228.72998 0.018214
4228.99023 0.020966
4229.25000 0.017626
4229.50977 0.01808
4229.77002 0.01866
4230.02979 0.020924
4230.29004 0.023699
4230.54004 0.022465
4230.79980 0.02195
4231.06006 0.021677
4231.31982 0.021515
4231.58008 0.025528
4231.83984 0.022772
4232.10010 0.019777
4232.35010 0.019763
4232.60986 0.019621
4232.87012 0.020087
4233.12988 0.019654
4233.39014 0.022193
4233.64990 0.024019
4233.91016 0.023898
4234.16992 0.022495
4234.41992 0.027859
4234.68018 0.021166
4234.93994 0.024974
4235.20020 0.026452
4235.45996 0.02499
4235.72021 0.022728
4235.97998 0.024634
4236.22998 0.030482
4236.49023 0.031105
4236.75000 0.030878
4237.00977 0.027119
4237.27002 0.028189
4237.52979 0.022777
4237.79004 0.033174
4238.04004 0.030208
4238.29980 0.031166
4238.56006 0.028284
4238.81982 0.031138
4239.08008 0.031733
4239.33984 0.030449
4239.60010 0.033791
4239.85010 0.036923
4240.10986 0.035416
4240.37012 0.039235
4240.62988 0.038606
4240.89014 0.038003
4241.14990 0.036707
4241.41016 0.035619
4241.66016 0.038017
4241.91992 0.036378
4242.18018 0.039593
4242.43994 0.039204
4242.70020 0.040245
4242.95996 0.043018
4243.22021 0.042118
4243.47021 0.043222
4243.72998 0.041161
4243.99023 0.042324
4244.25000 0.044755
4244.50977 0.047421
4244.77002 0.044746
4245.02979 0.045795
4245.27979 0.048352
4245.54004 0.04628
4245.79980 0.04963
4246.06006 0.047376
4246.31982 0.052488
4246.58008 0.055673
4246.83984 0.049258
4247.10010 0.056329
4247.35010 0.05443
4247.60986 0.050779
4247.87012 0.056787
4248.12988 0.060028
4248.39014 0.059971
4248.64990 0.057625
4248.91016 0.060301
4249.16016 0.064071
4249.41992 0.062156
4249.68018 0.064053
4249.93994 0.065563
4250.20020 0.06445
4250.45996 0.0708
4250.72021 0.067324
4250.97021 0.063334
4251.22998 0.067871
4251.49023 0.069178
4251.75000 0.075781
4252.00977 0.07843
4252.27002 0.07962
4252.52979 0.077643
4252.77979 0.081268
4253.04004 0.078212
4253.29980 0.080788
4253.56006 0.086472
4253.81982 0.08419
4254.08008 0.083282
4254.33984 0.085272
4254.58984 0.097388
4254.85010 0.090476
4255.10986 0.084469
4255.37012 0.097227
4255.62988 0.094598
4255.89014 0.098589
4256.14990 0.101077
4256.39990 0.102959
4256.66016 0.107503
4256.91992 0.109862
4257.18018 0.107559
4257.43994 0.11172
4257.70020 0.11572
4257.95996 0.112351
4258.20996 0.121683
4258.47021 0.116583
4258.72998 0.119573
4258.99023 0.125986
4259.25000 0.125527
4259.50977 0.129186
4259.77002 0.129634
4260.02002 0.134669
4260.27979 0.137465
4260.54004 0.13295
4260.79980 0.142065
4261.06006 0.137247
4261.31982 0.145609
4261.58008 0.144021
4261.83008 0.145905
4262.08984 0.153354
4262.35010 0.159454
4262.60986 0.1579
4262.87012 0.160714
4263.12988 0.163187
4263.39014 0.162733
4263.64990 0.173505
4263.89990 0.173092
4264.16016 0.170242
4264.41992 0.182604
4264.68018 0.178427
4264.93994 0.183003
4265.20020 0.189626
4265.45996 0.194466
4265.70996 0.194416
4265.97021 0.195517
4266.22998 0.202577
4266.49023 0.212662
4266.75000 0.211991
4267.00977 0.213631
4267.27002 0.216824
4267.52002 0.219502
4267.77979 0.219039
4268.04004 0.224935
4268.29980 0.229252
4268.56006 0.235058
4268.81982 0.234951
4269.08008 0.237465
4269.33008 0.237596
4269.58984 0.25006
4269.85010 0.249487
4270.10986 0.253681
4270.37012 0.258333
4270.62988 0.262741
4270.89014 0.267129
4271.14990 0.270596
4271.39990 0.276581
4271.66016 0.271387
4271.91992 0.280626
4272.18018 0.287009
4272.43994 0.278241
4272.70020 0.293542
4272.95996 0.299774
4273.20996 0.304175
4273.47021 0.307615
4273.72998 0.307306
4273.99023 0.311741
4274.25000 0.314005
4274.50977 0.322265
4274.77002 0.31946
4275.02002 0.325596
4275.27979 0.320485
4275.54004 0.328973
4275.79980 0.330244
4276.06006 0.339145
4276.31982 0.344698
4276.58008 0.344056
4276.83008 0.349265
4277.08984 0.364404
4277.35010 0.354181
4277.60986 0.368078
4277.87012 0.374077
4278.12988 0.379449
4278.39014 0.371424
4278.64014 0.366975
4278.89990 0.387613
4279.16016 0.389195
4279.41992 0.391926
4279.68018 0.394818
4279.93994 0.398932
4280.20020 0.397621
4280.45020 0.401119
4280.70996 0.418909
4280.97021 0.423751
4281.22998 0.411379
4281.49023 0.422908
4281.75000 0.408416
4282.00977 0.414325
4282.25977 0.42522
4282.52002 0.440843
4282.77979 0.435244
4283.04004 0.432191
4283.29980 0.425101
4283.56006 0.43912
4283.81982 0.441165
4284.06982 0.447864
4284.33008 0.443402
4284.58984 0.450833
4284.85010 0.446499
4285.10986 0.453146
4285.37012 0.456685
4285.62988 0.465579
4285.87988 0.464116
4286.14014 0.465363
4286.39990 0.449759
4286.66016 0.466844
4286.91992 0.478354
4287.18018 0.488085
4287.43994 0.478227
4287.70020 0.484463
4287.95020 0.468419
4288.20996 0.482801
4288.47021 0.478161
4288.72998 0.496579
4288.99023 0.490042
4289.25000 0.492239
4289.50977 0.490243
4289.75977 0.492691
4290.02002 0.501828
4290.27979 0.4989
4290.54004 0.503201
4290.79980 0.504613
4291.06006 0.496919
4291.31982 0.509015
4291.56982 0.519133
4291.83008 0.50734
4292.08984 0.505081
4292.35010 0.515167
4292.60986 0.509325
4292.87012 0.506338
4293.12988 0.504195
4293.37988 0.512315
4293.64014 0.514408
4293.89990 0.522319
4294.16016 0.517077
4294.41992 0.523512
4294.68018 0.520606
4294.93994 0.517964
4295.18994 0.515492
4295.45020 0.516791
4295.70996 0.522595
4295.97021 0.525549
4296.22998 0.51727
4296.49023 0.526608
4296.75000 0.520151
4297.00000 0.513395
4297.25977 0.522712
4297.52002 0.529426
4297.77979 0.531035
4298.04004 0.533438
4298.29980 0.529686
4298.56006 0.524689
4298.81006 0.531477
4299.06982 0.531151
4299.33008 0.53113
4299.58984 0.528303
4299.85010 0.526851
4300.10986 0.542555
4300.37012 0.525042
4300.62012 0.54423
4300.87988 0.534903
4301.14014 0.541618
4301.39990 0.529758
4301.66016 0.541432
4301.91992 0.536467
4302.18018 0.543049
4302.43994 0.53952
4302.68994 0.535795
4302.95020 0.545599
4303.20996 0.527555
4303.47021 0.54019
4303.72998 0.537041
4303.99023 0.542333
4304.25000 0.540992
4304.50000 0.535827
4304.75977 0.534065
4305.02002 0.544531
4305.27979 0.528617
4305.54004 0.547467
4305.79980 0.530845
4306.06006 0.542156
4306.31006 0.539746
4306.56982 0.542413
4306.83008 0.521806
4307.08984 0.529931
4307.35010 0.541102
4307.60986 0.543797
4307.87012 0.544484
4308.12012 0.539872
4308.37988 0.536124
4308.64014 0.545644
4308.89990 0.534518
4309.16016 0.545454
4309.41992 0.53579
4309.68018 0.538315
4309.93018 0.540956
4310.18994 0.537311
4310.45020 0.546336
4310.70996 0.5459
4310.97021 0.537762
4311.22998 0.532949
4311.49023 0.548325
4311.75000 0.542061
4312.00000 0.537374
4312.25977 0.540129
4312.52002 0.535089
4312.77979 0.537308
4313.04004 0.536973
4313.29980 0.532258
4313.56006 0.538661
4313.81006 0.532294
4314.06982 0.537705
4314.33008 0.545935
4314.58984 0.54466
4314.85010 0.529923
4315.10986 0.543368
4315.37012 0.532697
4315.62012 0.548525
4315.87988 0.528548
4316.14014 0.540733
4316.39990 0.542293
4316.66016 0.530439
4316.91992 0.543579
4317.18018 0.54028
4317.43018 0.534667
4317.68994 0.531882
4317.95020 0.524778
4318.20996 0.529555
4318.47021 0.530418
4318.72998 0.528176
4318.99023 0.537336
4319.24023 0.541195
4319.50000 0.528104
4319.75977 0.531096
4320.02002 0.526371
4320.27979 0.53505
4320.54004 0.522155
4320.79980 0.53009
4321.04980 0.527984
4321.31006 0.520315
4321.56982 0.535966
4321.83008 0.522728
4322.08984 0.525478
4322.35010 0.521228
4322.60986 0.520036
4322.85986 0.517744
4323.12012 0.516572
4323.37988 0.525552
4323.64014 0.520745
4323.89990 0.526338
4324.16016 0.526068
4324.41992 0.531735
4324.66992 0.515025
4324.93018 0.522064
4325.18994 0.519082
4325.45020 0.519224
4325.70996 0.504823
4325.97021 0.511618
4326.22998 0.501054
4326.49023 0.496675
4326.74023 0.512212
4327.00000 0.501748
4327.25977 0.516113
4327.52002 0.517649
4327.77979 0.5111
4328.04004 0.508262
4328.29980 0.514347
4328.54980 0.503124
4328.81006 0.51493
4329.06982 0.500138
4329.33008 0.515393
4329.58984 0.501215
4329.85010 0.499323
4330.10986 0.491682
4330.35986 0.497198
4330.62012 0.503813
4330.87988 0.494944
4331.14014 0.494056
4331.39990 0.501389
4331.66016 0.487673
4331.91992 0.495426
4332.16992 0.489719
4332.43018 0.483056
4332.68994 0.484109
4332.95020 0.485463
4333.20996 0.483546
4333.47021 0.492064
4333.72998 0.494823
4333.97998 0.484061
4334.24023 0.478611
4334.50000 0.478672
4334.75977 0.480007
4335.02002 0.481755
4335.27979 0.482756
4335.54004 0.480361
4335.79004 0.492353
4336.04980 0.469437
4336.31006 0.473741
4336.56982 0.47661
4336.83008 0.478242
4337.08984 0.47757
4337.35010 0.466403
4337.60010 0.475945
4337.85986 0.467501
4338.12012 0.474391
4338.37988 0.471741
4338.64014 0.461219
4338.89990 0.464209
4339.16016 0.464092
4339.41992 0.470196
4339.66992 0.458604
4339.93018 0.467925
4340.18994 0.459861
4340.45020 0.458639
4340.70996 0.465537
4340.97021 0.454703
4341.22998 0.458312
4341.47998 0.467515
4341.74023 0.46421
4342.00000 0.456558
4342.25977 0.461387
4342.52002 0.456293
4342.77979 0.457939
4343.04004 0.459473
4343.29004 0.455425
4343.54980 0.452245
4343.81006 0.449498
4344.06982 0.453341
4344.33008 0.44966
4344.58984 0.457408
4344.85010 0.449228
4345.10010 0.448113
4345.35986 0.45052
4345.62012 0.448313
4345.87988 0.455046
4346.14014 0.447715
4346.39990 0.447434
4346.66016 0.449909
4346.91016 0.451561
4347.16992 0.445233
4347.43018 0.434479
4347.68994 0.444347
4347.95020 0.44528
4348.20996 0.440616
4348.47021 0.454865
4348.72021 0.442427
4348.97998 0.436331
4349.24023 0.444763
4349.50000 0.442823
4349.75977 0.438812
4350.02002 0.442327
4350.27979 0.449389
4350.54004 0.442356
4350.79004 0.445022
4351.04980 0.444044
4351.31006 0.433843
4351.56982 0.444721
4351.83008 0.437252
4352.08984 0.439632
4352.35010 0.441832
4352.60010 0.435511
4352.85986 0.439304
4353.12012 0.436723
4353.37988 0.441384
4353.64014 0.439082
4353.89990 0.437585
4354.16016 0.438446
4354.41016 0.43681
4354.66992 0.431542
4354.93018 0.441804
4355.18994 0.449317
4355.45020 0.439955
4355.70996 0.439089
4355.97021 0.43912
4356.22021 0.439764
4356.47998 0.441438
4356.74023 0.436904
4357.00000 0.430743
4357.25977 0.441873
4357.52002 0.440907
4357.77979 0.44012
4358.02979 0.44192
4358.29004 0.444575
4358.54980 0.43849
4358.81006 0.443639
4359.06982 0.441552
4359.33008 0.439663
4359.58984 0.437248
4359.83984 0.435511
4360.10010 0.438302
4360.35986 0.438046
4360.62012 0.445493
4360.87988 0.44981
4361.14014 0.447967
4361.39990 0.446903
4361.64990 0.443599
4361.91016 0.43628
4362.16992 0.44229
4362.43018 0.445012
4362.68994 0.449818
4362.95020 0.443737
4363.20996 0.448271
4363.45996 0.449417
4363.72021 0.45248
4363.97998 0.448066
4364.24023 0.438449
4364.50000 0.444717
4364.75977 0.452436
4365.02002 0.45483
4365.27979 0.441884
4365.52979 0.459579
4365.79004 0.450342
4366.04980 0.449449
4366.31006 0.452076
4366.56982 0.44969
4366.83008 0.449633
4367.08984 0.452034
4367.33984 0.458915
4367.60010 0.452236
4367.85986 0.458389
4368.12012 0.465923
4368.37988 0.46229
4368.64014 0.460195
4368.89990 0.45693
4369.14990 0.454968
4369.41016 0.467992
4369.66992 0.459446
4369.93018 0.462986
4370.18994 0.455145
4370.45020 0.462634
4370.70996 0.457965
4370.95996 0.457646
4371.22021 0.459676
4371.47998 0.454197
4371.74023 0.46391
4372.00000 0.461309
4372.25977 0.457541
4372.52002 0.456477
4372.77002 0.45964
4373.02979 0.45569
4373.29004 0.465253
4373.54980 0.458484
4373.81006 0.463688
4374.06982 0.465192
4374.33008 0.46492
4374.58008 0.454628
4374.83984 0.457833
4375.10010 0.459849
4375.35986 0.464139
4375.62012 0.46784
4375.87988 0.457485
4376.14014 0.452889
4376.39990 0.455021
4376.64990 0.452994
4376.91016 0.451073
4377.16992 0.45677
4377.43018 0.457802
4377.68994 0.454651
4377.95020 0.449712
4378.20996 0.449582
4378.45996 0.450582
4378.72021 0.450316
4378.97998 0.444368
4379.24023 0.434579
4379.50000 0.446119
4379.75977 0.437341
4380.02002 0.439473
4380.27002 0.436037
4380.52979 0.440677
4380.79004 0.438035
4381.04980 0.430938
4381.31006 0.429198
4381.56982 0.424551
4381.83008 0.426494
4382.08008 0.425513
4382.33984 0.424312
4382.60010 0.418072
4382.85986 0.421983
4383.12012 0.404734
4383.37988 0.408655
4383.64014 0.415424
4383.89014 0.401089
4384.14990 0.403254
4384.41016 0.398469
4384.66992 0.39851
4384.93018 0.394213
4385.18994 0.39227
4385.45020 0.380896
4385.70020 0.376741
4385.95996 0.38063
4386.22021 0.375652
4386.47998 0.367694
4386.74023 0.375862
4387.00000 0.362276
4387.25977 0.358981
4387.50977 0.361718
4387.77002 0.350874
4388.02979 0.33522
4388.29004 0.35016
4388.54980 0.348674
4388.81006 0.340726
4389.06982 0.336708
4389.33008 0.332014
4389.58008 0.328218
4389.83984 0.3244
4390.10010 0.31378
4390.35986 0.3138
4390.62012 0.314325
4390.87988 0.309066
4391.14014 0.305746
4391.39014 0.303121
4391.64990 0.293901
4391.91016 0.285686
4392.16992 0.28436
4392.43018 0.280373
4392.68994 0.278868
4392.95020 0.270743
4393.20020 0.272922
4393.45996 0.258719
4393.72021 0.260536
4393.97998 0.25638
4394.24023 0.255711
4394.50000 0.247907
4394.75977 0.245418
4395.00977 0.240097
4395.27002 0.236331
4395.52979 0.228098
4395.79004 0.22684
4396.04980 0.220334
4396.31006 0.218782
4396.56982 0.217447
4396.81982 0.210096
4397.08008 0.208383
4397.33984 0.208911
4397.60010 0.203254
4397.85986 0.194056
4398.12012 0.192667
4398.37988 0.196845
4398.62988 0.191093
4398.89014 0.18293
4399.14990 0.18273
4399.41016 0.175561
4399.66992 0.173709
4399.93018 0.170065
4400.18994 0.167125
4400.43994 0.168408
4400.70020 0.166265
4400.95996 0.16329
4401.22021 0.163332
4401.47998 0.153778
4401.74023 0.148806
4402.00000 0.14786
4402.25000 0.140888
4402.50977 0.143834
4402.77002 0.135932
4403.02979 0.139845
4403.29004 0.13429
4403.54980 0.129403
4403.81006 0.128922
4404.06982 0.129891
4404.31982 0.129931
4404.58008 0.126366
4404.83984 0.115929
4405.10010 0.119301
4405.35986 0.11368
4405.62012 0.112237
4405.87988 0.110593
4406.12988 0.107854
4406.39014 0.104274
4406.64990 0.103675
4406.91016 0.100212
4407.16992 0.101659
4407.43018 0.098364
4407.68994 0.096672
4407.93994 0.096298
4408.20020 0.095886
4408.45996 0.09119
4408.72021 0.089977
4408.97998 0.089007
4409.24023 0.086565
4409.50000 0.08519
4409.75000 0.08336
4410.00977 0.0794
4410.27002 0.082087
4410.52979 0.076365
4410.79004 0.079831
4411.04980 0.0759
4411.31006 0.072783
4411.56006 0.073538
4411.81982 0.070715
4412.08008 0.069233
4412.33984 0.07072
4412.60010 0.067736
4412.85986 0.066192
4413.12012 0.064843
4413.37988 0.064852
4413.62988 0.064722
4413.89014 0.063068
4414.14990 0.059923
4414.41016 0.059363
4414.66992 0.059666
4414.93018 0.056837
4415.18994 0.054344
4415.43994 0.058778
4415.70020 0.055267
4415.95996 0.055353
4416.22021 0.048707
4416.47998 0.052454
4416.74023 0.052292
4417.00000 0.049212
4417.25000 0.047587
4417.50977 0.049898
4417.77002 0.047526
4418.02979 0.045574
4418.29004 0.046241
4418.54980 0.046083
4418.81006 0.043977
4419.06006 0.042817
4419.31982 0.045853
4419.58008 0.04366
4419.83984 0.04321
4420.10010 0.043001
4420.35986 0.04069
4420.62012 0.041107
4420.87012 0.042539
4421.12988 0.038524
4421.39014 0.039404
4421.64990 0.037632
4421.91016 0.036243
4422.16992 0.038879
4422.43018 0.036619
4422.68018 0.036465
4422.93994 0.035251
4423.20020 0.035958
4423.45996 0.032702
4423.72021 0.034292
4423.97998 0.035697
4424.24023 0.036862
4424.49023 0.030858
4424.75000 0.030414
4425.00977 0.031547
4425.27002 0.029945
4425.52979 0.028342
4425.79004 0.029713
4426.04980 0.026329
4426.29980 0.029237
4426.56006 0.02813
4426.81982 0.028809
4427.08008 0.025812
4427.33984 0.026059
4427.60010 0.026097
4427.85986 0.025607
4428.12012 0.025598
4428.37012 0.027476
4428.62988 0.023684
4428.89014 0.026815
4429.14990 0.0233
4429.41016 0.024315
4429.66992 0.024935
4429.93018 0.022946
4430.18018 0.023821
4430.43994 0.023537
4430.70020 0.021221
4430.95996 0.022756
4431.22021 0.024132
4431.47998 0.022648
4431.74023 0.021357
4431.99023 0.021255
4432.25000 0.02059
4432.50977 0.020185
4432.77002 0.018386
4433.02979 0.023107
4433.29004 0.018373
4433.54980 0.020834
4433.79980 0.016675
4434.06006 0.019868
4434.31982 0.017408
4434.58008 0.017712
4434.83984 0.019534
4435.10010 0.015785
4435.35986 0.01877
4435.60986 0.015148
4435.87012 0.018841
4436.12988 0.01572
4436.39014 0.016653
4436.64990 0.015348
4436.91016 0.019155
4437.16992 0.016017
4437.41992 0.014783
4437.68018 0.01608
4437.93994 0.014545
4438.20020 0.015145
4438.45996 0.01698
4438.72021 0.014768
4438.97998 0.012995
4439.22998 0.015568
4439.49023 0.016167
4439.75000 0.014922
4440.00977 0.013769
4440.27002 0.012244
4440.52979 0.014041
4440.79004 0.015933
4441.04004 0.01502
4441.29980 0.013174
4441.56006 0.012731
4441.81982 0.013555
4442.08008 0.011938
4442.33984 0.013294
4442.60010 0.013221
4442.85010 0.011302
4443.10986 0.010062
4443.37012 0.011311
4443.62988 0.010779
4443.89014 0.010885
4444.14990 0.010493
4444.41016 0.009032
4444.66992 0.011879
4444.91992 0.010179
4445.18018 0.010624
4445.43994 0.009001
4445.70020 0.008389
4445.95996 0.009182
4446.22021 0.011077
4446.47998 0.011728
4446.72998 0.010011
4446.99023 0.009055
4447.25000 0.009915
4447.50977 0.009709
4447.77002 0.009324
4448.02979 0.010722
4448.29004 0.010404
4448.54004 0.011858
4448.79980 0.010686
4449.06006 0.007629
4449.31982 0.00797
4449.58008 0.006922
4449.83984 0.010429
4450.10010 0.00986
4450.35010 0.008563
4450.60986 0.008552
4450.87012 0.008066
4451.12988 0.007841
4451.39014 0.009822
4451.64990 0.005055
4451.91016 0.006723
4452.16992 0.00493
4452.41992 0.008246
4452.68018 0.007579
4452.93994 0.00865
4453.20020 0.007311
4453.45996 0.009156
4453.72021 0.007281
4453.97998 0.005708
4454.22998 0.007936
4454.49023 0.007967
4454.75000 0.00688
4455.00977 0.009142
4455.27002 0.006513
4455.52979 0.008251
4455.79004 0.007077
4456.04004 0.007661
4456.29980 0.005863
4456.56006 0.006391
4456.81982 0.006887
4457.08008 0.006427
4457.33984 0.00667
4457.60010 0.007005
4457.85010 0.005459
4458.10986 0.007188
4458.37012 0.006164
4458.62988 0.005689
4458.89014 0.00728
4459.14990 0.005374
4459.41016 0.005834
4459.66016 0.006773
4459.91992 0.004851
4460.18018 0.004871
4460.43994 0.006993
4460.70020 0.006814
4460.95996 0.007117
4461.22021 0.005261
4461.47021 0.004919
4461.72998 0.006316
4461.99023 0.00517
4462.25000 0.005313
4462.50977 0.005752
4462.77002 0.004793
4463.02979 0.007041
4909.33301 0.0
