# %ECSV 0.9
# ---
# datatype:
# - {name: wavelength, unit: Angstrom, datatype: float32}
# - {name: response, datatype: float32}
# meta: !!omap
# - {band_name: f_546_10}
# - {group_name: CAHA}
wavelength response
4810.90527 0.0
5345.45020 0.004061
5345.70996 0.003642
5345.97021 0.003892
5346.22998 0.004206
5346.50000 0.004036
5346.75977 0.003887
5347.02002 0.003954
5347.27979 0.003722
5347.54004 0.004139
5347.79980 0.004198
5348.06006 0.004274
5348.31982 0.00412
5348.58008 0.004303
5348.85010 0.004335
5349.10986 0.004313
5349.37012 0.004547
5349.62988 0.004635
5349.89014 0.004264
5350.14990 0.004565
5350.41016 0.004667
5350.66992 0.004323
5350.93994 0.004648
5351.20020 0.004517
5351.45996 0.004385
5351.72021 0.004395
5351.97998 0.004789
5352.24023 0.004912
5352.50000 0.004797
5352.75977 0.004882
5353.02979 0.005059
5353.29004 0.004694
5353.54980 0.004967
5353.81006 0.00511
5354.06982 0.005022
5354.33008 0.005084
5354.58984 0.005533
5354.85010 0.005455
5355.12012 0.005069
5355.37988 0.005047
5355.64014 0.00526
5355.89990 0.005232
5356.16016 0.005458
5356.41992 0.005485
5356.68018 0.005803
5356.93994 0.005487
5357.20020 0.005844
5357.47021 0.005721
5357.72998 0.006063
5357.99023 0.005935
5358.25000 0.006103
5358.50977 0.006401
5358.77002 0.006167
5359.02979 0.006124
5359.29004 0.006298
5359.56006 0.006163
5359.81982 0.006504
5360.08008 0.006295
5360.33984 0.006287
5360.60010 0.006656
5360.85986 0.006642
5361.12012 0.006769
5361.37988 0.006741
5361.64990 0.006945
5361.91016 0.006679
5362.16992 0.006882
5362.43018 0.006957
5362.68994 0.007102
5362.95020 0.00724
5363.20996 0.00748
5363.47021 0.007249
5363.72998 0.007515
5364.00000 0.007495
5364.25977 0.007777
5364.52002 0.007891
5364.77979 0.007743
5365.04004 0.007643
5365.29980 0.008061
5365.56006 0.007689
5365.81982 0.008032
5366.08984 0.00815
5366.35010 0.008273
5366.60986 0.008172
5366.87012 0.008455
5367.12988 0.008572
5367.39014 0.008719
5367.64990 0.008838
5367.91016 0.008913
5368.18018 0.009265
5368.43994 0.008961
5368.70020 0.009271
5368.95996 0.009355
5369.22021 0.009317
5369.47998 0.009261
5369.74023 0.009601
5370.00000 0.009794
5370.25977 0.01011
5370.52979 0.010132
5370.79004 0.010001
5371.04980 0.010193
5371.31006 0.010102
5371.56982 0.010421
5371.83008 0.010485
5372.08984 0.010646
5372.35010 0.010855
5372.62012 0.010919
5372.87988 0.01142
5373.14014 0.011356
5373.39990 0.011358
5373.66016 0.01163
5373.91992 0.011695
5374.18018 0.011935
5374.43994 0.012082
5374.70996 0.012437
5374.97021 0.012391
5375.22998 0.012282
5375.49023 0.012915
5375.75000 0.012902
5376.00977 0.013138
5376.27002 0.01333
5376.52979 0.013457
5376.79004 0.014191
5377.06006 0.014127
5377.31982 0.01417
5377.58008 0.014254
5377.83984 0.014627
5378.10010 0.014203
5378.35986 0.014424
5378.62012 0.014928
5378.87988 0.01503
5379.14990 0.015473
5379.41016 0.015474
5379.66992 0.0158
5379.93018 0.016173
5380.18994 0.016554
5380.45020 0.016453
5380.70996 0.016846
5380.97021 0.016881
5381.24023 0.017329
5381.50000 0.017478
5381.75977 0.017644
5382.02002 0.018342
5382.27979 0.018491
5382.54004 0.018644
5382.79980 0.019121
5383.06006 0.018987
5383.31982 0.019728
5383.58984 0.019534
5383.85010 0.01988
5384.10986 0.020047
5384.37012 0.020731
5384.62988 0.020991
5384.89014 0.02144
5385.14990 0.021499
5385.41016 0.021643
5385.68018 0.0227
5385.93994 0.02305
5386.20020 0.023117
5386.45996 0.023296
5386.72021 0.02392
5386.97998 0.02439
5387.24023 0.024764
5387.50000 0.025158
5387.77002 0.025116
5388.02979 0.025265
5388.29004 0.026721
5388.54980 0.026539
5388.81006 0.026361
5389.06982 0.027114
5389.33008 0.027229
5389.58984 0.027969
5389.85010 0.028353
5390.12012 0.029411
5390.37988 0.030657
5390.64014 0.030712
5390.89990 0.030988
5391.16016 0.031304
5391.41992 0.032092
5391.68018 0.032523
5391.93994 0.032674
5392.20996 0.033606
5392.47021 0.03427
5392.72998 0.034247
5392.99023 0.035271
5393.25000 0.035622
5393.50977 0.036559
5393.77002 0.036955
5394.02979 0.037677
5394.29980 0.038391
5394.56006 0.039213
5394.81982 0.039541
5395.08008 0.040652
5395.33984 0.041415
5395.60010 0.041948
5395.85986 0.042397
5396.12012 0.043627
5396.37988 0.044374
5396.64990 0.044502
5396.91016 0.045546
5397.16992 0.04724
5397.43018 0.048218
5397.68994 0.048529
5397.95020 0.049676
5398.20996 0.050639
5398.47021 0.050265
5398.74023 0.051377
5399.00000 0.05309
5399.25977 0.053819
5399.52002 0.055515
5399.77979 0.056655
5400.04004 0.056519
5400.29980 0.058021
5400.56006 0.058697
5400.83008 0.060058
5401.08984 0.060949
5401.35010 0.06297
5401.60986 0.063989
5401.87012 0.064798
5402.12988 0.065964
5402.39014 0.067858
5402.64990 0.069596
5402.91992 0.070536
5403.18018 0.071909
5403.43994 0.073617
5403.70020 0.074648
5403.95996 0.075248
5404.22021 0.0766
5404.47998 0.078393
5404.74023 0.080736
5405.00000 0.08124
5405.27002 0.082863
5405.52979 0.085961
5405.79004 0.087023
5406.04980 0.089647
5406.31006 0.090485
5406.56982 0.092049
5406.83008 0.092826
5407.08984 0.096373
5407.35010 0.097231
5407.62012 0.099275
5407.87988 0.101282
5408.14014 0.102299
5408.39990 0.105729
5408.66016 0.107565
5408.91992 0.110938
5409.18018 0.112217
5409.43994 0.112477
5409.70996 0.115618
5409.97021 0.119081
5410.22998 0.121325
5410.49023 0.122742
5410.75000 0.124583
5411.00977 0.128968
5411.27002 0.130875
5411.52979 0.132672
5411.79980 0.134706
5412.06006 0.136869
5412.31982 0.140994
5412.58008 0.141988
5412.83984 0.146739
5413.10010 0.147561
5413.35986 0.152877
5413.62012 0.15461
5413.89014 0.158355
5414.14990 0.160799
5414.41016 0.164284
5414.66992 0.166744
5414.93018 0.170834
5415.18994 0.174141
5415.45020 0.177426
5415.70996 0.181202
5415.97021 0.183234
5416.24023 0.18653
5416.50000 0.190576
5416.75977 0.194063
5417.02002 0.197065
5417.27979 0.201168
5417.54004 0.205801
5417.79980 0.209801
5418.06006 0.212016
5418.33008 0.21594
5418.58984 0.221145
5418.85010 0.224195
5419.10986 0.228218
5419.37012 0.231626
5419.62988 0.237249
5419.89014 0.239611
5420.14990 0.24506
5420.41992 0.247597
5420.68018 0.252072
5420.93994 0.256136
5421.20020 0.260727
5421.45996 0.264803
5421.72021 0.269257
5421.97998 0.273103
5422.24023 0.277304
5422.50000 0.282236
5422.77002 0.286798
5423.02979 0.29103
5423.29004 0.296467
5423.54980 0.299256
5423.81006 0.303958
5424.06982 0.307214
5424.33008 0.312146
5424.58984 0.317269
5424.85986 0.322457
5425.12012 0.325861
5425.37988 0.331248
5425.64014 0.334687
5425.89990 0.341071
5426.16016 0.34625
5426.41992 0.351111
5426.68018 0.35258
5426.95020 0.357171
5427.20996 0.363524
5427.47021 0.368804
5427.72998 0.372245
5427.99023 0.375327
5428.25000 0.382644
5428.50977 0.383822
5428.77002 0.38638
5429.02979 0.393674
5429.29980 0.396102
5429.56006 0.40229
5429.81982 0.404796
5430.08008 0.4095
5430.33984 0.413328
5430.60010 0.41763
5430.85986 0.418722
5431.12012 0.426068
5431.39014 0.427322
5431.64990 0.433676
5431.91016 0.435304
5432.16992 0.44074
5432.43018 0.44415
5432.68994 0.446634
5432.95020 0.450741
5433.20996 0.453533
5433.47998 0.45621
5433.74023 0.460673
5434.00000 0.465665
5434.25977 0.466629
5434.52002 0.470809
5434.77979 0.471597
5435.04004 0.47801
5435.29980 0.480082
5435.56006 0.482107
5435.83008 0.486372
5436.08984 0.48594
5436.35010 0.489488
5436.60986 0.490725
5436.87012 0.49508
5437.12988 0.496609
5437.39014 0.500217
5437.64990 0.501284
5437.91992 0.501672
5438.18018 0.505972
5438.43994 0.504366
5438.70020 0.509769
5438.95996 0.512849
5439.22021 0.512036
5439.47998 0.516295
5439.74023 0.516838
5440.00977 0.518599
5440.27002 0.523605
5440.52979 0.522247
5440.79004 0.522754
5441.04980 0.52544
5441.31006 0.525511
5441.56982 0.528329
5441.83008 0.527415
5442.08984 0.531416
5442.35986 0.529585
5442.62012 0.531811
5442.87988 0.532818
5443.14014 0.531806
5443.39990 0.538449
5443.66016 0.536866
5443.91992 0.536849
5444.18018 0.53659
5444.45020 0.537248
5444.70996 0.539053
5444.97021 0.540983
5445.22998 0.542373
5445.49023 0.540956
5445.75000 0.540547
5446.00977 0.539697
5446.27002 0.541586
5446.54004 0.543321
5446.79980 0.542956
5447.06006 0.544218
5447.31982 0.544941
5447.58008 0.545145
5447.83984 0.545648
5448.10010 0.547261
5448.35986 0.54458
5448.62012 0.542652
5448.89014 0.545311
5449.14990 0.546064
5449.41016 0.544875
5449.66992 0.545256
5449.93018 0.544163
5450.18994 0.547771
5450.45020 0.544069
5450.70996 0.543966
5450.97998 0.544632
5451.24023 0.549459
5451.50000 0.547164
5451.75977 0.547132
5452.02002 0.547988
5452.27979 0.545266
5452.54004 0.54201
5452.79980 0.545836
5453.06982 0.546155
5453.33008 0.546542
5453.58984 0.54762
5453.85010 0.546094
5454.10986 0.547572
5454.37012 0.548677
5454.62988 0.543493
5454.89014 0.546139
5455.14990 0.546127
5455.41992 0.546315
5455.68018 0.5477
5455.93994 0.544361
5456.20020 0.546383
5456.45996 0.543858
5456.72021 0.544811
5456.97998 0.545766
5457.24023 0.541643
5457.50977 0.545548
5457.77002 0.544366
5458.02979 0.545264
5458.29004 0.544889
5458.54980 0.545555
5458.81006 0.545343
5459.06982 0.545674
5459.33008 0.544529
5459.60010 0.545279
5459.85986 0.545114
5460.12012 0.54329
5460.37988 0.541536
5460.64014 0.543638
5460.89990 0.543386
5461.16016 0.543047
5461.41992 0.54236
5461.68018 0.542161
5461.95020 0.541527
5462.20996 0.542129
5462.47021 0.541238
5462.72998 0.541746
5462.99023 0.544098
5463.25000 0.540948
5463.50977 0.543651
5463.77002 0.541428
5464.04004 0.539737
5464.29980 0.539366
5464.56006 0.540288
5464.81982 0.541855
5465.08008 0.542758
5465.33984 0.541383
5465.60010 0.541509
5465.85986 0.541647
5466.12012 0.541376
5466.39014 0.540858
5466.64990 0.538073
5466.91016 0.540849
5467.16992 0.540156
5467.43018 0.540739
5467.68994 0.537899
5467.95020 0.539946
5468.20996 0.53941
5468.47998 0.541134
5468.74023 0.535257
5469.00000 0.537822
5469.25977 0.539609
5469.52002 0.53969
5469.77979 0.540108
5470.04004 0.536478
5470.29980 0.540291
5470.56982 0.540738
5470.83008 0.536952
5471.08984 0.537353
5471.35010 0.537965
5471.60986 0.535993
5471.87012 0.538341
5472.12988 0.537112
5472.39014 0.537493
5472.66016 0.536711
5472.91992 0.53776
5473.18018 0.536896
5473.43994 0.537409
5473.70020 0.538852
5473.95996 0.537657
5474.22021 0.539582
5474.47998 0.536585
5474.74023 0.536037
5475.00977 0.536618
5475.27002 0.53476
5475.52979 0.536176
5475.79004 0.537621
5476.04980 0.538125
5476.31006 0.535808
5476.56982 0.53508
5476.83008 0.535266
5477.10010 0.535469
5477.35986 0.534965
5477.62012 0.534803
5477.87988 0.536111
5478.14014 0.534813
5478.39990 0.536603
5478.66016 0.534022
5478.91992 0.536744
5479.18994 0.533923
5479.45020 0.534978
5479.70996 0.53668
5479.97021 0.534711
5480.22998 0.534426
5480.49023 0.532265
5480.75000 0.532588
5481.00977 0.532214
5481.27002 0.531245
5481.54004 0.533322
5481.79980 0.532653
5482.06006 0.533582
5482.31982 0.531022
5482.58008 0.53228
5482.83984 0.531036
5483.10010 0.530998
5483.35986 0.530677
5483.62988 0.531834
5483.89014 0.527861
5484.14990 0.5298
5484.41016 0.531867
5484.66992 0.530753
5484.93018 0.531017
5485.18994 0.528516
5485.45020 0.532498
5485.72021 0.52753
5485.97998 0.528031
5486.24023 0.525911
5486.50000 0.526818
5486.75977 0.526493
5487.02002 0.527657
5487.27979 0.527122
5487.54004 0.526578
5487.79980 0.527066
5488.06982 0.528337
5488.33008 0.520458
5488.58984 0.526916
5488.85010 0.523707
5489.10986 0.524891
5489.37012 0.52141
5489.62988 0.522527
5489.89014 0.519292
5490.16016 0.525704
5490.41992 0.522489
5490.68018 0.521052
5490.93994 0.52172
5491.20020 0.521253
5491.45996 0.521762
5491.72021 0.520947
5491.97998 0.517127
5492.25000 0.518744
5492.50977 0.515186
5492.77002 0.515612
5493.02979 0.516367
5493.29004 0.517119
5493.54980 0.514523
5493.81006 0.517266
5494.06982 0.512554
5494.33008 0.515169
5494.60010 0.513318
5494.85986 0.513433
5495.12012 0.511118
5495.37988 0.51285
5495.64014 0.509002
5495.89990 0.506438
5496.16016 0.507952
5496.41992 0.507042
5496.68994 0.507575
5496.95020 0.505551
5497.20996 0.504994
5497.47021 0.505334
5497.72998 0.504457
5497.99023 0.502958
5498.25000 0.502212
5498.50977 0.496563
5498.77979 0.497961
5499.04004 0.49769
5499.29980 0.49496
5499.56006 0.495475
5499.81982 0.494363
5500.08008 0.493309
5500.33984 0.49053
5500.60010 0.489683
5500.85986 0.489833
5501.12988 0.487904
5501.39014 0.488951
5501.64990 0.484205
5501.91016 0.483388
5502.16992 0.481521
5502.43018 0.482661
5502.68994 0.480218
5502.95020 0.473861
5503.22021 0.475748
5503.47998 0.474636
5503.74023 0.472768
5504.00000 0.470675
5504.25977 0.469149
5504.52002 0.467997
5504.77979 0.467174
5505.04004 0.464031
5505.31006 0.462217
5505.56982 0.459895
5505.83008 0.458899
5506.08984 0.45788
5506.35010 0.455506
5506.60986 0.452878
5506.87012 0.449126
5507.12988 0.448954
5507.39990 0.446548
5507.66016 0.442792
5507.91992 0.441096
5508.18018 0.438462
5508.43994 0.434436
5508.70020 0.437077
5508.95996 0.432446
5509.22021 0.429781
5509.47998 0.425506
5509.75000 0.425343
5510.00977 0.421962
5510.27002 0.420323
5510.52979 0.417386
5510.79004 0.414236
5511.04980 0.411259
5511.31006 0.409597
5511.56982 0.407355
5511.83008 0.402547
5512.10010 0.400469
5512.35986 0.39549
5512.62012 0.395701
5512.87988 0.390997
5513.14014 0.388397
5513.39990 0.384561
5513.66016 0.384727
5513.91992 0.380705
5514.18994 0.375111
5514.45020 0.375132
5514.70996 0.369626
5514.97021 0.366118
5515.22998 0.361836
5515.49023 0.358393
5515.75000 0.357233
5516.00977 0.352493
5516.27979 0.350446
5516.54004 0.347436
5516.79980 0.343855
5517.06006 0.340774
5517.31982 0.336437
5517.58008 0.330871
5517.83984 0.329259
5518.10010 0.324345
5518.37012 0.323098
5518.62988 0.31919
5518.89014 0.314207
5519.14990 0.310844
5519.41016 0.308337
5519.66992 0.303739
5519.93018 0.300977
5520.18994 0.298063
5520.45020 0.293323
5520.72021 0.289537
5520.97998 0.287642
5521.24023 0.282471
5521.50000 0.279404
5521.75977 0.276802
5522.02002 0.273189
5522.27979 0.268677
5522.54004 0.264127
5522.81006 0.262793
5523.06982 0.260793
5523.33008 0.254954
5523.58984 0.249297
5523.85010 0.247923
5524.10986 0.245221
5524.37012 0.241541
5524.62988 0.239009
5524.89990 0.234653
5525.16016 0.232818
5525.41992 0.227403
5525.68018 0.225143
5525.93994 0.220824
5526.20020 0.218817
5526.45996 0.214627
5526.72021 0.203513
5526.97998 0.205811
5527.25000 0.206284
5527.50977 0.202689
5527.77002 0.200702
5528.02979 0.197319
5528.29004 0.192826
5528.54980 0.189947
5528.81006 0.187335
5529.06982 0.185535
5529.33984 0.182013
5529.60010 0.177634
5529.85986 0.1765
5530.12012 0.1742
5530.37988 0.171087
5530.64014 0.168829
5530.89990 0.165334
5531.16016 0.163122
5531.43018 0.1588
5531.68994 0.157165
5531.95020 0.153322
5532.20996 0.151901
5532.47021 0.150126
5532.72998 0.14594
5532.99023 0.143529
5533.25000 0.140813
5533.50977 0.138144
5533.77979 0.137122
5534.04004 0.134478
5534.29980 0.1311
5534.56006 0.129645
5534.81982 0.127239
5535.08008 0.125701
5535.33984 0.123726
5535.60010 0.120396
5535.87012 0.119427
5536.12988 0.117539
5536.39014 0.114664
5536.64990 0.113316
5536.91016 0.110705
5537.16992 0.109039
5537.43018 0.106677
5537.68994 0.104909
5537.95996 0.103106
5538.22021 0.10098
5538.47998 0.099376
5538.74023 0.097616
5539.00000 0.095207
5539.25977 0.094465
5539.52002 0.092155
5539.77979 0.091054
5540.04004 0.089376
5540.31006 0.087932
5540.56982 0.086665
5540.83008 0.08476
5541.08984 0.083565
5541.35010 0.081873
5541.60986 0.080355
5541.87012 0.079573
5542.12988 0.078109
5542.39990 0.076514
5542.66016 0.07474
5542.91992 0.074013
5543.18018 0.07384
5543.43994 0.071056
5543.70020 0.070506
5543.95996 0.068565
5544.22021 0.067638
5544.49023 0.066356
5544.75000 0.065949
5545.00977 0.064687
5545.27002 0.062646
5545.52979 0.061834
5545.79004 0.06063
5546.04980 0.059543
5546.31006 0.059087
5546.56982 0.057362
5546.83984 0.057212
5547.10010 0.055104
5547.35986 0.054523
5547.62012 0.053615
5547.87988 0.053356
5548.14014 0.051531
5548.39990 0.050639
5548.66016 0.050684
5548.93018 0.048699
5549.18994 0.048465
5549.45020 0.047395
5549.70996 0.047271
5549.97021 0.046085
5550.22998 0.04512
5550.49023 0.044811
5550.75000 0.043849
5551.02002 0.042821
5551.27979 0.042642
5551.54004 0.041735
5551.79980 0.04152
5552.06006 0.039893
5552.31982 0.039988
5552.58008 0.038736
5552.83984 0.038413
5553.10010 0.037556
5553.37012 0.03681
5553.62988 0.036666
5553.89014 0.036135
5554.14990 0.035185
5554.41016 0.034803
5554.66992 0.034057
5554.93018 0.033406
5555.18994 0.032882
5555.45996 0.032814
5555.72021 0.032652
5555.97998 0.031466
5556.24023 0.030571
5556.50000 0.030755
5556.75977 0.030208
5557.02002 0.029429
5557.27979 0.02916
5557.54980 0.028538
5557.81006 0.028262
5558.06982 0.027786
5558.33008 0.027414
5558.58984 0.026806
5558.85010 0.026308
5559.10986 0.026166
5559.37012 0.025455
5559.62988 0.025
5559.89990 0.025159
5560.16016 0.024351
5560.41992 0.024219
5560.68018 0.02357
5560.93994 0.023326
5561.20020 0.02295
5561.45996 0.022725
5561.72021 0.022202
5561.99023 0.021947
5562.25000 0.021696
5562.50977 0.021485
5562.77002 0.020928
5563.02979 0.020015
5563.29004 0.020064
5563.54980 0.020512
5563.81006 0.019785
5564.08008 0.019764
5564.33984 0.019392
5564.60010 0.019174
5564.85986 0.018671
5565.12012 0.018292
5565.37988 0.017989
5565.64014 0.017648
5565.89990 0.01719
5566.16992 0.017338
5566.43018 0.016669
5566.68994 0.016698
5566.95020 0.016185
5567.20996 0.016158
5567.47021 0.016021
5567.72998 0.015873
5567.99023 0.015584
5568.25000 0.01525
5568.52002 0.015027
5568.77979 0.015143
5569.04004 0.0149
5569.29980 0.014439
5569.56006 0.014629
5569.81982 0.013956
5570.08008 0.013905
5570.33984 0.013834
5570.60010 0.013711
5570.87012 0.013344
5571.12988 0.013176
5571.39014 0.013138
5571.64990 0.013077
5571.91016 0.012523
5572.16992 0.012498
5572.43018 0.012365
5572.68994 0.012156
5572.95996 0.012188
5573.22021 0.011938
5573.47998 0.011627
5573.74023 0.011691
5574.00000 0.011659
5574.25977 0.011314
5574.52002 0.011314
5574.77979 0.011007
5575.04980 0.011221
5575.31006 0.010634
5575.56982 0.010729
5575.83008 0.010419
5576.08984 0.010352
5576.35010 0.010144
5576.60986 0.010063
5576.87012 0.010157
5577.14014 0.009652
5577.39990 0.009872
5577.66016 0.009576
5577.91992 0.009536
5578.18018 0.009472
5578.43994 0.009131
5578.70020 0.00885
5578.95996 0.009026
5579.22021 0.00895
5579.49023 0.008597
5579.75000 0.009072
5580.00977 0.00855
5580.27002 0.008457
5580.52979 0.008433
5580.79004 0.008208
5581.04980 0.008021
5581.31006 0.008154
5581.58008 0.008068
5581.83984 0.007564
5582.10010 0.007837
5582.35986 0.007814
5582.62012 0.00752
5582.87988 0.007456
5583.14014 0.007381
5583.39990 0.007531
5583.66992 0.007266
5583.93018 0.007137
5584.18994 0.007166
5584.45020 0.006931
5584.70996 0.007124
5584.97021 0.006749
5585.22998 0.006783
5585.49023 0.006566
5585.75000 0.006515
5586.02002 0.006388
5586.27979 0.006579
5586.54004 0.006361
5586.79980 0.006324
5587.06006 0.006313
5587.31982 0.006096
5587.58008 0.00624
5587.83984 0.006346
5588.10986 0.00591
5588.37012 0.006075
5588.62988 0.005961
5588.89014 0.00568
5589.14990 0.005684
5589.41016 0.00573
5589.66992 0.005689
5589.93018 0.005589
5590.20020 0.005559
5590.45996 0.005425
5590.72021 0.005455
5590.97998 0.005435
5591.24023 0.005451
5591.50000 0.005111
5591.75977 0.005175
5592.02002 0.005201
5592.27979 0.005085
5592.54980 0.00501
5592.81006 0.005212
5593.06982 0.004736
5593.33008 0.004879
5593.58984 0.004698
5593.85010 0.00473
5594.10986 0.00471
5594.37012 0.004629
5594.64014 0.004732
5594.89990 0.004635
5595.16016 0.004661
5595.41992 0.004329
5595.68018 0.004419
5595.93994 0.004498
5596.20020 0.004493
5596.45996 0.004582
5596.72998 0.004234
5596.99023 0.004189
5597.25000 0.004226
5597.50977 0.004262
5597.77002 0.004221
5598.02979 0.004226
5598.29004 0.004013
5598.54980 0.004164
5598.81006 0.004077
6158.69092 0.0
