# %ECSV 0.9
# ---
# datatype:
# - {name: wavelength, unit: Angstrom, datatype: float32}
# - {name: response, datatype: float32}
# meta: !!omap
# - {band_name: f_614_28}
# - {group_name: CAHA}
wavelength response
5200.75830 0.0
5778.62012 0.004081
5778.87988 0.003842
5779.14014 0.003659
5779.39990 0.003803
5779.66016 0.004115
5779.91992 0.004091
5780.18018 0.003877
5780.43994 0.003704
5780.70020 0.004371
5780.95996 0.004047
5781.22998 0.003785
5781.49023 0.00374
5781.75000 0.004171
5782.00977 0.004206
5782.27002 0.003992
5782.52979 0.003872
5782.79004 0.004073
5783.04980 0.004301
5783.31006 0.004191
5783.56982 0.00402
5783.83008 0.004421
5784.08984 0.004514
5784.35010 0.004262
5784.60986 0.003804
5784.87012 0.004312
5785.12988 0.004495
5785.39014 0.004291
5785.64990 0.003884
5785.91016 0.004169
5786.16992 0.004665
5786.43994 0.004469
5786.70020 0.004244
5786.95996 0.004261
5787.22021 0.004533
5787.47998 0.004589
5787.74023 0.004228
5788.00000 0.004366
5788.25977 0.004776
5788.52002 0.004433
5788.77979 0.004411
5789.04004 0.004381
5789.29980 0.00455
5789.56006 0.004744
5789.81982 0.004542
5790.08008 0.004245
5790.33984 0.004526
5790.60010 0.004845
5790.85986 0.004787
5791.12012 0.004579
5791.37988 0.004517
5791.64990 0.005101
5791.91016 0.004818
5792.16992 0.004733
5792.43018 0.004531
5792.68994 0.004979
5792.95020 0.004757
5793.20996 0.004473
5793.47021 0.004933
5793.72998 0.005032
5793.99023 0.004998
5794.25000 0.004738
5794.50977 0.004615
5794.77002 0.004979
5795.02979 0.005267
5795.29004 0.004736
5795.54980 0.004474
5795.81006 0.004988
5796.06982 0.005453
5796.33008 0.004999
5796.60010 0.004801
5796.85986 0.005162
5797.12012 0.00548
5797.37988 0.005295
5797.64014 0.005025
5797.89990 0.005073
5798.16016 0.005561
5798.41992 0.005354
5798.68018 0.004859
5798.93994 0.005038
5799.20020 0.005568
5799.45996 0.00578
5799.72021 0.00501
5799.97998 0.005101
5800.24023 0.005566
5800.50000 0.005741
5800.75977 0.00528
5801.02002 0.005207
5801.27979 0.005607
5801.54004 0.005679
5801.81006 0.005506
5802.06982 0.005132
5802.33008 0.00542
5802.58984 0.006103
5802.85010 0.005922
5803.10986 0.005142
5803.37012 0.00556
5803.62988 0.00618
5803.89014 0.005838
5804.14990 0.005619
5804.41016 0.005472
5804.66992 0.005862
5804.93018 0.006123
5805.18994 0.005835
5805.45020 0.005632
5805.70996 0.006147
5805.97021 0.006275
5806.22998 0.005878
5806.49023 0.005415
5806.75000 0.00614
5807.02002 0.006221
5807.27979 0.005855
5807.54004 0.005656
5807.79980 0.00587
5808.06006 0.006357
5808.31982 0.006185
5808.58008 0.006009
5808.83984 0.005926
5809.10010 0.006501
5809.35986 0.00622
5809.62012 0.006126
5809.87988 0.005974
5810.14014 0.006451
5810.39990 0.006655
5810.66016 0.006113
5810.91992 0.006066
5811.18018 0.006563
5811.43994 0.006867
5811.70020 0.006282
5811.95996 0.006009
5812.22998 0.006599
5812.49023 0.006806
5812.75000 0.00666
5813.00977 0.006107
5813.27002 0.006476
5813.52979 0.006984
5813.79004 0.006754
5814.04980 0.00638
5814.31006 0.006536
5814.56982 0.00707
5814.83008 0.00726
5815.08984 0.006293
5815.35010 0.006621
5815.60986 0.006847
5815.87012 0.007114
5816.12988 0.00687
5816.39014 0.006578
5816.64990 0.007114
5816.91016 0.007349
5817.16992 0.006971
5817.43994 0.006732
5817.70020 0.007129
5817.95996 0.007514
5818.22021 0.007204
5818.47998 0.006678
5818.74023 0.007201
5819.00000 0.007738
5819.25977 0.007414
5819.52002 0.007141
5819.77979 0.006975
5820.04004 0.007557
5820.29980 0.007635
5820.56006 0.007157
5820.81982 0.007109
5821.08008 0.007942
5821.33984 0.007906
5821.60010 0.007372
5821.85986 0.007226
5822.12012 0.007802
5822.37988 0.007868
5822.64990 0.00791
5822.91016 0.007021
5823.16992 0.007601
5823.43018 0.008032
5823.68994 0.008027
5823.95020 0.007391
5824.20996 0.007471
5824.47021 0.0082
5824.72998 0.008199
5824.99023 0.007618
5825.25000 0.007961
5825.50977 0.007897
5825.77002 0.008338
5826.02979 0.007907
5826.29004 0.007799
5826.54980 0.008118
5826.81006 0.008567
5827.06982 0.00808
5827.33008 0.007608
5827.58984 0.007944
5827.85010 0.008804
5828.12012 0.008367
5828.37988 0.007976
5828.64014 0.008318
5828.89990 0.008818
5829.16016 0.009001
5829.41992 0.008582
5829.68018 0.00832
5829.93994 0.008673
5830.20020 0.00907
5830.45996 0.008326
5830.72021 0.008513
5830.97998 0.008807
5831.24023 0.008883
5831.50000 0.008474
5831.75977 0.0088
5832.02002 0.008894
5832.27979 0.009238
5832.54004 0.008782
5832.79980 0.008759
5833.06006 0.008999
5833.33008 0.009183
5833.58984 0.009381
5833.85010 0.009024
5834.10986 0.009118
5834.37012 0.009213
5834.62988 0.009438
5834.89014 0.008922
5835.14990 0.008898
5835.41016 0.009444
5835.66992 0.009607
5835.93018 0.009126
5836.18994 0.009549
5836.45020 0.009821
5836.70996 0.009994
5836.97021 0.009288
5837.22998 0.009426
5837.49023 0.009652
5837.75000 0.009884
5838.00977 0.009838
5838.27002 0.009854
5838.54004 0.009874
5838.79980 0.010084
5839.06006 0.010187
5839.31982 0.009782
5839.58008 0.010071
5839.83984 0.010319
5840.10010 0.009939
5840.35986 0.010006
5840.62012 0.010162
5840.87988 0.010417
5841.14014 0.010739
5841.39990 0.010145
5841.66016 0.010428
5841.91992 0.010313
5842.18018 0.010626
5842.43994 0.010458
5842.70020 0.010295
5842.95996 0.010861
5843.22021 0.010971
5843.47998 0.010451
5843.75000 0.010451
5844.00977 0.010983
5844.27002 0.011198
5844.52979 0.010961
5844.79004 0.010719
5845.04980 0.011156
5845.31006 0.011512
5845.56982 0.010957
5845.83008 0.010647
5846.08984 0.011201
5846.35010 0.011788
5846.60986 0.011493
5846.87012 0.01108
5847.12988 0.011285
5847.39014 0.011761
5847.64990 0.011805
5847.91016 0.01102
5848.16992 0.011302
5848.43018 0.012037
5848.68994 0.012126
5848.95996 0.011626
5849.22021 0.011654
5849.47998 0.011839
5849.74023 0.012335
5850.00000 0.011987
5850.25977 0.011277
5850.52002 0.012376
5850.77979 0.012798
5851.04004 0.0124
5851.29980 0.011968
5851.56006 0.012233
5851.81982 0.013008
5852.08008 0.012969
5852.33984 0.01233
5852.60010 0.012387
5852.85986 0.013029
5853.12012 0.013138
5853.37988 0.01265
5853.64014 0.012328
5853.89990 0.013071
5854.16992 0.013655
5854.43018 0.012751
5854.68994 0.012602
5854.95020 0.013133
5855.20996 0.013796
5855.47021 0.013513
5855.72998 0.012547
5855.99023 0.013359
5856.25000 0.014398
5856.50977 0.013794
5856.77002 0.01296
5857.02979 0.013589
5857.29004 0.014328
5857.54980 0.014749
5857.81006 0.013185
5858.06982 0.013489
5858.33008 0.014231
5858.58984 0.015097
5858.85010 0.014206
5859.12012 0.013612
5859.37988 0.014703
5859.64014 0.015393
5859.89990 0.014773
5860.16016 0.014121
5860.41992 0.014549
5860.68018 0.01592
5860.93994 0.015551
5861.20020 0.014078
5861.45996 0.014596
5861.72021 0.016132
5861.97998 0.016171
5862.24023 0.01459
5862.50000 0.014749
5862.75977 0.015876
5863.02002 0.016485
5863.27979 0.015653
5863.54004 0.014921
5863.79980 0.016099
5864.06006 0.017237
5864.33008 0.015942
5864.58984 0.014935
5864.85010 0.016351
5865.10986 0.017258
5865.37012 0.017193
5865.62988 0.015572
5865.89014 0.015913
5866.14990 0.017406
5866.41016 0.017907
5866.66992 0.016143
5866.93018 0.01589
5867.18994 0.017685
5867.45020 0.018375
5867.70996 0.017427
5867.97021 0.01622
5868.22998 0.017269
5868.49023 0.018834
5868.75000 0.018235
5869.00977 0.01657
5869.27002 0.017519
5869.54004 0.019214
5869.79980 0.018736
5870.06006 0.017316
5870.31982 0.017334
5870.58008 0.019269
5870.83984 0.019965
5871.10010 0.01824
5871.35986 0.016885
5871.62012 0.019187
5871.87988 0.020659
5872.14014 0.019067
5872.39990 0.017574
5872.66016 0.01913
5872.91992 0.02089
5873.18018 0.020583
5873.43994 0.018245
5873.70020 0.018969
5873.95996 0.02113
5874.22021 0.021333
5874.47998 0.01928
5874.75000 0.019004
5875.00977 0.020796
5875.27002 0.022044
5875.52979 0.020297
5875.79004 0.019113
5876.04980 0.020828
5876.31006 0.022517
5876.56982 0.021519
5876.83008 0.019492
5877.08984 0.020788
5877.35010 0.022745
5877.60986 0.022412
5877.87012 0.020113
5878.12988 0.020588
5878.39014 0.022393
5878.64990 0.023622
5878.91016 0.021862
5879.16992 0.020645
5879.43018 0.022576
5879.68994 0.024572
5879.95996 0.023059
5880.22021 0.020782
5880.47998 0.022465
5880.74023 0.024601
5881.00000 0.024508
5881.25977 0.022157
5881.52002 0.022551
5881.77979 0.024687
5882.04004 0.025206
5882.29980 0.023235
5882.56006 0.022637
5882.81982 0.024433
5883.08008 0.026765
5883.33984 0.024347
5883.60010 0.02322
5883.85986 0.024379
5884.12012 0.026848
5884.37988 0.02575
5884.64014 0.023867
5884.89990 0.024451
5885.16992 0.026978
5885.43018 0.027418
5885.68994 0.025137
5885.95020 0.024148
5886.20996 0.026674
5886.47021 0.028492
5886.72998 0.026554
5886.99023 0.024274
5887.25000 0.026448
5887.50977 0.02884
5887.77002 0.027843
5888.02979 0.025759
5888.29004 0.02653
5888.54980 0.029195
5888.81006 0.029187
5889.06982 0.027417
5889.33008 0.026296
5889.58984 0.028902
5889.85010 0.030257
5890.10986 0.028705
5890.37988 0.027054
5890.64014 0.028763
5890.89990 0.030871
5891.16016 0.030035
5891.41992 0.028218
5891.68018 0.02854
5891.93994 0.030731
5892.20020 0.031201
5892.45996 0.029192
5892.72021 0.028555
5892.97998 0.031033
5893.24023 0.03267
5893.50000 0.030606
5893.75977 0.029226
5894.02002 0.03119
5894.27979 0.033227
5894.54004 0.032157
5894.79980 0.030656
5895.06006 0.031169
5895.31982 0.033437
5895.58008 0.033801
5895.85010 0.032184
5896.10986 0.031307
5896.37012 0.033737
5896.62988 0.034595
5896.89014 0.033321
5897.14990 0.031889
5897.41016 0.033522
5897.66992 0.035622
5897.93018 0.034705
5898.18994 0.033003
5898.45020 0.033674
5898.70996 0.035791
5898.97021 0.036479
5899.22998 0.034667
5899.49023 0.033818
5899.75000 0.036273
5900.00977 0.037604
5900.27002 0.036232
5900.52979 0.034563
5900.79004 0.035999
5901.06006 0.037917
5901.31982 0.037568
5901.58008 0.036345
5901.83984 0.036112
5902.10010 0.039048
5902.35986 0.038955
5902.62012 0.038166
5902.87988 0.037495
5903.14014 0.038998
5903.39990 0.039632
5903.66016 0.039325
5903.91992 0.038639
5904.18018 0.039077
5904.43994 0.040647
5904.70020 0.040993
5904.95996 0.039804
5905.22021 0.040134
5905.47998 0.041308
5905.74023 0.041462
5906.00000 0.040989
5906.27002 0.041064
5906.52979 0.04177
5906.79004 0.043102
5907.04980 0.042633
5907.31006 0.041906
5907.56982 0.042401
5907.83008 0.043865
5908.08984 0.043627
5908.35010 0.043061
5908.60986 0.043457
5908.87012 0.044645
5909.12988 0.045208
5909.39014 0.044571
5909.64990 0.045061
5909.91016 0.044801
5910.16992 0.04607
5910.43018 0.046614
5910.68994 0.046227
5910.95020 0.045295
5911.20996 0.047091
5911.47998 0.04758
5911.74023 0.047623
5912.00000 0.047447
5912.25977 0.047777
5912.52002 0.049522
5912.77979 0.048851
5913.04004 0.048817
5913.29980 0.048445
5913.56006 0.049599
5913.81982 0.050635
5914.08008 0.050859
5914.33984 0.04975
5914.60010 0.050841
5914.85986 0.052167
5915.12012 0.052385
5915.37988 0.051198
5915.64014 0.051312
5915.89990 0.052316
5916.16016 0.054356
5916.41992 0.053436
5916.68994 0.052604
5916.95020 0.053621
5917.20996 0.055376
5917.47021 0.055748
5917.72998 0.053526
5917.99023 0.053921
5918.25000 0.056428
5918.50977 0.057751
5918.77002 0.056571
5919.02979 0.055666
5919.29004 0.057212
5919.54980 0.059599
5919.81006 0.058924
5920.06982 0.057143
5920.33008 0.058034
5920.58984 0.060218
5920.85010 0.061618
5921.10986 0.059905
5921.37012 0.058898
5921.62988 0.06151
5921.89990 0.062836
5922.16016 0.061116
5922.41992 0.060601
5922.68018 0.06144
5922.93994 0.064747
5923.20020 0.06517
5923.45996 0.062727
5923.72021 0.062318
5923.97998 0.066502
5924.24023 0.067431
5924.50000 0.065416
5924.75977 0.064852
5925.02002 0.066314
5925.27979 0.069528
5925.54004 0.068409
5925.79980 0.066391
5926.06006 0.067675
5926.31982 0.070828
5926.58008 0.071313
5926.85010 0.06825
5927.10986 0.068314
5927.37012 0.071666
5927.62988 0.074192
5927.89014 0.072656
5928.14990 0.070505
5928.41016 0.071885
5928.66992 0.076142
5928.93018 0.075324
5929.18994 0.072093
5929.45020 0.072892
5929.70996 0.07737
5929.97021 0.077915
5930.22998 0.075425
5930.49023 0.074694
5930.75000 0.077852
5931.00977 0.081441
5931.27002 0.079433
5931.52979 0.076847
5931.79004 0.078876
5932.06006 0.083374
5932.31982 0.083595
5932.58008 0.08023
5932.83984 0.079712
5933.10010 0.084076
5933.35986 0.086618
5933.62012 0.084295
5933.87988 0.082131
5934.14014 0.084146
5934.39990 0.08828
5934.66016 0.087409
5934.91992 0.084345
5935.18018 0.085073
5935.43994 0.089458
5935.70020 0.090609
5935.95996 0.088549
5936.22021 0.086683
5936.47998 0.090248
5936.74023 0.0942
5937.00000 0.092907
5937.27002 0.09027
5937.52979 0.091328
5937.79004 0.095973
5938.04980 0.096343
5938.31006 0.093796
5938.56982 0.093058
5938.83008 0.09689
5939.08984 0.100373
5939.35010 0.097742
5939.60986 0.09615
5939.87012 0.098533
5940.12988 0.103228
5940.39014 0.103122
5940.64990 0.099552
5940.91016 0.100024
5941.16992 0.104149
5941.43018 0.105567
5941.68994 0.104056
5941.95020 0.101876
5942.20996 0.104782
5942.47998 0.109542
5942.74023 0.108647
5943.00000 0.106039
5943.25977 0.106875
5943.52002 0.111139
5943.77979 0.112262
5944.04004 0.110483
5944.29980 0.109108
5944.56006 0.112536
5944.81982 0.115952
5945.08008 0.115262
5945.33984 0.112463
5945.60010 0.113483
5945.85986 0.118694
5946.12012 0.120475
5946.37988 0.116924
5946.64014 0.117099
5946.89990 0.11977
5947.16016 0.12405
5947.41992 0.12221
5947.68994 0.119267
5947.95020 0.120903
5948.20996 0.125947
5948.47021 0.127457
5948.72998 0.124892
5948.99023 0.124207
5949.25000 0.127444
5949.50977 0.131908
5949.77002 0.129881
5950.02979 0.127003
5950.29004 0.129894
5950.54980 0.135525
5950.81006 0.135957
5951.06982 0.131828
5951.33008 0.131345
5951.58984 0.135799
5951.85010 0.140064
5952.10986 0.137706
5952.37012 0.134386
5952.62988 0.137984
5952.89990 0.14347
5953.16016 0.143469
5953.41992 0.14025
5953.68018 0.139122
5953.93994 0.144227
5954.20020 0.148961
5954.45996 0.145547
5954.72021 0.143047
5954.97998 0.146647
5955.24023 0.153335
5955.50000 0.15306
5955.75977 0.148595
5956.02002 0.148366
5956.27979 0.155384
5956.54004 0.159353
5956.79980 0.154863
5957.06006 0.151783
5957.31982 0.156228
5957.58008 0.163521
5957.83984 0.162594
5958.10010 0.1575
5958.37012 0.156643
5958.62988 0.163854
5958.89014 0.16939
5959.14990 0.165231
5959.41016 0.160287
5959.66992 0.166873
5959.93018 0.174199
5960.18994 0.172947
5960.45020 0.165512
5960.70996 0.167232
5960.97021 0.17656
5961.22998 0.180225
5961.49023 0.173845
5961.75000 0.171489
5962.00977 0.177291
5962.27002 0.186247
5962.52979 0.183824
5962.79004 0.176585
5963.04980 0.17913
5963.31006 0.187971
5963.58008 0.191886
5963.83984 0.18494
5964.10010 0.182294
5964.35986 0.189846
5964.62012 0.197727
5964.87988 0.194328
5965.14014 0.18723
5965.39990 0.190408
5965.66016 0.200641
5965.91992 0.204213
5966.18018 0.194529
5966.43994 0.192396
5966.70020 0.203243
5966.95996 0.212179
5967.22021 0.205096
5967.47998 0.199003
5967.74023 0.20425
5968.00000 0.21524
5968.25977 0.217006
5968.52002 0.207725
5968.79004 0.206171
5969.04980 0.217064
5969.31006 0.224534
5969.56982 0.218437
5969.83008 0.210338
5970.08984 0.217616
5970.35010 0.230596
5970.60986 0.228555
5970.87012 0.219692
5971.12988 0.218857
5971.39014 0.230142
5971.64990 0.238702
5971.91016 0.228905
5972.16992 0.222559
5972.43018 0.232075
5972.68994 0.245793
5972.95020 0.242584
5973.20996 0.232945
5973.47021 0.23278
5973.72998 0.247204
5974.00000 0.254137
5974.25977 0.244462
5974.52002 0.236921
5974.77979 0.246868
5975.04004 0.261182
5975.29980 0.257642
5975.56006 0.245104
5975.81982 0.247562
5976.08008 0.264792
5976.33984 0.269165
5976.60010 0.257558
5976.85986 0.251231
5977.12012 0.265141
5977.37988 0.278577
5977.64014 0.271253
5977.89990 0.259526
5978.16016 0.263754
5978.41992 0.282259
5978.68018 0.284679
5978.93994 0.271825
5979.20996 0.266264
5979.47021 0.281513
5979.72998 0.29556
5979.99023 0.286712
5980.25000 0.274281
5980.50977 0.281553
5980.77002 0.300604
5981.02979 0.300339
5981.29004 0.287355
5981.54980 0.285156
5981.81006 0.30085
5982.06982 0.311839
5982.33008 0.301855
5982.58984 0.290071
5982.85010 0.299476
5983.10986 0.319142
5983.37012 0.317792
5983.62988 0.303144
5983.89014 0.300172
5984.14990 0.318571
5984.41992 0.329492
5984.68018 0.320424
5984.93994 0.306304
5985.20020 0.318658
5985.45996 0.337393
5985.72021 0.334399
5985.97998 0.319071
5986.24023 0.317497
5986.50000 0.337746
5986.75977 0.347149
5987.02002 0.336506
5987.27979 0.326971
5987.54004 0.336949
5987.79980 0.354156
5988.06006 0.353344
5988.31982 0.337737
5988.58008 0.336938
5988.83984 0.356903
5989.10010 0.366915
5989.37012 0.353075
5989.62988 0.343842
5989.89014 0.355252
5990.14990 0.373591
5990.41016 0.37211
5990.66992 0.35705
5990.93018 0.357977
5991.18994 0.375697
5991.45020 0.386153
5991.70996 0.373238
5991.97021 0.36214
5992.22998 0.373208
5992.49023 0.393934
5992.75000 0.390027
5993.00977 0.37731
5993.27002 0.375487
5993.52979 0.396227
5993.79004 0.405154
5994.04980 0.392744
5994.31006 0.382006
5994.58008 0.394509
5994.83984 0.411701
5995.10010 0.41039
5995.35986 0.394393
5995.62012 0.397091
5995.87988 0.41441
5996.14014 0.423814
5996.39990 0.413688
5996.66016 0.40334
5996.91992 0.413556
5997.18018 0.432259
5997.43994 0.428759
5997.70020 0.416815
5997.95996 0.415182
5998.22021 0.433299
5998.47998 0.443054
5998.74023 0.432846
5999.00000 0.423338
5999.25977 0.433221
5999.52002 0.45189
5999.79004 0.450914
6000.04980 0.435745
6000.31006 0.436209
6000.56982 0.453173
6000.83008 0.464589
6001.08984 0.453684
6001.35010 0.444575
6001.60986 0.453059
6001.87012 0.469661
6002.12988 0.470473
6002.39014 0.457426
6002.64990 0.455521
6002.91016 0.470795
6003.16992 0.482224
6003.43018 0.473238
6003.68994 0.464007
6003.95020 0.472693
6004.20996 0.489326
6004.47021 0.49283
6004.72998 0.478279
6005.00000 0.474841
6005.25977 0.491853
6005.52002 0.505458
6005.77979 0.494672
6006.04004 0.484506
6006.29980 0.49129
6006.56006 0.508546
6006.81982 0.511191
6007.08008 0.496427
6007.33984 0.49265
6007.60010 0.507477
6007.85986 0.52416
6008.12012 0.51533
6008.37988 0.502333
6008.64014 0.508187
6008.89990 0.527775
6009.16016 0.53015
6009.41992 0.516343
6009.68018 0.512075
6009.93994 0.526316
6010.20996 0.540469
6010.47021 0.534288
6010.72998 0.521185
6010.99023 0.526763
6011.25000 0.542431
6011.50977 0.550741
6011.77002 0.536188
6012.02979 0.528216
6012.29004 0.541556
6012.54980 0.55765
6012.81006 0.553209
6013.06982 0.544073
6013.33008 0.54401
6013.58984 0.560011
6013.85010 0.567796
6014.10986 0.558278
6014.37012 0.548117
6014.62988 0.559351
6014.89014 0.575074
6015.14990 0.573822
6015.41992 0.560409
6015.68018 0.560678
6015.93994 0.577595
6016.20020 0.586557
6016.45996 0.576091
6016.72021 0.565239
6016.97998 0.575795
6017.24023 0.591394
6017.50000 0.593934
6017.75977 0.578667
6018.02002 0.574403
6018.27979 0.59189
6018.54004 0.602967
6018.79980 0.594004
6019.06006 0.584969
6019.31982 0.590066
6019.58008 0.608359
6019.83984 0.609362
6020.10010 0.597415
6020.35986 0.592265
6020.62012 0.605051
6020.89014 0.617437
6021.14990 0.61193
6021.41016 0.597895
6021.66992 0.603428
6021.93018 0.621911
6022.18994 0.624883
6022.45020 0.612982
6022.70996 0.606475
6022.97021 0.617836
6023.22998 0.629403
6023.49023 0.628286
6023.75000 0.615347
6024.00977 0.618023
6024.27002 0.634886
6024.52979 0.637261
6024.79004 0.628893
6025.04980 0.62098
6025.31006 0.629539
6025.56982 0.644235
6025.83008 0.643126
6026.10010 0.628979
6026.35986 0.630524
6026.62012 0.644261
6026.87988 0.655293
6027.14014 0.646419
6027.39990 0.633279
6027.66016 0.641606
6027.91992 0.655158
6028.18018 0.65804
6028.43994 0.64647
6028.70020 0.640414
6028.95996 0.655385
6029.22021 0.666551
6029.47998 0.657781
6029.74023 0.648488
6030.00000 0.650834
6030.25977 0.667231
6030.52002 0.671087
6030.77979 0.65679
6031.04004 0.653428
6031.31006 0.663137
6031.56982 0.674688
6031.83008 0.672531
6032.08984 0.662994
6032.35010 0.664503
6032.60986 0.677761
6032.87012 0.682411
6033.12988 0.67152
6033.39014 0.66456
6033.64990 0.673059
6033.91016 0.688353
6034.16992 0.685276
6034.43018 0.675215
6034.68994 0.671962
6034.95020 0.684504
6035.20996 0.693797
6035.47021 0.685706
6035.72998 0.67347
6035.99023 0.679281
6036.25000 0.69447
6036.52002 0.69776
6036.77979 0.685144
6037.04004 0.678764
6037.29980 0.691229
6037.56006 0.701653
6037.81982 0.696838
6038.08008 0.685044
6038.33984 0.68841
6038.60010 0.701726
6038.85986 0.707209
6039.12012 0.695203
6039.37988 0.685528
6039.64014 0.698648
6039.89990 0.711932
6040.16016 0.708125
6040.41992 0.694023
6040.68018 0.695722
6040.93994 0.706068
6041.20020 0.716184
6041.45996 0.706584
6041.72998 0.69473
6041.99023 0.703336
6042.25000 0.717413
6042.50977 0.717274
6042.77002 0.704792
6043.02979 0.700687
6043.29004 0.716224
6043.54980 0.722971
6043.81006 0.714445
6044.06982 0.702062
6044.33008 0.705653
6044.58984 0.722859
6044.85010 0.72686
6045.10986 0.711327
6045.37012 0.704806
6045.62988 0.718089
6045.89014 0.731331
6046.14990 0.723703
6046.41016 0.710145
6046.66992 0.711302
6046.93994 0.729352
6047.20020 0.733314
6047.45996 0.721183
6047.72021 0.711083
6047.97998 0.72122
6048.24023 0.7336
6048.50000 0.732132
6048.75977 0.719242
6049.02002 0.716888
6049.27979 0.730051
6049.54004 0.739245
6049.79980 0.726936
6050.06006 0.715912
6050.31982 0.724342
6050.58008 0.739823
6050.83984 0.740172
6051.10010 0.72645
6051.35986 0.720138
6051.62012 0.734173
6051.87988 0.743023
6052.14990 0.735882
6052.41016 0.724769
6052.66992 0.729403
6052.93018 0.742216
6053.18994 0.744228
6053.45020 0.731825
6053.70996 0.725871
6053.97021 0.735466
6054.22998 0.748624
6054.49023 0.745542
6054.75000 0.730471
6055.00977 0.730213
6055.27002 0.747671
6055.52979 0.74987
6055.79004 0.737952
6056.04980 0.730627
6056.31006 0.740073
6056.56982 0.75251
6056.83008 0.747749
6057.10010 0.736836
6057.35986 0.73773
6057.62012 0.747021
6057.87988 0.754664
6058.14014 0.747411
6058.39990 0.738496
6058.66016 0.74081
6058.91992 0.75407
6059.18018 0.753327
6059.43994 0.743492
6059.70020 0.741543
6059.95996 0.74919
6060.22021 0.759256
6060.47998 0.749438
6060.74023 0.741372
6061.00000 0.744026
6061.25977 0.754965
6061.52002 0.757641
6061.77979 0.74763
6062.04004 0.741003
6062.31006 0.750192
6062.56982 0.759179
6062.83008 0.757854
6063.08984 0.748099
6063.35010 0.746792
6063.60986 0.758484
6063.87012 0.75999
6064.12988 0.754009
6064.39014 0.748491
6064.64990 0.753864
6064.91016 0.762014
6065.16992 0.76104
6065.43018 0.751608
6065.68994 0.748823
6065.95020 0.755841
6066.20996 0.763695
6066.47021 0.760703
6066.72998 0.752084
6066.99023 0.752818
6067.25000 0.761972
6067.52002 0.766164
6067.77979 0.760673
6068.04004 0.750324
6068.29980 0.758272
6068.56006 0.767289
6068.81982 0.764056
6069.08008 0.758134
6069.33984 0.758545
6069.60010 0.763884
6069.85986 0.768083
6070.12012 0.764563
6070.37988 0.759201
6070.64014 0.758699
6070.89990 0.767035
6071.16016 0.768512
6071.41992 0.763781
6071.68018 0.75967
6071.93994 0.763098
6072.20020 0.767601
6072.45996 0.767828
6072.72998 0.762783
6072.99023 0.760802
6073.25000 0.767232
6073.50977 0.770015
6073.77002 0.766241
6074.02979 0.765324
6074.29004 0.766782
6074.54980 0.76966
6074.81006 0.772274
6075.06982 0.766992
6075.33008 0.764325
6075.58984 0.76825
6075.85010 0.773588
6076.10986 0.771451
6076.37012 0.767937
6076.62988 0.76796
6076.89014 0.772854
6077.14990 0.774432
6077.41016 0.771572
6077.66992 0.770978
6077.93994 0.772693
6078.20020 0.777117
6078.45996 0.774612
6078.72021 0.770864
6078.97998 0.770447
6079.24023 0.77378
6079.50000 0.774773
6079.75977 0.775353
6080.02002 0.7744
6080.27979 0.774548
6080.54004 0.777607
6080.79980 0.775268
6081.06006 0.777108
6081.31982 0.773609
6081.58008 0.772891
6081.83984 0.777584
6082.10010 0.779226
6082.35986 0.774397
6082.62012 0.778194
6082.87988 0.776459
6083.14990 0.77977
6083.41016 0.776405
6083.66992 0.772768
6083.93018 0.776402
6084.18994 0.781548
6084.45020 0.781007
6084.70996 0.779387
6084.97021 0.776857
6085.22998 0.77872
6085.49023 0.783211
6085.75000 0.783024
6086.00977 0.780737
6086.27002 0.779934
6086.52979 0.779615
6086.79004 0.785236
6087.04980 0.784214
6087.31006 0.778927
6087.56982 0.780215
6087.83008 0.783749
6088.08984 0.788185
6088.35010 0.784865
6088.62012 0.784795
6088.87988 0.785316
6089.14014 0.787364
6089.39990 0.786314
6089.66016 0.784047
6089.91992 0.784538
6090.18018 0.786077
6090.43994 0.790198
6090.70020 0.787456
6090.95996 0.784213
6091.22021 0.789303
6091.47998 0.78929
6091.74023 0.792099
6092.00000 0.78904
6092.25977 0.785859
6092.52002 0.787392
6092.77979 0.788816
6093.04004 0.791545
6093.29980 0.788989
6093.56006 0.789095
6093.83008 0.789871
6094.08984 0.791541
6094.35010 0.790133
6094.60986 0.789766
6094.87012 0.790899
6095.12988 0.791888
6095.39014 0.793101
6095.64990 0.790739
6095.91016 0.788527
6096.16992 0.794437
6096.43018 0.796209
6096.68994 0.797203
6096.95020 0.790537
6097.20996 0.790693
6097.47021 0.792991
6097.72998 0.797801
6097.99023 0.796961
6098.25000 0.795615
6098.50977 0.79199
6098.77002 0.797071
6099.04004 0.797924
6099.29980 0.795405
6099.56006 0.794153
6099.81982 0.797306
6100.08008 0.797904
6100.33984 0.798057
6100.60010 0.795998
6100.85986 0.79499
6101.12012 0.801611
6101.37988 0.800194
6101.64014 0.799707
6101.89990 0.795286
6102.16016 0.796289
6102.41992 0.800779
6102.68018 0.802079
6102.93994 0.80203
6103.20020 0.79903
6103.45996 0.802726
6103.72021 0.80584
6103.97998 0.802225
6104.25000 0.799989
6104.50977 0.802131
6104.77002 0.800167
6105.02979 0.80552
6105.29004 0.803679
6105.54980 0.804531
6105.81006 0.801476
6106.06982 0.805151
6106.33008 0.804605
6106.58984 0.802785
6106.85010 0.802043
6107.10986 0.808004
6107.37012 0.806606
6107.62988 0.807425
6107.89014 0.804891
6108.14990 0.805403
6108.41016 0.806255
6108.66992 0.805623
6108.93018 0.805047
6109.18994 0.806202
6109.45996 0.807182
6109.72021 0.807135
6109.97998 0.810277
6110.24023 0.806045
6110.50000 0.804999
6110.75977 0.806735
6111.02002 0.808218
6111.27979 0.806585
6111.54004 0.806833
6111.79980 0.808515
6112.06006 0.808118
6112.31982 0.810341
6112.58008 0.808671
6112.83984 0.805917
6113.10010 0.812611
6113.35986 0.812904
6113.62012 0.811503
6113.87988 0.809026
6114.14014 0.812883
6114.39990 0.812211
6114.66992 0.810216
6114.93018 0.81028
6115.18994 0.812499
6115.45020 0.810788
6115.70996 0.808516
6115.97021 0.809695
6116.22998 0.809871
6116.49023 0.811399
6116.75000 0.811764
6117.00977 0.813534
6117.27002 0.813073
6117.52979 0.811451
6117.79004 0.811553
6118.04980 0.81522
6118.31006 0.814212
6118.56982 0.811386
6118.83008 0.812954
6119.08984 0.814922
6119.35010 0.81582
6119.62012 0.813052
6119.87988 0.815342
6120.14014 0.81242
6120.39990 0.814588
6120.66016 0.815947
6120.91992 0.812786
6121.18018 0.812882
6121.43994 0.812743
6121.70020 0.8151
6121.95996 0.815025
6122.22021 0.812404
6122.47998 0.815613
6122.74023 0.814703
6123.00000 0.818117
6123.25977 0.815043
6123.52002 0.81135
6123.77979 0.814195
6124.04004 0.81475
6124.29980 0.816077
6124.56006 0.813332
6124.83008 0.813413
6125.08984 0.816156
6125.35010 0.814521
6125.60986 0.814646
6125.87012 0.811368
6126.12988 0.815281
6126.39014 0.816244
6126.64990 0.820745
6126.91016 0.814272
6127.16992 0.812947
6127.43018 0.815609
6127.68994 0.818672
6127.95020 0.817298
6128.20996 0.816678
6128.47021 0.813632
6128.72998 0.818152
6128.99023 0.816085
6129.25000 0.813604
6129.50977 0.814706
6129.77002 0.813901
6130.04004 0.818399
6130.29980 0.817524
6130.56006 0.816293
6130.81982 0.814377
6131.08008 0.813856
6131.33984 0.819012
6131.60010 0.818605
6131.85986 0.816839
6132.12012 0.81336
6132.37988 0.817625
6132.64014 0.818641
6132.89990 0.816267
6133.16016 0.816251
6133.41992 0.813543
6133.68018 0.817328
6133.93994 0.817102
6134.20020 0.814879
6134.45996 0.814393
6134.72021 0.814459
6134.97998 0.817582
6135.25000 0.819067
6135.50977 0.815741
6135.77002 0.813209
6136.02979 0.813761
6136.29004 0.817516
6136.54980 0.816339
6136.81006 0.811966
6137.06982 0.814979
6137.33008 0.815042
6137.58984 0.814568
6137.85010 0.813419
6138.10986 0.813876
6138.37012 0.813402
6138.62988 0.817109
6138.89014 0.817084
6139.14990 0.814869
6139.41016 0.812685
6139.66992 0.816324
6139.93018 0.814129
6140.18994 0.814668
6140.45996 0.813634
6140.72021 0.811469
6140.97998 0.812937
6141.24023 0.818258
6141.50000 0.814406
6141.75977 0.811713
6142.02002 0.811299
6142.27979 0.816248
6142.54004 0.816569
6142.79980 0.814798
6143.06006 0.811374
6143.31982 0.813064
6143.58008 0.815088
6143.83984 0.816411
6144.10010 0.811319
6144.35986 0.812814
6144.62012 0.810133
6144.87988 0.813394
6145.14014 0.813755
6145.39990 0.810611
6145.66992 0.809073
6145.93018 0.813597
6146.18994 0.815212
6146.45020 0.813435
6146.70996 0.808204
6146.97021 0.809707
6147.22998 0.811415
6147.49023 0.812508
6147.75000 0.809418
6148.00977 0.80938
6148.27002 0.80852
6148.52979 0.813947
6148.79004 0.814329
6149.04980 0.809085
6149.31006 0.810281
6149.56982 0.810585
6149.83008 0.812998
6150.08984 0.812681
6150.35010 0.806974
6150.60986 0.806932
6150.87988 0.81021
6151.14014 0.810167
6151.39990 0.810076
6151.66016 0.804486
6151.91992 0.806832
6152.18018 0.810375
6152.43994 0.810825
6152.70020 0.805705
6152.95996 0.806822
6153.22021 0.808176
6153.47998 0.808527
6153.74023 0.809866
6154.00000 0.806129
6154.25977 0.803828
6154.52002 0.809721
6154.77979 0.810465
6155.04004 0.806911
6155.29980 0.802498
6155.56006 0.801658
6155.81982 0.807399
6156.08008 0.808799
6156.35010 0.804581
6156.60986 0.802135
6156.87012 0.806268
6157.12988 0.805375
6157.39014 0.808011
6157.64990 0.805239
6157.91016 0.802067
6158.16992 0.803908
6158.43018 0.808498
6158.68994 0.805046
6158.95020 0.800649
6159.20996 0.801159
6159.47021 0.804419
6159.72998 0.805651
6159.99023 0.803202
6160.25000 0.798291
6160.50977 0.798815
6160.77002 0.805771
6161.02979 0.804442
6161.29004 0.803356
6161.56006 0.799902
6161.81982 0.799512
6162.08008 0.802156
6162.33984 0.806063
6162.60010 0.796943
6162.85986 0.795387
6163.12012 0.801321
6163.37988 0.802571
6163.64014 0.803051
6163.89990 0.799165
6164.16016 0.79573
6164.41992 0.800244
6164.68018 0.802565
6164.93994 0.800794
6165.20020 0.795302
6165.45996 0.798766
6165.72021 0.799469
6165.97998 0.801599
6166.24023 0.799724
6166.50000 0.794606
6166.77002 0.795854
6167.02979 0.801131
6167.29004 0.800319
6167.54980 0.795905
6167.81006 0.794114
6168.06982 0.797355
6168.33008 0.799862
6168.58984 0.796913
6168.85010 0.792182
6169.10986 0.792655
6169.37012 0.79517
6169.62988 0.798869
6169.89014 0.796542
6170.14990 0.79139
6170.41016 0.791874
6170.66992 0.796331
6170.93018 0.797816
6171.18994 0.793387
6171.45020 0.79126
6171.70996 0.793217
6171.97998 0.796354
6172.24023 0.797164
6172.50000 0.792073
6172.75977 0.791154
6173.02002 0.792395
6173.27979 0.79616
6173.54004 0.792216
6173.79980 0.790892
6174.06006 0.788668
6174.31982 0.790787
6174.58008 0.792759
6174.83984 0.793601
6175.10010 0.788657
6175.35986 0.784471
6175.62012 0.79322
6175.87988 0.794075
6176.14014 0.790883
6176.39990 0.789847
6176.66016 0.788507
6176.91992 0.790345
6177.18994 0.792787
6177.45020 0.787447
6177.70996 0.786218
6177.97021 0.789191
6178.22998 0.790087
6178.49023 0.791537
6178.75000 0.788746
6179.00977 0.785785
6179.27002 0.788073
6179.52979 0.788517
6179.79004 0.788126
6180.04980 0.78561
6180.31006 0.784559
6180.56982 0.785169
6180.83008 0.789431
6181.08984 0.787596
6181.35010 0.782132
6181.60986 0.783692
6181.87012 0.786776
6182.12988 0.788227
6182.39990 0.786898
6182.66016 0.781985
6182.91992 0.786015
6183.18018 0.788758
6183.43994 0.786487
6183.70020 0.781837
6183.95996 0.780509
6184.22021 0.784258
6184.47998 0.788198
6184.74023 0.78749
6185.00000 0.781203
6185.25977 0.779631
6185.52002 0.783833
6185.77979 0.783178
6186.04004 0.784974
6186.29980 0.777517
6186.56006 0.778512
6186.81982 0.783785
6187.08008 0.784293
6187.35010 0.781442
6187.60986 0.774665
6187.87012 0.779554
6188.12988 0.781552
6188.39014 0.782267
6188.64990 0.778167
6188.91016 0.774789
6189.16992 0.778353
6189.43018 0.782158
6189.68994 0.781903
6189.95020 0.776801
6190.20996 0.774978
6190.47021 0.779681
6190.72998 0.7831
6190.99023 0.781416
6191.25000 0.774102
6191.50977 0.774345
6191.77002 0.779045
6192.02979 0.781971
6192.29004 0.77853
6192.56006 0.773569
6192.81982 0.77362
6193.08008 0.777603
6193.33984 0.778562
6193.60010 0.77549
6193.85986 0.770564
6194.12012 0.774516
6194.37988 0.780005
6194.64014 0.776547
6194.89990 0.774081
6195.16016 0.77226
6195.41992 0.77161
6195.68018 0.773464
6195.93994 0.773834
6196.20020 0.770598
6196.45996 0.770144
6196.72021 0.771824
6196.97998 0.774873
6197.24023 0.772078
6197.50000 0.769063
6197.77002 0.767688
6198.02979 0.770417
6198.29004 0.772503
6198.54980 0.770267
6198.81006 0.766854
6199.06982 0.766105
6199.33008 0.768588
6199.58984 0.774449
6199.85010 0.77054
6200.10986 0.763856
6200.37012 0.769252
6200.62988 0.772029
6200.89014 0.769996
6201.14990 0.765619
6201.41016 0.761881
6201.66992 0.765429
6201.93018 0.76974
6202.18994 0.769138
6202.45020 0.763752
6202.70996 0.761321
6202.97998 0.766063
6203.24023 0.766917
6203.50000 0.76501
6203.75977 0.75896
6204.02002 0.761514
6204.27979 0.765087
6204.54004 0.765885
6204.79980 0.762634
6205.06006 0.758258
6205.31982 0.761709
6205.58008 0.764946
6205.83984 0.762942
6206.10010 0.760652
6206.35986 0.754458
6206.62012 0.757893
6206.87988 0.764586
6207.14014 0.760242
6207.39990 0.759781
6207.66016 0.754047
6207.91992 0.755324
6208.18994 0.760508
6208.45020 0.760146
6208.70996 0.756627
6208.97021 0.752954
6209.22998 0.757817
6209.49023 0.758508
6209.75000 0.756307
6210.00977 0.751385
6210.27002 0.749767
6210.52979 0.755064
6210.79004 0.759494
6211.04980 0.754916
6211.31006 0.748448
6211.56982 0.7526
6211.83008 0.754435
6212.08984 0.755864
6212.35010 0.751602
6212.60986 0.746639
6212.87012 0.749434
6213.12988 0.753271
6213.39990 0.75015
6213.66016 0.747825
6213.91992 0.744478
6214.18018 0.744945
6214.43994 0.749048
6214.70020 0.747331
6214.95996 0.744474
6215.22021 0.740666
6215.47998 0.743339
6215.74023 0.748963
6216.00000 0.745282
6216.25977 0.741412
6216.52002 0.738929
6216.77979 0.743273
6217.04004 0.746323
6217.29980 0.740957
6217.56006 0.7365
6217.81982 0.73887
6218.08008 0.740277
6218.33984 0.741725
6218.60010 0.735933
6218.87012 0.73386
6219.12988 0.734735
6219.39014 0.738393
6219.64990 0.736281
6219.91016 0.734147
6220.16992 0.730353
6220.43018 0.73047
6220.68994 0.734746
6220.95020 0.733575
6221.20996 0.72505
6221.47021 0.725433
6221.72998 0.729266
6221.99023 0.733751
6222.25000 0.731197
6222.50977 0.722947
6222.77002 0.72248
6223.02979 0.723515
6223.29004 0.730212
6223.54980 0.726965
6223.81006 0.721439
6224.08008 0.722139
6224.33984 0.724879
6224.60010 0.725062
6224.85986 0.722568
6225.12012 0.716341
6225.37988 0.716662
6225.64014 0.720155
6225.89990 0.719437
6226.16016 0.71614
6226.41992 0.712421
6226.68018 0.713206
6226.93994 0.716859
6227.20020 0.719337
6227.45996 0.710714
6227.72021 0.707082
6227.97998 0.70966
6228.24023 0.712927
6228.50000 0.713002
6228.75977 0.705479
6229.02002 0.702922
6229.29004 0.70597
6229.54980 0.709502
6229.81006 0.705615
6230.06982 0.70111
6230.33008 0.696536
6230.58984 0.701369
6230.85010 0.70233
6231.10986 0.699776
6231.37012 0.696323
6231.62988 0.693931
6231.89014 0.699069
6232.14990 0.69914
6232.41016 0.696344
6232.66992 0.69062
6232.93018 0.689975
6233.18994 0.693471
6233.45020 0.695242
6233.70996 0.68764
6233.97021 0.684609
6234.22998 0.682997
6234.50000 0.689518
6234.75977 0.69023
6235.02002 0.681852
6235.27979 0.677268
6235.54004 0.67806
6235.79980 0.68167
6236.06006 0.680808
6236.31982 0.678057
6236.58008 0.668721
6236.83984 0.673675
6237.10010 0.677616
6237.35986 0.675456
6237.62012 0.671102
6237.87988 0.664604
6238.14014 0.667934
6238.39990 0.669923
6238.66016 0.666675
6238.91992 0.661638
6239.18018 0.65797
6239.43994 0.66338
6239.70996 0.665798
6239.97021 0.659436
6240.22998 0.6534
6240.49023 0.651811
6240.75000 0.654687
6241.00977 0.659403
6241.27002 0.653049
6241.52979 0.646864
6241.79004 0.646018
6242.04980 0.649791
6242.31006 0.650034
6242.56982 0.644325
6242.83008 0.636025
6243.08984 0.640409
6243.35010 0.645426
6243.60986 0.640936
6243.87012 0.636892
6244.12988 0.630683
6244.39014 0.633736
6244.64990 0.633273
6244.91992 0.63176
6245.18018 0.627287
6245.43994 0.626699
6245.70020 0.626496
6245.95996 0.629324
6246.22021 0.626626
6246.47998 0.62078
6246.74023 0.616856
6247.00000 0.618494
6247.25977 0.620814
6247.52002 0.616619
6247.77979 0.610993
6248.04004 0.608554
6248.29980 0.611505
6248.56006 0.612759
6248.81982 0.610838
6249.08008 0.601674
6249.33984 0.599301
6249.60010 0.602022
6249.87012 0.60184
6250.12988 0.598322
6250.39014 0.591635
6250.64990 0.591252
6250.91016 0.596646
6251.16992 0.595789
6251.43018 0.591833
6251.68994 0.582915
6251.95020 0.584572
6252.20996 0.583869
6252.47021 0.586522
6252.72998 0.578613
6252.99023 0.573362
6253.25000 0.574524
6253.50977 0.577318
6253.77002 0.574783
6254.02979 0.570117
6254.29004 0.564067
6254.54980 0.566453
6254.81006 0.566707
6255.08008 0.567319
6255.33984 0.557912
6255.60010 0.555504
6255.85986 0.5567
6256.12012 0.560123
6256.37988 0.558159
6256.64014 0.550493
6256.89990 0.545979
6257.16016 0.548014
6257.41992 0.549403
6257.68018 0.544875
6257.93994 0.539263
6258.20020 0.536882
6258.45996 0.54098
6258.72021 0.539832
6258.97998 0.535107
6259.24023 0.532103
6259.50000 0.52697
6259.75977 0.529904
6260.02002 0.529254
6260.29004 0.524755
6260.54980 0.519187
6260.81006 0.517497
6261.06982 0.519825
6261.33008 0.521135
6261.58984 0.51513
6261.85010 0.50687
6262.10986 0.507558
6262.37012 0.511359
6262.62988 0.509622
6262.89014 0.503575
6263.14990 0.499032
6263.41016 0.497792
6263.66992 0.500179
6263.93018 0.497382
6264.18994 0.493551
6264.45020 0.487255
6264.70996 0.489146
6264.97021 0.490221
6265.22998 0.487755
6265.50000 0.481197
6265.75977 0.475982
6266.02002 0.479182
6266.27979 0.481351
6266.54004 0.477281
6266.79980 0.469987
6267.06006 0.466355
6267.31982 0.468666
6267.58008 0.469149
6267.83984 0.468034
6268.10010 0.461922
6268.35986 0.4568
6268.62012 0.459349
6268.87988 0.459389
6269.14014 0.456581
6269.39990 0.4497
6269.66016 0.448092
6269.91992 0.449165
6270.18018 0.450786
6270.43994 0.445678
6270.70996 0.439282
6270.97021 0.438677
6271.22998 0.438622
6271.49023 0.438721
6271.75000 0.43604
6272.00977 0.430316
6272.27002 0.426975
6272.52979 0.427698
6272.79004 0.426803
6273.04980 0.423508
6273.31006 0.4174
6273.56982 0.416864
6273.83008 0.421379
6274.08984 0.418871
6274.35010 0.41183
6274.60986 0.408064
6274.87012 0.406757
6275.12988 0.40945
6275.39014 0.407793
6275.64990 0.40363
6275.91992 0.398018
6276.18018 0.397831
6276.43994 0.40088
6276.70020 0.397715
6276.95996 0.393844
6277.22021 0.387134
6277.47998 0.389326
6277.74023 0.389734
6278.00000 0.387348
6278.25977 0.382004
6278.52002 0.376316
6278.77979 0.378693
6279.04004 0.379702
6279.29980 0.376895
6279.56006 0.370286
6279.81982 0.36882
6280.08008 0.369476
6280.33984 0.368962
6280.60010 0.365711
6280.85986 0.360388
6281.12012 0.357051
6281.39014 0.360242
6281.64990 0.359295
6281.91016 0.356324
6282.16992 0.352496
6282.43018 0.348639
6282.68994 0.350209
6282.95020 0.34837
6283.20996 0.346608
6283.47021 0.342876
6283.72998 0.341175
6283.99023 0.339576
6284.25000 0.338843
6284.50977 0.338516
6284.77002 0.33264
6285.02979 0.333648
6285.29004 0.331225
6285.54980 0.330448
6285.81006 0.326829
6286.06982 0.323428
6286.33008 0.3216
6286.60010 0.321492
6286.85986 0.320377
6287.12012 0.318791
6287.37988 0.312495
6287.64014 0.311779
6287.89990 0.314255
6288.16016 0.313567
6288.41992 0.308688
6288.68018 0.305173
6288.93994 0.304124
6289.20020 0.303961
6289.45996 0.302713
6289.72021 0.299408
6289.97998 0.296375
6290.24023 0.295482
6290.50000 0.295083
6290.75977 0.291815
6291.02002 0.290081
6291.27979 0.287591
6291.54004 0.286279
6291.81006 0.287951
6292.06982 0.284716
6292.33008 0.281271
6292.58984 0.278471
6292.85010 0.277803
6293.10986 0.277188
6293.37012 0.276499
6293.62988 0.274001
6293.89014 0.270585
6294.14990 0.270589
6294.41016 0.270218
6294.66992 0.26721
6294.93018 0.264694
6295.18994 0.261866
6295.45020 0.262627
6295.70996 0.261594
6295.97021 0.259587
6296.22998 0.256548
6296.49023 0.255808
6296.75000 0.254894
6297.02002 0.254008
6297.27979 0.251188
6297.54004 0.247466
6297.79980 0.245145
6298.06006 0.247845
6298.31982 0.244417
6298.58008 0.242441
6298.83984 0.240541
6299.10010 0.238384
6299.35986 0.238549
6299.62012 0.238032
6299.87988 0.235383
6300.14014 0.232724
6300.39990 0.232558
6300.66016 0.232103
6300.91992 0.23
6301.18018 0.228848
6301.43994 0.225717
6301.70020 0.22407
6301.95996 0.22479
6302.22998 0.222083
6302.49023 0.220131
6302.75000 0.218049
6303.00977 0.21912
6303.27002 0.217944
6303.52979 0.216055
6303.79004 0.21266
6304.04980 0.212483
6304.31006 0.210725
6304.56982 0.210051
6304.83008 0.20834
6305.08984 0.206356
6305.35010 0.204661
6305.60986 0.204683
6305.87012 0.204598
6306.12988 0.201136
6306.39014 0.19923
6306.64990 0.198157
6306.91016 0.197922
6307.16992 0.198406
6307.43994 0.195948
6307.70020 0.193
6307.95996 0.19249
6308.22021 0.190675
6308.47998 0.189675
6308.74023 0.190106
6309.00000 0.187187
6309.25977 0.185929
6309.52002 0.18463
6309.77979 0.184692
6310.04004 0.182543
6310.29980 0.180495
6310.56006 0.180612
6310.81982 0.17957
6311.08008 0.178116
6311.33984 0.176843
6311.60010 0.175581
6311.85986 0.173033
6312.12012 0.173329
6312.37988 0.171366
6312.64990 0.171303
6312.91016 0.169209
6313.16992 0.167673
6313.43018 0.168828
6313.68994 0.166633
6313.95020 0.164674
6314.20996 0.163218
6314.47021 0.163234
6314.72998 0.162885
6314.99023 0.160412
6315.25000 0.159206
6315.50977 0.15902
6315.77002 0.157063
6316.02979 0.157741
6316.29004 0.155381
6316.54980 0.153167
6316.81006 0.152921
6317.06982 0.153424
6317.33008 0.151196
6317.60010 0.15045
6317.85986 0.148524
6318.12012 0.148129
6318.37988 0.148312
6318.64014 0.146272
6318.89990 0.14418
6319.16016 0.143141
6319.41992 0.143761
6319.68018 0.143895
6319.93994 0.142828
6320.20020 0.139409
6320.45996 0.139509
6320.72021 0.138614
6320.97998 0.13844
6321.24023 0.137533
6321.50000 0.136538
6321.75977 0.13373
6322.02002 0.134257
6322.27979 0.133369
6322.54004 0.132871
6322.81006 0.130232
6323.06982 0.129763
6323.33008 0.129711
6323.58984 0.130217
6323.85010 0.128403
6324.10986 0.126299
6324.37012 0.125385
6324.62988 0.126203
6324.89014 0.12595
6325.14990 0.124171
6325.41016 0.121475
6325.66992 0.122319
6325.93018 0.122604
6326.18994 0.122778
6326.45020 0.120182
6326.70996 0.118503
6326.97021 0.118905
6327.22998 0.119358
6327.49023 0.118543
6327.75000 0.116368
6328.02002 0.114392
6328.27979 0.114895
6328.54004 0.116023
6328.79980 0.114929
6329.06006 0.112822
6329.31982 0.110693
6329.58008 0.111164
6329.83984 0.112205
6330.10010 0.111111
6330.35986 0.109011
6330.62012 0.108265
6330.87988 0.108634
6331.14014 0.109164
6331.39990 0.108079
6331.66016 0.106474
6331.91992 0.104339
6332.18018 0.104517
6332.43994 0.106404
6332.70020 0.10464
6332.95996 0.102106
6333.22998 0.10111
6333.49023 0.101556
6333.75000 0.103541
6334.00977 0.101696
6334.27002 0.099782
6334.52979 0.09855
6334.79004 0.099182
6335.04980 0.099634
6335.31006 0.098855
6335.56982 0.095875
6335.83008 0.09498
6336.08984 0.097031
6336.35010 0.096982
6336.60986 0.095604
6336.87012 0.092836
6337.12988 0.091678
6337.39014 0.093758
6337.64990 0.095178
6337.91016 0.093458
6338.16992 0.091151
6338.43994 0.090062
6338.70020 0.091267
6338.95996 0.09171
6339.22021 0.091064
6339.47998 0.087943
6339.74023 0.087773
6340.00000 0.089017
6340.25977 0.089906
6340.52002 0.087932
6340.77979 0.084952
6341.04004 0.085251
6341.29980 0.08643
6341.56006 0.087696
6341.81982 0.085928
6342.08008 0.083376
6342.33984 0.082354
6342.60010 0.084103
6342.85986 0.085019
6343.12012 0.083753
6343.37988 0.080792
6343.64990 0.08009
6343.91016 0.082211
6344.16992 0.083853
6344.43018 0.080982
6344.68994 0.079038
6344.95020 0.077682
6345.20996 0.078803
6345.47021 0.080601
6345.72998 0.078441
6345.99023 0.076621
6346.25000 0.076243
6346.50977 0.078295
6346.77002 0.079276
6347.02979 0.076408
6347.29004 0.075042
6347.54980 0.074317
6347.81006 0.075887
6348.06982 0.076827
6348.33008 0.074623
6348.58984 0.072205
6348.85010 0.072161
6349.12012 0.074786
6349.37988 0.075081
6349.64014 0.072743
6349.89990 0.070489
6350.16016 0.070612
6350.41992 0.072979
6350.68018 0.073136
6350.93994 0.071283
6351.20020 0.068022
6351.45996 0.068707
6351.72021 0.070467
6351.97998 0.070707
6352.24023 0.068333
6352.50000 0.067078
6352.75977 0.067289
6353.02002 0.068697
6353.27979 0.069656
6353.54004 0.06776
6353.79980 0.064442
6354.06006 0.064878
6354.33008 0.066912
6354.58984 0.067156
6354.85010 0.065645
6355.10986 0.0636
6355.37012 0.063683
6355.62988 0.065034
6355.89014 0.065177
6356.14990 0.063687
6356.41016 0.062361
6356.66992 0.062418
6356.93018 0.063297
6357.18994 0.063614
6357.45020 0.063122
6357.70996 0.060656
6357.97021 0.060748
6358.22998 0.06154
6358.49023 0.061821
6358.75000 0.060959
6359.00977 0.059096
6359.27002 0.059217
6359.54004 0.060511
6359.79980 0.060814
6360.06006 0.058423
6360.31982 0.057748
6360.58008 0.057468
6360.83984 0.058037
6361.10010 0.058626
6361.35986 0.057846
6361.62012 0.056693
6361.87988 0.056202
6362.14014 0.056317
6362.39990 0.056551
6362.66016 0.05628
6362.91992 0.055179
6363.18018 0.054234
6363.43994 0.05535
6363.70020 0.055865
6363.95996 0.054245
6364.22021 0.053572
6364.47998 0.05296
6364.75000 0.054465
6365.00977 0.05451
6365.27002 0.052567
6365.52979 0.05189
6365.79004 0.051921
6366.04980 0.052164
6366.31006 0.052249
6366.56982 0.051561
6366.83008 0.051084
6367.08984 0.050119
6367.35010 0.051183
6367.60986 0.051339
6367.87012 0.050354
6368.12988 0.049324
6368.39014 0.049632
6368.64990 0.050048
6368.91016 0.049467
6369.16992 0.047995
6369.43018 0.047481
6369.68994 0.048128
6369.95996 0.048606
6370.22021 0.048316
6370.47998 0.046991
6370.74023 0.046078
6371.00000 0.046623
6371.25977 0.046689
6371.52002 0.046468
6371.77979 0.045999
6372.04004 0.044642
6372.29980 0.045683
6372.56006 0.045817
6372.81982 0.045382
6373.08008 0.044188
6373.33984 0.044031
6373.60010 0.043889
6373.85986 0.044524
6374.12012 0.044308
6374.37988 0.04247
6374.64014 0.042352
6374.89990 0.04292
6375.16992 0.043117
6375.43018 0.042916
6375.68994 0.041164
6375.95020 0.040711
6376.20996 0.041508
6376.47021 0.041784
6376.72998 0.042281
6376.99023 0.040299
6377.25000 0.039557
6377.50977 0.040455
6377.77002 0.040863
6378.02979 0.040262
6378.29004 0.039051
6378.54980 0.038395
6378.81006 0.03889
6379.06982 0.039381
6379.33008 0.039484
6379.58984 0.037407
6379.85010 0.037352
6380.12012 0.038429
6380.37988 0.038332
6380.64014 0.037976
6380.89990 0.036024
6381.16016 0.036485
6381.41992 0.036281
6381.68018 0.037407
6381.93994 0.036756
6382.20020 0.035007
6382.45996 0.034814
6382.72021 0.035928
6382.97998 0.036646
6383.24023 0.03535
6383.50000 0.034208
6383.75977 0.03364
6384.02002 0.03433
6384.27979 0.034986
6384.54004 0.03404
6384.79980 0.033798
6385.06006 0.033117
6385.33008 0.03348
6385.58984 0.034085
6385.85010 0.034443
6386.10986 0.032403
6386.37012 0.030928
6386.62988 0.031932
6386.89014 0.033324
6387.14990 0.032834
6387.41016 0.03141
6387.66992 0.030338
6387.93018 0.03119
6388.18994 0.031757
6388.45020 0.032347
6388.70996 0.030771
6388.97021 0.029914
6389.22998 0.030775
6389.49023 0.030974
6389.75000 0.030568
6390.00977 0.030395
6390.27002 0.028692
6390.54004 0.029058
6390.79980 0.030104
6391.06006 0.030152
6391.31982 0.029145
6391.58008 0.027894
6391.83984 0.028367
6392.10010 0.029276
6392.35986 0.028446
6392.62012 0.028313
6392.87988 0.027244
6393.14014 0.027667
6393.39990 0.028487
6393.66016 0.0285
6393.91992 0.027314
6394.18018 0.026824
6394.43994 0.026811
6394.70020 0.027595
6394.95996 0.027425
6395.22021 0.026724
6395.47998 0.026029
6395.75000 0.026022
6396.00977 0.027223
6396.27002 0.026389
6396.52979 0.025575
6396.79004 0.024951
6397.04980 0.025894
6397.31006 0.026278
6397.56982 0.026569
6397.83008 0.025638
6398.08984 0.025008
6398.35010 0.024556
6398.60986 0.025948
6398.87012 0.025619
6399.12988 0.024957
6399.39014 0.023661
6399.64990 0.02405
6399.91016 0.024784
6400.16992 0.024593
6400.43018 0.024124
6400.68994 0.023829
6400.95996 0.023812
6401.22021 0.023962
6401.47998 0.024652
6401.74023 0.023865
6402.00000 0.022761
6402.25977 0.023531
6402.52002 0.023064
6402.77979 0.023841
6403.04004 0.022696
6403.29980 0.022716
6403.56006 0.022452
6403.81982 0.023373
6404.08008 0.023773
6404.33984 0.022875
6404.60010 0.021451
6404.85986 0.022229
6405.12012 0.022495
6405.37988 0.022823
6405.64014 0.022194
6405.89990 0.021745
6406.16992 0.021073
6406.43018 0.022532
6406.68994 0.022163
6406.95020 0.022567
6407.20996 0.021759
6407.47021 0.021564
6407.72998 0.021594
6407.99023 0.021996
6408.25000 0.021486
6408.50977 0.021464
6408.77002 0.020546
6409.02979 0.020964
6409.29004 0.021869
6409.54980 0.020884
6409.81006 0.020635
6410.06982 0.020076
6410.33008 0.020781
6410.58984 0.020817
6410.85010 0.020495
6411.10986 0.019817
6411.37988 0.01977
6411.64014 0.01999
6411.89990 0.020817
6412.16016 0.020682
6412.41992 0.019742
6412.68018 0.019826
6412.93994 0.020508
6413.20020 0.020751
6413.45996 0.020581
6413.72021 0.020108
6413.97998 0.018735
6414.24023 0.019427
6414.50000 0.020033
6414.75977 0.019764
6415.02002 0.019694
6415.27979 0.018678
6415.54004 0.019056
6415.79980 0.019763
6416.06006 0.019569
6416.31982 0.019411
6416.58008 0.018463
6416.85010 0.018407
6417.10986 0.019212
6417.37012 0.019931
6417.62988 0.019091
6417.89014 0.01873
6418.14990 0.018221
6418.41016 0.018886
6418.66992 0.019535
6418.93018 0.018919
6419.18994 0.017925
6419.45020 0.018109
6419.70996 0.019103
6419.97021 0.018434
6420.22998 0.018629
6420.49023 0.018087
6420.75000 0.017843
6421.00977 0.01841
6421.27002 0.018704
6421.52979 0.018275
6421.79004 0.017344
6422.06006 0.017928
6422.31982 0.018067
6422.58008 0.018792
6422.83984 0.018291
6423.10010 0.017314
6423.35986 0.017344
6423.62012 0.017553
6423.87988 0.01871
6424.14014 0.018135
6424.39990 0.017939
6424.66016 0.01708
6424.91992 0.017186
6425.18018 0.017763
6425.43994 0.018371
6425.70020 0.017143
6425.95996 0.016509
6426.22021 0.016761
6426.47998 0.017795
6426.74023 0.017549
6427.00000 0.017089
6427.27002 0.01678
6427.52979 0.016437
6427.79004 0.01769
6428.04980 0.017512
6428.31006 0.016938
6428.56982 0.016294
6428.83008 0.016641
6429.08984 0.016576
6429.35010 0.016787
6429.60986 0.016812
6429.87012 0.016159
6430.12988 0.016229
6430.39014 0.01682
6430.64990 0.016986
6430.91016 0.016118
6431.16992 0.016157
6431.43018 0.016143
6431.68994 0.016548
6431.95020 0.01641
6432.20996 0.01606
6432.47998 0.015971
6432.74023 0.015431
6433.00000 0.015747
6433.25977 0.016491
6433.52002 0.015939
6433.77979 0.015675
6434.04004 0.015503
6434.29980 0.015692
6434.56006 0.015728
6434.81982 0.015888
6435.08008 0.015249
6435.33984 0.014544
6435.60010 0.015351
6435.85986 0.015631
6436.12012 0.016007
6436.37988 0.015332
6436.64014 0.014822
6436.89990 0.014618
6437.16016 0.015178
6437.41992 0.014697
6437.68994 0.01502
6437.95020 0.014799
6438.20996 0.014472
6438.47021 0.014717
6438.72998 0.015266
6438.99023 0.014652
6439.25000 0.014183
6439.50977 0.014311
6439.77002 0.014092
6440.02979 0.014836
6440.29004 0.01386
6440.54980 0.01416
6440.81006 0.013746
6441.06982 0.014546
6441.33008 0.014311
6441.58984 0.014423
6441.85010 0.013488
6442.10986 0.01367
6442.37012 0.013862
6442.62988 0.013949
6442.89990 0.0138
6443.16016 0.01365
6443.41992 0.013826
6443.68018 0.014154
6443.93994 0.013293
6444.20020 0.013865
6444.45996 0.013968
6444.72021 0.013126
6444.97998 0.01323
6445.24023 0.013476
6445.50000 0.01319
6445.75977 0.013145
6446.02002 0.013273
6446.27979 0.012998
6446.54004 0.013348
6446.79980 0.013272
6447.06006 0.012919
6447.31982 0.012647
6447.58008 0.01273
6447.85010 0.012806
6448.10986 0.012769
6448.37012 0.01275
6448.62988 0.012843
6448.89014 0.012586
6449.14990 0.012091
6449.41016 0.012289
6449.66992 0.012344
6449.93018 0.013132
6450.18994 0.012111
7095.20898 0.0
