# %ECSV 0.9
# ---
# datatype:
# - {name: wavelength, unit: Angstrom, datatype: float32}
# - {name: response, datatype: float32}
# meta: !!omap
# - {band_name: f_554_10}
# - {group_name: CAHA}
wavelength response
4875.78613 0.0
5417.54004 0.004228
5417.79980 0.004391
5418.06006 0.003957
5418.33008 0.004097
5418.58984 0.004076
5418.85010 0.004287
5419.10986 0.004478
5419.37012 0.004312
5419.62988 0.003885
5419.89014 0.00438
5420.14990 0.00418
5420.41992 0.004658
5420.68018 0.004261
5420.93994 0.004315
5421.20020 0.004495
5421.45996 0.00426
5421.72021 0.004273
5421.97998 0.005034
5422.24023 0.004854
5422.50000 0.004484
5422.77002 0.004719
5423.02979 0.004993
5423.29004 0.00507
5423.54980 0.005065
5423.81006 0.004884
5424.06982 0.004779
5424.33008 0.005094
5424.58984 0.005443
5424.85986 0.005143
5425.12012 0.005348
5425.37988 0.00528
5425.64014 0.005251
5425.89990 0.005148
5426.16016 0.005353
5426.41992 0.005581
5426.68018 0.005309
5426.95020 0.005227
5427.20996 0.005543
5427.47021 0.005608
5427.72998 0.005706
5427.99023 0.005884
5428.25000 0.005499
5428.50977 0.005865
5428.77002 0.006125
5429.02979 0.006343
5429.29980 0.006517
5429.56006 0.00632
5429.81982 0.006005
5430.08008 0.00615
5430.33984 0.006867
5430.60010 0.006628
5430.85986 0.006966
5431.12012 0.00622
5431.39014 0.006246
5431.64990 0.006869
5431.91016 0.006838
5432.16992 0.006955
5432.43018 0.006952
5432.68994 0.006595
5432.95020 0.006802
5433.20996 0.007449
5433.47998 0.007652
5433.74023 0.007375
5434.00000 0.007097
5434.25977 0.007367
5434.52002 0.007659
5434.77979 0.008316
5435.04004 0.007937
5435.29980 0.008017
5435.56006 0.00779
5435.83008 0.007954
5436.08984 0.00841
5436.35010 0.008598
5436.60986 0.008573
5436.87012 0.008322
5437.12988 0.008181
5437.39014 0.00876
5437.64990 0.009125
5437.91992 0.009277
5438.18018 0.0092
5438.43994 0.008938
5438.70020 0.009053
5438.95996 0.009533
5439.22021 0.010042
5439.47998 0.009651
5439.74023 0.009716
5440.00977 0.009569
5440.27002 0.009703
5440.52979 0.010341
5440.79004 0.01104
5441.04980 0.010359
5441.31006 0.01048
5441.56982 0.010293
5441.83008 0.011097
5442.08984 0.011916
5442.35986 0.011702
5442.62012 0.011063
5442.87988 0.01067
5443.14014 0.011513
5443.39990 0.012536
5443.66016 0.012752
5443.91992 0.012224
5444.18018 0.012048
5444.45020 0.011982
5444.70996 0.012904
5444.97021 0.013408
5445.22998 0.013294
5445.49023 0.013192
5445.75000 0.012979
5446.00977 0.013407
5446.27002 0.014685
5446.54004 0.014705
5446.79980 0.014592
5447.06006 0.014623
5447.31982 0.014276
5447.58008 0.015496
5447.83984 0.015946
5448.10010 0.016295
5448.35986 0.015464
5448.62012 0.015249
5448.89014 0.016577
5449.14990 0.017712
5449.41016 0.017535
5449.66992 0.017404
5449.93018 0.01696
5450.18994 0.017206
5450.45020 0.017742
5450.70996 0.019658
5450.97998 0.019561
5451.24023 0.019329
5451.50000 0.01822
5451.75977 0.018768
5452.02002 0.021011
5452.27979 0.021262
5452.54004 0.021582
5452.79980 0.020524
5453.06982 0.02045
5453.33008 0.021448
5453.58984 0.023526
5453.85010 0.024191
5454.10986 0.022872
5454.37012 0.02251
5454.62988 0.023759
5454.89014 0.024918
5455.14990 0.026584
5455.41992 0.026003
5455.68018 0.02509
5455.93994 0.024889
5456.20020 0.026573
5456.45996 0.028573
5456.72021 0.029362
5456.97998 0.029471
5457.24023 0.027962
5457.50977 0.028467
5457.77002 0.030873
5458.02979 0.032844
5458.29004 0.032633
5458.54980 0.031271
5458.81006 0.031031
5459.06982 0.033
5459.33008 0.035706
5459.60010 0.03688
5459.85986 0.036945
5460.12012 0.035549
5460.37988 0.036571
5460.64014 0.039024
5460.89990 0.042212
5461.16016 0.041577
5461.41992 0.040393
5461.68018 0.039462
5461.95020 0.041069
5462.20996 0.04525
5462.47021 0.047303
5462.72998 0.046736
5462.99023 0.045131
5463.25000 0.045159
5463.50977 0.048271
5463.77002 0.052246
5464.04004 0.053734
5464.29980 0.051526
5464.56006 0.0503
5464.81982 0.051718
5465.08008 0.056495
5465.33984 0.060307
5465.60010 0.060158
5465.85986 0.058347
5466.12012 0.058229
5466.39014 0.062457
5466.64990 0.066689
5466.91016 0.069648
5467.16992 0.067989
5467.43018 0.066472
5467.68994 0.067657
5467.95020 0.07395
5468.20996 0.077705
5468.47998 0.080052
5468.74023 0.076468
5469.00000 0.075538
5469.25977 0.080046
5469.52002 0.087584
5469.77979 0.090442
5470.04004 0.089887
5470.29980 0.086048
5470.56982 0.088355
5470.83008 0.096105
5471.08984 0.103278
5471.35010 0.104404
5471.60986 0.101708
5471.87012 0.099708
5472.12988 0.104354
5472.39014 0.114245
5472.66016 0.11865
5472.91992 0.119533
5473.18018 0.11498
5473.43994 0.116983
5473.70020 0.12375
5473.95996 0.13729
5474.22021 0.139687
5474.47998 0.137463
5474.74023 0.131693
5475.00977 0.137107
5475.27002 0.151793
5475.52979 0.159986
5475.79004 0.161095
5476.04980 0.157033
5476.31006 0.154886
5476.56982 0.166272
5476.83008 0.179921
5477.10010 0.187117
5477.35986 0.183351
5477.62012 0.178462
5477.87988 0.183191
5478.14014 0.199336
5478.39990 0.212677
5478.66016 0.216682
5478.91992 0.210746
5479.18994 0.209577
5479.45020 0.219023
5479.70996 0.237458
5479.97021 0.248824
5480.22998 0.247558
5480.49023 0.241464
5480.75000 0.244833
5481.00977 0.263242
5481.27002 0.283363
5481.54004 0.287278
5481.79980 0.281757
5482.06006 0.276525
5482.31982 0.287247
5482.58008 0.310023
5482.83984 0.326298
5483.10010 0.328243
5483.35986 0.319897
5483.62988 0.320921
5483.89014 0.340377
5484.14990 0.363484
5484.41016 0.375887
5484.66992 0.367557
5484.93018 0.363408
5485.18994 0.370916
5485.45020 0.395482
5485.72021 0.416759
5485.97998 0.420963
5486.24023 0.414442
5486.50000 0.410083
5486.75977 0.425095
5487.02002 0.44947
5487.27979 0.467155
5487.54004 0.466106
5487.79980 0.456891
5488.06982 0.460294
5488.33008 0.481622
5488.58984 0.50855
5488.85010 0.515566
5489.10986 0.50875
5489.37012 0.502132
5489.62988 0.512251
5489.89014 0.536009
5490.16016 0.556039
5490.41992 0.556205
5490.68018 0.54517
5490.93994 0.547062
5491.20020 0.562995
5491.45996 0.587044
5491.72021 0.597484
5491.97998 0.590061
5492.25000 0.582413
5492.50977 0.584275
5492.77002 0.60451
5493.02979 0.625943
5493.29004 0.628393
5493.54980 0.621238
5493.81006 0.611987
5494.06982 0.619009
5494.33008 0.63766
5494.60010 0.649485
5494.85986 0.650065
5495.12012 0.640518
5495.37988 0.63508
5495.64014 0.649191
5495.89990 0.663763
5496.16016 0.672511
5496.41992 0.663939
5496.68994 0.660458
5496.95020 0.657263
5497.20996 0.669027
5497.47021 0.676084
5497.72998 0.682194
5497.99023 0.674302
5498.25000 0.666709
5498.50977 0.668177
5498.77979 0.677514
5499.04004 0.684871
5499.29980 0.685606
5499.56006 0.677421
5499.81982 0.671321
5500.08008 0.673688
5500.33984 0.684091
5500.60010 0.685891
5500.85986 0.687326
5501.12988 0.674913
5501.39014 0.672693
5501.64990 0.674393
5501.91016 0.684527
5502.16992 0.687987
5502.43018 0.685397
5502.68994 0.671919
5502.95020 0.668491
5503.22021 0.674647
5503.47998 0.683719
5503.74023 0.684341
5504.00000 0.675533
5504.25977 0.668175
5504.52002 0.666851
5504.77979 0.673256
5505.04004 0.680443
5505.31006 0.680762
5505.56982 0.668283
5505.83008 0.662968
5506.08984 0.661571
5506.35010 0.674236
5506.60986 0.67703
5506.87012 0.674192
5507.12988 0.660715
5507.39990 0.655003
5507.66016 0.659928
5507.91992 0.669867
5508.18018 0.673802
5508.43994 0.666139
5508.70020 0.653715
5508.95996 0.653544
5509.22021 0.659727
5509.47998 0.666909
5509.75000 0.672182
5510.00977 0.660385
5510.27002 0.648517
5510.52979 0.652171
5510.79004 0.662373
5511.04980 0.668584
5511.31006 0.660219
5511.56982 0.651776
5511.83008 0.644852
5512.10010 0.649744
5512.35986 0.662619
5512.62012 0.665221
5512.87988 0.660691
5513.14014 0.647006
5513.39990 0.647269
5513.66016 0.649649
5513.91992 0.663694
5514.18994 0.661503
5514.45020 0.652757
5514.70996 0.645421
5514.97021 0.646651
5515.22998 0.653128
5515.49023 0.662335
5515.75000 0.660413
5516.00977 0.653329
5516.27979 0.647319
5516.54004 0.648159
5516.79980 0.657355
5517.06006 0.663342
5517.31982 0.654854
5517.58008 0.649288
5517.83984 0.647281
5518.10010 0.6553
5518.37012 0.662174
5518.62988 0.66572
5518.89014 0.656439
5519.14990 0.64784
5519.41016 0.652096
5519.66992 0.659078
5519.93018 0.664669
5520.18994 0.663004
5520.45020 0.660169
5520.72021 0.650778
5520.97998 0.654826
5521.24023 0.666815
5521.50000 0.668296
5521.75977 0.666664
5522.02002 0.657592
5522.27979 0.656471
5522.54004 0.65987
5522.81006 0.669051
5523.06982 0.67068
5523.33008 0.668789
5523.58984 0.65917
5523.85010 0.661401
5524.10986 0.666598
5524.37012 0.671879
5524.62988 0.675844
5524.89990 0.668719
5525.16016 0.661688
5525.41992 0.665477
5525.68018 0.67272
5525.93994 0.675417
5526.20020 0.672655
5526.45996 0.670485
5526.72021 0.67229
5526.97998 0.669811
5527.25000 0.675444
5527.50977 0.680443
5527.77002 0.675502
5528.02979 0.672196
5528.29004 0.672452
5528.54980 0.67527
5528.81006 0.682521
5529.06982 0.683051
5529.33984 0.679865
5529.60010 0.676639
5529.85986 0.678991
5530.12012 0.683777
5530.37988 0.687432
5530.64014 0.685128
5530.89990 0.682694
5531.16016 0.678423
5531.43018 0.680491
5531.68994 0.688937
5531.95020 0.686474
5532.20996 0.685312
5532.47021 0.685017
5532.72998 0.684124
5532.99023 0.685367
5533.25000 0.68812
5533.50977 0.68553
5533.77979 0.685247
5534.04004 0.685557
5534.29980 0.682474
5534.56006 0.686937
5534.81982 0.691262
5535.08008 0.686878
5535.33984 0.689779
5535.60010 0.689471
5535.87012 0.68281
5536.12988 0.688912
5536.39014 0.690526
5536.64990 0.690198
5536.91016 0.686733
5537.16992 0.68809
5537.43018 0.687055
5537.68994 0.687227
5537.95996 0.689769
5538.22021 0.688996
5538.47998 0.68644
5538.74023 0.686833
5539.00000 0.686799
5539.25977 0.684677
5539.52002 0.684453
5539.77979 0.687962
5540.04004 0.685974
5540.31006 0.687899
5540.56982 0.686342
5540.83008 0.685995
5541.08984 0.685207
5541.35010 0.686711
5541.60986 0.682482
5541.87012 0.682205
5542.12988 0.680761
5542.39990 0.681548
5542.66016 0.683653
5542.91992 0.683685
5543.18018 0.680254
5543.43994 0.681478
5543.70020 0.676686
5543.95996 0.682177
5544.22021 0.682422
5544.49023 0.682182
5544.75000 0.679522
5545.00977 0.675593
5545.27002 0.673274
5545.52979 0.676587
5545.79004 0.679691
5546.04980 0.677365
5546.31006 0.673499
5546.56982 0.670927
5546.83984 0.66694
5547.10010 0.674085
5547.35986 0.678689
5547.62012 0.674223
5547.87988 0.669361
5548.14014 0.667971
5548.39990 0.666719
5548.66016 0.670809
5548.93018 0.674641
5549.18994 0.665449
5549.45020 0.663247
5549.70996 0.664606
5549.97021 0.667512
5550.22998 0.669731
5550.49023 0.670571
5550.75000 0.666426
5551.02002 0.659853
5551.27979 0.660519
5551.54004 0.660881
5551.79980 0.66808
5552.06006 0.665154
5552.31982 0.660844
5552.58008 0.658219
5552.83984 0.660249
5553.10010 0.663753
5553.37012 0.663096
5553.62988 0.663373
5553.89014 0.657506
5554.14990 0.656177
5554.41016 0.658397
5554.66992 0.662306
5554.93018 0.665044
5555.18994 0.661351
5555.45996 0.655254
5555.72021 0.652389
5555.97998 0.661005
5556.24023 0.663023
5556.50000 0.665158
5556.75977 0.656236
5557.02002 0.653356
5557.27979 0.65828
5557.54980 0.661907
5557.81006 0.661084
5558.06982 0.664002
5558.33008 0.659305
5558.58984 0.652946
5558.85010 0.657063
5559.10986 0.662112
5559.37012 0.666306
5559.62988 0.659
5559.89990 0.653674
5560.16016 0.654457
5560.41992 0.658336
5560.68018 0.66103
5560.93994 0.662197
5561.20020 0.659748
5561.45996 0.655202
5561.72021 0.656571
5561.99023 0.657776
5562.25000 0.665448
5562.50977 0.66275
5562.77002 0.660773
5563.02979 0.655612
5563.29004 0.659015
5563.54980 0.662693
5563.81006 0.663581
5564.08008 0.664512
5564.33984 0.662319
5564.60010 0.65801
5564.85986 0.66178
5565.12012 0.666664
5565.37988 0.66261
5565.64014 0.66407
5565.89990 0.665435
5566.16992 0.661799
5566.43018 0.665663
5566.68994 0.665445
5566.95020 0.664733
5567.20996 0.662519
5567.47021 0.665013
5567.72998 0.662341
5567.99023 0.666131
5568.25000 0.66652
5568.52002 0.661111
5568.77979 0.663512
5569.04004 0.663179
5569.29980 0.664893
5569.56006 0.664641
5569.81982 0.664358
5570.08008 0.659567
5570.33984 0.658546
5570.60010 0.660765
5570.87012 0.666404
5571.12988 0.661266
5571.39014 0.657873
5571.64990 0.65438
5571.91016 0.655391
5572.16992 0.658536
5572.43018 0.656706
5572.68994 0.6528
5572.95996 0.648294
5573.22021 0.645415
5573.47998 0.647789
5573.74023 0.651791
5574.00000 0.64939
5574.25977 0.637342
5574.52002 0.634717
5574.77979 0.634244
5575.04980 0.6369
5575.31006 0.635767
5575.56982 0.626795
5575.83008 0.621756
5576.08984 0.615348
5576.35010 0.615292
5576.60986 0.617795
5576.87012 0.616167
5577.14014 0.605357
5577.39990 0.594993
5577.66016 0.589985
5577.91992 0.592936
5578.18018 0.593405
5578.43994 0.590743
5578.70020 0.575671
5578.95996 0.565609
5579.22021 0.560732
5579.49023 0.564546
5579.75000 0.561159
5580.00977 0.556869
5580.27002 0.540001
5580.52979 0.532778
5580.79004 0.526265
5581.04980 0.530581
5581.31006 0.525913
5581.58008 0.51562
5581.83984 0.49986
5582.10010 0.490825
5582.35986 0.492002
5582.62012 0.493342
5582.87988 0.485022
5583.14014 0.472588
5583.39990 0.456782
5583.66992 0.449576
5583.93018 0.452221
5584.18994 0.451377
5584.45020 0.442366
5584.70996 0.425808
5584.97021 0.413007
5585.22998 0.406383
5585.49023 0.410713
5585.75000 0.406728
5586.02002 0.392494
5586.27979 0.379704
5586.54004 0.36915
5586.79980 0.36693
5587.06006 0.365146
5587.31982 0.363758
5587.58008 0.350389
5587.83984 0.337894
5588.10986 0.32754
5588.37012 0.326374
5588.62988 0.325255
5588.89014 0.32119
5589.14990 0.308784
5589.41016 0.295348
5589.66992 0.289954
5589.93018 0.287597
5590.20020 0.287989
5590.45996 0.280996
5590.72021 0.268406
5590.97998 0.257764
5591.24023 0.25355
5591.50000 0.252411
5591.75977 0.250992
5592.02002 0.245024
5592.27979 0.233632
5592.54980 0.224581
5592.81006 0.222407
5593.06982 0.222376
5593.33008 0.219675
5593.58984 0.210932
5593.85010 0.201299
5594.10986 0.194232
5594.37012 0.192921
5594.64014 0.192406
5594.89990 0.188735
5595.16016 0.183345
5595.41992 0.172776
5595.68018 0.169111
5595.93994 0.168472
5596.20020 0.169543
5596.45996 0.163914
5596.72998 0.157543
5596.99023 0.149118
5597.25000 0.146472
5597.50977 0.146493
5597.77002 0.145631
5598.02979 0.142469
5598.29004 0.136002
5598.54980 0.129567
5598.81006 0.126834
5599.08008 0.126955
5599.33984 0.1259
5599.60010 0.123852
5599.85986 0.116464
5600.12012 0.11266
5600.37988 0.110489
5600.64014 0.110622
5600.89990 0.109367
5601.16992 0.106634
5601.43018 0.101508
5601.68994 0.097253
5601.95020 0.096081
5602.20996 0.096987
5602.47021 0.095327
5602.72998 0.092426
5602.99023 0.088206
5603.25977 0.085165
5603.52002 0.083961
5603.77979 0.08491
5604.04004 0.08318
5604.29980 0.080093
5604.56006 0.077238
5604.81982 0.074251
5605.08008 0.074412
5605.33984 0.074287
5605.60986 0.072491
5605.87012 0.070189
5606.12988 0.066621
5606.39014 0.066099
5606.64990 0.065154
5606.91016 0.064818
5607.16992 0.063218
5607.43018 0.060723
5607.70020 0.05907
5607.95996 0.05789
5608.22021 0.057212
5608.47998 0.057566
5608.74023 0.055225
5609.00000 0.053842
5609.25977 0.051801
5609.52002 0.051505
5609.79004 0.050749
5610.04980 0.051339
5610.31006 0.048446
5610.56982 0.047757
5610.83008 0.044878
5611.08984 0.045475
5611.35010 0.044851
5611.60986 0.044985
5611.87988 0.043453
5612.14014 0.041058
5612.39990 0.040468
5612.66016 0.04033
5612.91992 0.040266
5613.18018 0.039705
5613.43994 0.037962
5613.70020 0.037605
5613.95996 0.035833
5614.22998 0.035541
5614.49023 0.035285
5614.75000 0.035236
5615.00977 0.033764
5615.27002 0.032728
5615.52979 0.032063
5615.79004 0.031474
5616.04980 0.031773
5616.31982 0.031607
5616.58008 0.030544
5616.83984 0.029394
5617.10010 0.029052
5617.35986 0.02836
5617.62012 0.028608
5617.87988 0.028173
5618.14014 0.026924
5618.39990 0.026348
5618.66992 0.025624
5618.93018 0.025815
5619.18994 0.026023
5619.45020 0.025256
5619.70996 0.024447
5619.97021 0.023712
5620.22998 0.023495
5620.49023 0.023282
5620.75977 0.023233
5621.02002 0.022069
5621.27979 0.022155
5621.54004 0.021158
5621.79980 0.020888
5622.06006 0.021111
5622.31982 0.02055
5622.58008 0.020285
5622.85010 0.019489
5623.10986 0.019199
5623.37012 0.018943
5623.62988 0.019483
5623.89014 0.018883
5624.14990 0.018451
5624.41016 0.01802
5624.66992 0.017519
5624.93018 0.017457
5625.20020 0.017211
5625.45996 0.017161
5625.72021 0.016564
5625.97998 0.016252
5626.24023 0.015982
5626.50000 0.016125
5626.75977 0.016029
5627.02002 0.015609
5627.29004 0.015373
5627.54980 0.015211
5627.81006 0.014958
5628.06982 0.014436
5628.33008 0.014667
5628.58984 0.014206
5628.85010 0.01372
5629.10986 0.013515
5629.37988 0.013442
5629.64014 0.013167
5629.89990 0.013107
5630.16016 0.013021
5630.41992 0.012889
5630.68018 0.012705
5630.93994 0.012515
5631.20020 0.01215
5631.45996 0.012308
5631.72998 0.012161
5631.99023 0.011589
5632.25000 0.011487
5632.50977 0.011472
5632.77002 0.011631
5633.02979 0.011308
5633.29004 0.010783
5633.54980 0.01108
5633.81982 0.010536
5634.08008 0.010335
5634.33984 0.010393
5634.60010 0.010376
5634.85986 0.010288
5635.12012 0.009936
5635.37988 0.010251
5635.64014 0.009787
5635.91016 0.009602
5636.16992 0.009563
5636.43018 0.009531
5636.68994 0.009197
5636.95020 0.009286
5637.20996 0.009039
5637.47021 0.008881
5637.72998 0.008831
5637.99023 0.008688
5638.25977 0.008564
5638.52002 0.008376
5638.77979 0.008339
5639.04004 0.008433
5639.29980 0.008196
5639.56006 0.008228
5639.81982 0.008027
5640.08008 0.007872
5640.35010 0.007754
5640.60986 0.007869
5640.87012 0.007392
5641.12988 0.007543
5641.39014 0.007294
5641.64990 0.007444
5641.91016 0.007445
5642.16992 0.007423
5642.43994 0.007073
5642.70020 0.006972
5642.95996 0.00693
5643.22021 0.00684
5643.47998 0.006932
5643.74023 0.006798
5644.00000 0.006825
5644.25977 0.006605
5644.52002 0.006292
5644.79004 0.006415
5645.04980 0.006184
5645.31006 0.006429
5645.56982 0.006113
5645.83008 0.006083
5646.08984 0.006194
5646.35010 0.005958
5646.60986 0.005925
5646.87988 0.006045
5647.14014 0.005852
5647.39990 0.005736
5647.66016 0.005767
5647.91992 0.005769
5648.18018 0.005686
5648.43994 0.005245
5648.70020 0.005263
5648.97021 0.005688
5649.22998 0.005559
5649.49023 0.005237
5649.75000 0.00537
5650.00977 0.00537
5650.27002 0.005298
5650.52979 0.005123
5650.79004 0.005024
5651.04980 0.005009
5651.31982 0.004991
5651.58008 0.004916
5651.83984 0.004685
5652.10010 0.004953
5652.35986 0.004489
5652.62012 0.004648
5652.87988 0.004677
5653.14014 0.004728
5653.41016 0.004719
5653.66992 0.004574
5653.93018 0.004353
5654.18994 0.004382
5654.45020 0.004542
5654.70996 0.004379
5654.97021 0.004327
5655.22998 0.004211
5655.50000 0.004341
5655.75977 0.004172
5656.02002 0.004215
5656.27979 0.004076
5656.54004 0.004223
5656.79980 0.004056
6222.47998 0.0
