# %ECSV 0.9
# ---
# datatype:
# - {name: wavelength, unit: Angstrom, datatype: float32}
# - {name: response, datatype: float32}
# meta: !!omap
# - {band_name: f_648_168}
# - {group_name: CAHA}
wavelength response
4764.34717 0.0
5293.71924 0.0041
5296.97021 0.004257
5300.22119 0.004418
5303.47217 0.004585
5306.72412 0.004756
5309.97510 0.004932
5313.22705 0.005112
5316.47803 0.005298
5319.72998 0.005488
5322.98193 0.005684
5326.23291 0.005884
5329.48486 0.006089
5332.73682 0.006298
5335.99023 0.006513
5339.24219 0.006732
5342.49414 0.006957
5345.74707 0.007186
5348.99902 0.00742
5352.25098 0.007659
5355.50391 0.007902
5358.75586 0.008151
5362.00879 0.008404
5365.26221 0.008662
5368.51514 0.008925
5371.76807 0.009193
5375.02100 0.009466
5378.27295 0.009743
5381.52686 0.010026
5384.77979 0.010313
5388.03320 0.010605
5391.28711 0.010902
5394.54004 0.011204
5397.79297 0.01151
5401.04688 0.011822
5404.30078 0.012138
5407.55518 0.012459
5410.80908 0.012785
5414.06299 0.013116
5417.31592 0.013451
5420.56982 0.013792
5423.82520 0.014137
5427.07910 0.014487
5430.33301 0.014842
5433.58691 0.015202
5436.84180 0.015566
5440.09619 0.015936
5443.35107 0.016311
5446.60498 0.016692
5449.85986 0.017081
5453.11523 0.01748
5456.37012 0.017892
5459.62500 0.018325
5462.87988 0.018789
5466.13477 0.019297
5469.39111 0.019869
5472.64600 0.020527
5475.90088 0.0213
5479.15723 0.022215
5482.41211 0.023304
5485.66699 0.024593
5488.92285 0.02611
5492.17920 0.027876
5495.43506 0.029914
5498.69092 0.032244
5501.94678 0.034888
5505.20312 0.03787
5508.45898 0.041217
5511.71484 0.044956
5514.97119 0.049113
5518.22803 0.053711
5521.48389 0.05877
5524.74121 0.064303
5527.99707 0.070324
5531.25391 0.076841
5534.51123 0.083865
5537.76709 0.091406
5541.02393 0.099473
5544.28076 0.108071
5547.53809 0.117202
5550.79492 0.126852
5554.05176 0.137003
5557.31006 0.147627
5560.56689 0.158693
5563.82520 0.170172
5567.08203 0.182038
5570.33887 0.194272
5573.59717 0.206859
5576.85498 0.21978
5580.11279 0.233015
5583.37109 0.246534
5586.62793 0.2603
5589.88721 0.274271
5593.14502 0.288404
5596.40283 0.302657
5599.66113 0.316995
5602.91895 0.331389
5606.17822 0.345812
5609.43701 0.360241
5612.69482 0.374656
5615.95410 0.389028
5619.21191 0.403331
5622.47119 0.417529
5625.72998 0.431583
5628.98877 0.445454
5632.24805 0.459099
5635.50684 0.472485
5638.76611 0.485579
5642.02490 0.498357
5645.28516 0.510807
5648.54395 0.522923
5651.80322 0.534702
5655.06299 0.546145
5658.32324 0.55725
5661.58301 0.568013
5664.84180 0.578427
5668.10205 0.588488
5671.36182 0.598189
5674.62207 0.60753
5677.88184 0.616519
5681.14209 0.625167
5684.40186 0.633487
5687.66309 0.641487
5690.92285 0.649171
5694.18408 0.656537
5697.44385 0.663577
5700.70508 0.670282
5703.96484 0.676649
5707.22607 0.682683
5710.48682 0.688397
5713.74805 0.693808
5717.00879 0.698936
5720.27002 0.703795
5723.53076 0.708398
5726.79199 0.712745
5730.05420 0.716843
5733.31494 0.720693
5736.57715 0.724305
5739.83789 0.727693
5743.10010 0.73088
5746.36084 0.733892
5749.62305 0.736758
5752.88477 0.73951
5756.14600 0.742172
5759.40918 0.744764
5762.67090 0.747296
5765.93311 0.749769
5769.19482 0.752173
5772.45801 0.754494
5775.72021 0.756718
5778.98193 0.758833
5782.24512 0.760843
5785.50684 0.76276
5788.77002 0.764612
5792.03320 0.76643
5795.29492 0.768249
5798.55908 0.770095
5801.82080 0.771991
5805.08398 0.773947
5808.34814 0.775966
5811.61084 0.778042
5814.87402 0.780167
5818.13721 0.782332
5821.40088 0.784526
5824.66504 0.786734
5827.92822 0.788953
5831.19189 0.791178
5834.45605 0.793409
5837.71924 0.795654
5840.98291 0.797924
5844.24707 0.800232
5847.51123 0.802593
5850.77490 0.80502
5854.04004 0.807524
5857.30420 0.810108
5860.56787 0.812764
5863.83301 0.81548
5867.09717 0.818235
5870.36084 0.82101
5873.62598 0.823787
5876.89111 0.826556
5880.15576 0.829308
5883.41992 0.832039
5886.68604 0.834747
5889.95117 0.837422
5893.21582 0.840048
5896.48096 0.842612
5899.74609 0.845102
5903.01123 0.847507
5906.27686 0.849826
5909.54199 0.852065
5912.80811 0.854236
5916.07422 0.856354
5919.33887 0.858437
5922.60498 0.860497
5925.87109 0.862543
5929.13721 0.864574
5932.40283 0.866583
5935.66895 0.868545
5938.93506 0.870418
5942.20117 0.872149
5945.46777 0.873673
5948.73389 0.874927
5952.00000 0.875851
5955.26709 0.876424
5958.53418 0.876663
5961.79980 0.876628
5965.06689 0.876422
5968.33398 0.876163
5971.60107 0.87596
5974.86816 0.875872
5978.13477 0.875895
5981.40186 0.875955
5984.66895 0.875913
5987.93701 0.875615
5991.20410 0.874921
5994.47217 0.873749
5997.73877 0.872089
6001.00684 0.87001
6004.27490 0.867626
6007.54199 0.865074
6010.81006 0.862483
6014.07812 0.859936
6017.34619 0.857473
6020.61377 0.85509
6023.88184 0.852753
6027.15088 0.85042
6030.41895 0.848053
6033.68799 0.84564
6036.95605 0.843193
6040.22510 0.840744
6043.49316 0.838341
6046.76221 0.836029
6050.02979 0.83385
6053.29883 0.831831
6056.56787 0.829971
6059.83691 0.828263
6063.10596 0.826685
6066.37500 0.825211
6069.64502 0.823824
6072.91406 0.822519
6076.18311 0.821302
6079.45312 0.820192
6082.72217 0.81921
6085.99219 0.818376
6089.26221 0.817698
6092.53076 0.81717
6095.80078 0.816775
6099.07080 0.816483
6102.34082 0.816266
6105.61084 0.816101
6108.88086 0.815961
6112.15088 0.815834
6115.42188 0.815709
6118.69189 0.815592
6121.96191 0.815495
6125.23291 0.815426
6128.50391 0.815421
6131.77393 0.815516
6135.04492 0.815754
6138.31592 0.816194
6141.58691 0.816886
6144.85791 0.817898
6148.12891 0.819276
6151.39990 0.821062
6154.67090 0.823273
6157.94189 0.825898
6161.21387 0.828904
6164.48486 0.832238
6167.75684 0.83584
6171.02783 0.839655
6174.29980 0.843635
6177.57178 0.847739
6180.84424 0.851923
6184.11523 0.856128
6187.38721 0.860283
6190.66016 0.864295
6193.93213 0.868068
6197.20410 0.871513
6200.47607 0.874566
6203.74902 0.877192
6207.02100 0.879392
6210.29297 0.881201
6213.56592 0.882675
6216.83789 0.883885
6220.11084 0.884899
6223.38379 0.885784
6226.65723 0.886601
6229.93018 0.887382
6233.20312 0.888159
6236.47607 0.888949
6239.75000 0.889754
6243.02197 0.890579
6246.29590 0.89141
6249.56885 0.892241
6252.84277 0.89306
6256.11621 0.893862
6259.39014 0.89464
6262.66406 0.895395
6265.93799 0.89613
6269.21094 0.896849
6272.48486 0.897558
6275.75879 0.898254
6279.03320 0.898937
6282.30811 0.899598
6285.58203 0.900228
6288.85596 0.900818
6292.12988 0.90136
6295.40479 0.901852
6298.68018 0.902296
6301.95410 0.902704
6305.22900 0.903087
6308.50391 0.903465
6311.77881 0.903855
6315.05420 0.904273
6318.32910 0.904733
6321.60400 0.905236
6324.87891 0.905774
6328.15381 0.90633
6331.42920 0.906873
6334.70508 0.907366
6337.97998 0.907769
6341.25586 0.908043
6344.53076 0.908162
6347.80713 0.908117
6351.08301 0.907918
6354.35889 0.907595
6357.63477 0.90719
6360.91113 0.906756
6364.18701 0.906336
6367.46289 0.905967
6370.73877 0.905664
6374.01611 0.905427
6377.29199 0.905243
6380.56787 0.905087
6383.84521 0.904932
6387.12207 0.904759
6390.39795 0.904558
6393.67480 0.904328
6396.95215 0.904078
6400.22900 0.90382
6403.50488 0.903565
6406.78320 0.903318
6410.06006 0.90308
6413.33691 0.902844
6416.61377 0.902603
6419.89209 0.902347
6423.16895 0.902074
6426.44678 0.901784
6429.72510 0.901484
6433.00195 0.901186
6436.27979 0.900905
6439.55811 0.900653
6442.83496 0.90044
6446.11279 0.900264
6449.39209 0.900118
6452.66992 0.899991
6455.94824 0.89987
6459.22607 0.899745
6462.50391 0.899619
6465.78320 0.899503
6469.06201 0.899414
6472.33984 0.899379
6475.61914 0.899417
6478.89697 0.899545
6482.17578 0.899764
6485.45508 0.900066
6488.73389 0.900432
6492.01318 0.900838
6495.29199 0.901262
6498.57178 0.901682
6501.85107 0.902084
6505.12988 0.902458
6508.41016 0.902802
6511.68896 0.903115
6514.96924 0.903407
6518.24902 0.903683
6521.52783 0.903962
6524.80811 0.904253
6528.08789 0.904568
6531.36816 0.904909
6534.64795 0.905272
6537.92822 0.905645
6541.20801 0.906015
6544.48779 0.906373
6547.76904 0.90672
6551.04883 0.907065
6554.33008 0.907427
6557.60986 0.907828
6560.89111 0.908282
6564.17188 0.908794
6567.45312 0.909356
6570.73291 0.90995
6574.01416 0.910554
6577.29492 0.911144
6580.57715 0.911702
6583.85791 0.912218
6587.13916 0.912688
6590.41992 0.913111
6593.70215 0.913492
6596.98291 0.913832
6600.26514 0.914141
6603.54590 0.914423
6606.82812 0.914686
6610.10986 0.914935
6613.39209 0.915175
6616.67383 0.915399
6619.95605 0.915598
6623.23779 0.915758
6626.52002 0.915865
6629.80176 0.91591
6633.08398 0.915887
6636.36719 0.915801
6639.64893 0.915668
6642.93213 0.915504
6646.21484 0.915331
6649.49805 0.915171
6652.77979 0.915045
6656.06299 0.914968
6659.34619 0.914946
6662.62891 0.914978
6665.91211 0.915048
6669.19482 0.915132
6672.47900 0.915198
6675.76221 0.915212
6679.04492 0.915144
6682.32910 0.914975
6685.61182 0.914697
6688.89600 0.91432
6692.18018 0.913862
6695.46289 0.91335
6698.74707 0.912814
6702.03076 0.912277
6705.31494 0.911761
6708.59912 0.911276
6711.88281 0.910826
6715.16699 0.91041
6718.45215 0.91002
6721.73584 0.909646
6725.02100 0.909268
6728.30518 0.908868
6731.58984 0.908418
6734.87500 0.907898
6738.15918 0.907291
6741.44385 0.906593
6744.72900 0.905817
6748.01416 0.904983
6751.29883 0.90412
6754.58398 0.903252
6757.87012 0.902396
6761.15479 0.901566
6764.43994 0.900765
6767.72607 0.899994
6771.01123 0.89926
6774.29688 0.898567
6777.58301 0.897926
6780.86816 0.897342
6784.15381 0.89682
6787.43994 0.896356
6790.72607 0.895943
6794.01221 0.895569
6797.29785 0.89522
6800.58398 0.894885
6803.87109 0.894558
6807.15723 0.894239
6810.44287 0.89394
6813.72998 0.893675
6817.01709 0.893471
6820.30322 0.893356
6823.58984 0.893361
6826.87695 0.893518
6830.16406 0.893853
6833.45117 0.894389
6836.73779 0.895133
6840.02490 0.896079
6843.31201 0.897207
6846.59912 0.898483
6849.88721 0.899862
6853.17383 0.901288
6856.46094 0.90271
6859.75000 0.904079
6863.03711 0.905352
6866.32520 0.906501
6869.61279 0.907508
6872.89990 0.908362
6876.18799 0.909058
6879.47705 0.909591
6882.76514 0.909949
6886.05322 0.910116
6889.34082 0.910067
6892.62891 0.909775
6895.91797 0.909212
6899.20703 0.908359
6902.49512 0.907211
6905.78418 0.905779
6909.07178 0.904094
6912.36084 0.9022
6915.64990 0.900157
6918.93896 0.898028
6922.22803 0.895875
6925.51709 0.893753
6928.80615 0.891708
6932.09619 0.889778
6935.38477 0.88799
6938.67383 0.886363
6941.96387 0.884907
6945.25293 0.883617
6948.54297 0.882481
6951.83301 0.881473
6955.12305 0.880563
6958.41211 0.879711
6961.70215 0.878881
6964.99219 0.878041
6968.28223 0.877164
6971.57324 0.876231
6974.86279 0.87523
6978.15283 0.874152
6981.44385 0.87299
6984.73389 0.871745
6988.02393 0.870419
6991.31494 0.869021
6994.60596 0.867563
6997.89697 0.86606
7001.18799 0.86453
7004.47900 0.862988
7007.77002 0.861447
7011.06104 0.859916
7014.35205 0.858401
7017.64307 0.856903
7020.93506 0.855426
7024.22607 0.853975
7027.51709 0.852559
7030.80908 0.851193
7034.10107 0.849896
7037.39209 0.848679
7040.68408 0.847547
7043.97607 0.846484
7047.26807 0.845456
7050.56006 0.844408
7053.85205 0.843273
7057.14404 0.841977
7060.43604 0.840458
7063.72900 0.838673
7067.02100 0.836606
7070.31299 0.834275
7073.60596 0.831725
7076.89795 0.829023
7080.19092 0.826249
7083.48389 0.823479
7086.77686 0.820781
7090.06982 0.818205
7093.36279 0.815781
7096.65576 0.813523
7099.94922 0.811434
7103.24219 0.809507
7106.53613 0.807735
7109.82910 0.806109
7113.12207 0.804627
7116.41602 0.803291
7119.70898 0.802111
7123.00293 0.801109
7126.29688 0.800317
7129.59082 0.799776
7132.88477 0.799526
7136.17920 0.7996
7139.47314 0.800006
7142.76709 0.800715
7146.06104 0.801656
7149.35498 0.802717
7152.64893 0.803751
7155.94385 0.804605
7159.23779 0.80513
7162.53320 0.805207
7165.82812 0.804758
7169.12305 0.803748
7172.41699 0.802183
7175.71191 0.800108
7179.00684 0.797588
7182.30176 0.794705
7185.59814 0.791548
7188.89307 0.788206
7192.18799 0.784762
7195.48291 0.781285
7198.77881 0.777819
7202.07422 0.774391
7205.37012 0.770999
7208.66602 0.767622
7211.96094 0.764225
7215.25684 0.760765
7218.55322 0.7572
7221.84912 0.753499
7225.14502 0.749643
7228.44092 0.745618
7231.73682 0.741418
7235.03418 0.737027
7238.33008 0.732413
7241.62598 0.727519
7244.92285 0.722268
7248.21924 0.716565
7251.51611 0.710307
7254.81299 0.703398
7258.10889 0.695761
7261.40576 0.687342
7264.70410 0.678117
7268.00000 0.668089
7271.29688 0.65728
7274.59521 0.645733
7277.89209 0.633498
7281.18896 0.620641
7284.48682 0.607231
7287.78418 0.593349
7291.08203 0.579078
7294.37891 0.564505
7297.67676 0.549716
7300.97510 0.534791
7304.27295 0.519787
7307.57080 0.504749
7310.86914 0.489694
7314.16699 0.474618
7317.46484 0.459498
7320.76318 0.444303
7324.06201 0.429003
7327.35986 0.413585
7330.65918 0.398069
7333.95703 0.382511
7337.25586 0.367003
7340.55518 0.351668
7343.85400 0.336637
7347.15186 0.322032
7350.45117 0.307951
7353.75000 0.294457
7357.04883 0.281575
7360.34814 0.269298
7363.64697 0.257599
7366.94678 0.246438
7370.24609 0.235772
7373.54590 0.225564
7376.84521 0.215782
7380.14502 0.206405
7383.44482 0.197419
7386.74512 0.188816
7390.04395 0.180591
7393.34424 0.172743
7396.64404 0.165266
7399.94385 0.158154
7403.24512 0.151397
7406.54492 0.144981
7409.84521 0.138888
7413.14600 0.133099
7416.44580 0.127595
7419.74707 0.122356
7423.04688 0.117367
7426.34814 0.112614
7429.64795 0.108086
7432.94922 0.103771
7436.25000 0.099662
7439.55078 0.09575
7442.85205 0.092028
7446.15283 0.088488
7449.45508 0.085124
7452.75586 0.08193
7456.05811 0.0789
7459.35889 0.076028
7462.66016 0.073306
7465.96191 0.070725
7469.26416 0.068275
7472.56494 0.065945
7475.86719 0.063725
7479.16895 0.061605
7482.47119 0.059579
7485.77295 0.057639
7489.07520 0.055783
7492.37695 0.054007
7495.68018 0.05231
7498.98193 0.050687
7502.28516 0.049135
7505.58691 0.047651
7508.89014 0.046228
7512.19189 0.044861
7515.49512 0.043546
7518.79785 0.04228
7522.10107 0.04106
7525.40381 0.039885
7528.70703 0.038755
7532.00977 0.037671
7535.31299 0.036634
7538.61621 0.035642
7541.91992 0.034694
7545.22314 0.033786
7548.52686 0.032914
7551.83105 0.032073
7555.13379 0.031257
7558.43799 0.030463
7561.74219 0.029692
7565.04492 0.028944
7568.35010 0.028225
7571.65283 0.02754
7574.95801 0.026894
7578.26221 0.02629
7581.56592 0.025727
7584.87109 0.025201
7588.17480 0.024707
7591.47900 0.024238
7594.78418 0.023786
7598.08887 0.023346
7601.39404 0.022914
7604.69824 0.022487
7608.00293 0.022064
7611.30811 0.021645
7614.61279 0.02123
7617.91797 0.02082
7621.22314 0.020416
7624.52881 0.02002
7627.83398 0.019634
7631.14014 0.019261
7634.44482 0.018906
7637.75000 0.01857
7641.05615 0.018255
7644.36182 0.017962
7647.66699 0.017689
7650.97314 0.017434
7654.27881 0.017193
7657.58496 0.016963
7660.89209 0.016739
7664.19824 0.01652
7667.50391 0.016303
7670.81006 0.016087
7674.11719 0.015873
7677.42285 0.015661
7680.72998 0.015452
7684.03613 0.015248
7687.34277 0.015048
7690.64990 0.014852
7693.95703 0.014661
7697.26416 0.014474
7700.57080 0.014291
7703.87793 0.014113
7707.18506 0.013941
7710.49219 0.013773
7713.79883 0.013608
7717.10693 0.013447
7720.41504 0.013289
7723.72217 0.013131
7727.02979 0.012974
7730.33691 0.012816
7733.64502 0.012659
7736.95312 0.0125
7740.26123 0.012341
7743.56885 0.012182
7746.87695 0.012023
7750.18506 0.011864
7753.49316 0.011706
7756.80176 0.011551
7760.10986 0.011402
7763.41797 0.011258
7766.72705 0.011123
7770.03613 0.010997
7773.34424 0.01088
7776.65283 0.010771
7779.96191 0.01067
7783.27100 0.010576
7786.58008 0.010487
7789.88916 0.010403
7793.19824 0.010323
7796.50684 0.010248
7799.81592 0.010178
7803.12598 0.010112
7806.43604 0.01005
7809.74512 0.009991
7813.05518 0.009933
7816.36377 0.009874
7819.67383 0.009814
7822.98389 0.00975
7826.29297 0.009681
7829.60400 0.009606
7832.91406 0.009524
7836.22412 0.009435
7839.53418 0.009341
7842.84424 0.009241
7846.15479 0.009137
7849.46484 0.00903
7852.77588 0.008922
7856.08594 0.008813
7859.39697 0.008704
7862.70801 0.008594
7866.01904 0.008483
7869.33008 0.008373
7872.64014 0.008265
7875.95215 0.008159
7879.26318 0.008058
7882.57422 0.007963
7885.88477 0.007874
7889.19580 0.007789
7892.50781 0.007709
7895.81885 0.007631
7899.13086 0.007554
7902.44287 0.007478
7905.75391 0.007405
7909.06592 0.007335
7912.37793 0.007271
7915.68994 0.007213
7919.00195 0.007162
7922.31396 0.007116
7925.62598 0.007074
7928.93896 0.007033
7932.25098 0.00699
7935.56299 0.006944
7938.87598 0.006893
7942.18799 0.006835
7945.50098 0.00677
7948.81396 0.006697
7952.12598 0.006617
7955.43896 0.006532
7958.75195 0.006443
7962.06592 0.006356
7965.37891 0.006273
7968.69189 0.006198
7972.00488 0.006134
7975.31787 0.006083
7978.63184 0.006045
7981.94482 0.006018
7985.25879 0.006107
7988.57324 0.006037
7991.88623 0.005967
7995.20020 0.005898
7998.51416 0.005828
8001.82812 0.005758
8005.14209 0.005688
8008.45605 0.005619
8011.77100 0.005549
8015.08398 0.005479
8018.39893 0.005409
8021.71289 0.00534
8025.02783 0.00527
8028.34180 0.0052
8031.65723 0.00513
8034.97217 0.005061
8038.28711 0.004991
8041.60205 0.004921
8044.91699 0.004851
8048.23096 0.004782
8051.54590 0.004712
8054.86084 0.004642
8058.17676 0.004572
8061.49219 0.004503
8064.80811 0.004433
8068.12305 0.004363
8071.43799 0.004293
8074.75391 0.004223
8078.06982 0.004154
8081.38623 0.004084
8084.70215 0.004014
8893.17188 0.0
