# %ECSV 0.9
# ---
# datatype:
# - {name: wavelength, unit: Angstrom, datatype: float32}
# - {name: response, datatype: float32}
# meta: !!omap
# - {band_name: f_458_89}
# - {group_name: CAHA}
wavelength response
3151.45801 0.0
3501.62012 0.018538
3503.67993 0.018538
3505.73999 0.018538
3507.80005 0.018313
3509.86011 0.018836
3511.91992 0.018836
3513.97998 0.018836
3516.04004 0.018566
3518.10010 0.018836
3520.15991 0.018566
3522.21997 0.018246
3524.28003 0.017623
3526.34009 0.018246
3528.39990 0.018246
3530.45996 0.018246
3532.52002 0.018327
3534.58008 0.019222
3536.63989 0.018715
3538.69995 0.019222
3540.76001 0.019508
3542.82007 0.019508
3544.87988 0.019508
3546.93994 0.020206
3549.00000 0.020206
3551.06006 0.020433
3553.12012 0.020433
3555.17993 0.018825
3557.23999 0.018572
3559.30005 0.018825
3561.36011 0.018825
3563.41992 0.019194
3565.47998 0.019194
3567.54004 0.020296
3569.60010 0.019194
3571.65991 0.019783
3573.71997 0.019645
3575.78003 0.019645
3577.84009 0.019645
3579.89990 0.019783
3581.95996 0.021766
3584.02002 0.021766
3586.08008 0.021766
3588.13989 0.020928
3590.19995 0.020928
3592.26001 0.020928
3594.32007 0.021178
3596.37988 0.021347
3598.43994 0.021347
3600.50000 0.021178
3602.56006 0.021178
3604.62012 0.022026
3606.67993 0.022026
3608.73999 0.022026
3610.80005 0.022026
3612.86011 0.022687
3614.91992 0.021923
3616.97998 0.021923
3619.04004 0.021923
3621.10010 0.022225
3623.15991 0.022225
3625.21997 0.022225
3627.28003 0.020796
3629.34009 0.022225
3631.39990 0.020796
3633.45996 0.020796
3635.52002 0.020733
3637.58008 0.020733
3639.63989 0.020733
3641.69995 0.023451
3643.76001 0.020338
3645.82007 0.023237
3647.87988 0.023354
3649.93994 0.023237
3652.00000 0.023237
3654.06006 0.023237
3656.12012 0.023354
3658.17993 0.023115
3660.23999 0.024628
3662.30005 0.024211
3664.36011 0.024211
3666.41992 0.02362
3668.47998 0.024211
3670.54004 0.024211
3672.60010 0.024246
3674.65991 0.024274
3676.71997 0.024417
3678.78003 0.024417
3680.84009 0.025214
3682.89990 0.025214
3684.95996 0.025214
3687.02002 0.025214
3689.08008 0.024353
3691.13989 0.023918
3693.19995 0.024353
3695.26001 0.023918
3697.32007 0.023918
3699.37988 0.023918
3701.43994 0.023459
3703.50000 0.023459
3705.56006 0.023459
3707.62012 0.023459
3709.67993 0.024767
3711.73999 0.026357
3713.80005 0.026095
3715.86011 0.026095
3717.91992 0.026095
3719.97998 0.026045
3722.04004 0.025138
3724.10010 0.025096
3726.15991 0.025138
3728.21997 0.025096
3730.28003 0.025096
3732.34009 0.025524
3734.39990 0.025524
3736.45996 0.025524
3738.52002 0.025715
3740.58008 0.02723
3742.63989 0.025715
3744.69995 0.02723
3746.76001 0.02723
3748.82007 0.027418
3750.87988 0.027054
3752.93994 0.027054
3755.00000 0.027054
3757.06006 0.026774
3759.12012 0.026774
3761.17993 0.027126
3763.23999 0.02755
3765.30005 0.02755
3767.36011 0.028859
3769.41992 0.028859
3771.47998 0.029102
3773.54004 0.028859
3775.60010 0.029102
3777.65991 0.031081
3779.71997 0.031081
3781.78003 0.029358
3783.84009 0.029358
3785.89990 0.029114
3787.95996 0.029114
3790.02002 0.029114
3792.08008 0.028171
3794.13989 0.029114
3796.19995 0.029747
3798.26001 0.028171
3800.32007 0.028171
3802.37988 0.029747
3804.43994 0.030754
3806.50000 0.029276
3808.56006 0.030754
3810.62012 0.030754
3812.67993 0.029276
3814.73999 0.029276
3816.80005 0.031793
3818.86011 0.029258
3820.91992 0.029323
3822.97998 0.030621
3825.04004 0.030621
3827.10010 0.029795
3829.15991 0.030621
3831.21997 0.03144
3833.28003 0.031687
3835.34009 0.031687
3837.39990 0.031687
3839.45996 0.031687
3841.52002 0.031687
3843.58008 0.031684
3845.63989 0.031129
3847.69995 0.032792
3849.76001 0.032249
3851.82007 0.032249
3853.87988 0.032249
3855.93994 0.033489
3858.00000 0.033489
3860.06006 0.035932
3862.12012 0.033545
3864.17993 0.036038
3866.23999 0.036038
3868.30005 0.0356
3870.36011 0.033545
3872.41992 0.033032
3874.47998 0.032859
3876.54004 0.032859
3878.60010 0.032859
3880.65991 0.034425
3882.71997 0.034425
3884.78003 0.034694
3886.84009 0.03586
3888.89990 0.03586
3890.95996 0.034701
3893.02002 0.035752
3895.08008 0.035752
3897.13989 0.035752
3899.19995 0.036926
3901.26001 0.036926
3903.32007 0.036935
3905.37988 0.037995
3907.43994 0.037995
3909.50000 0.03815
3911.56006 0.038521
3913.62012 0.039654
3915.67993 0.039654
3917.73999 0.039654
3919.80005 0.039654
3921.86011 0.038755
3923.91992 0.038755
3925.97998 0.038755
3928.04004 0.039246
3930.10010 0.041251
3932.15991 0.041861
3934.21997 0.041468
3936.28003 0.041468
3938.34009 0.042706
3940.39990 0.04272
3942.45996 0.04272
3944.52002 0.04272
3946.58008 0.04272
3948.63989 0.042133
3950.69995 0.042133
3952.76001 0.042133
3954.82007 0.043436
3956.87988 0.044575
3958.93994 0.044658
3961.00000 0.044658
3963.06006 0.044658
3965.12012 0.044851
3967.17993 0.044851
3969.23999 0.044851
3971.30005 0.046403
3973.36011 0.045198
3975.41992 0.045419
3977.47998 0.045198
3979.54004 0.045419
3981.60010 0.045198
3983.65991 0.045419
3985.71997 0.046437
3987.78003 0.048171
3989.84009 0.048171
3991.89990 0.04867
3993.95996 0.050844
3996.02002 0.051284
3998.08008 0.051284
4000.13989 0.051284
4002.19995 0.051284
4004.26001 0.051694
4006.32007 0.049555
4008.37988 0.051694
4010.43994 0.051888
4012.50000 0.051694
4014.56006 0.051888
4016.62012 0.055047
4018.67993 0.055047
4020.73999 0.056851
4022.80005 0.0586
4024.86011 0.0586
4026.91992 0.059264
4028.97998 0.060748
4031.04004 0.061273
4033.10010 0.062663
4035.15991 0.064619
4037.21997 0.064619
4039.28003 0.064619
4041.34009 0.068082
4043.39990 0.068082
4045.45996 0.065188
4047.52002 0.06902
4049.58008 0.069136
4051.63989 0.072403
4053.69995 0.073095
4055.76001 0.075558
4057.82007 0.080818
4059.87988 0.081484
4061.93994 0.081523
4064.00000 0.081484
4066.06006 0.081523
4068.12012 0.083431
4070.17993 0.088465
4072.23999 0.089539
4074.30005 0.091454
4076.36011 0.091622
4078.41992 0.097805
4080.47998 0.098562
4082.54004 0.102663
4084.60010 0.102913
4086.65991 0.108358
4088.71997 0.109296
4090.78003 0.112101
4092.84009 0.113217
4094.89990 0.114511
4096.95996 0.121475
4099.02002 0.123323
4101.08008 0.127123
4103.14014 0.131511
4105.20020 0.137741
4107.25977 0.140543
4109.31982 0.146289
4111.37988 0.147862
4113.43994 0.150917
4115.50000 0.154241
4117.56006 0.162688
4119.62012 0.165007
4121.68018 0.166965
4123.74023 0.172192
4125.79980 0.181439
4127.85986 0.182052
4129.91992 0.186075
4131.97998 0.191062
4134.04004 0.197053
4136.10010 0.206993
4138.16016 0.208381
4140.22021 0.208891
4142.27979 0.221894
4144.33984 0.222872
4146.39990 0.233361
4148.45996 0.233766
4150.52002 0.237072
4152.58008 0.24374
4154.64014 0.245061
4156.70020 0.251462
4158.75977 0.256673
4160.81982 0.264168
4162.87988 0.26687
4164.93994 0.270872
4167.00000 0.278994
4169.06006 0.280057
4171.12012 0.283003
4173.18018 0.28913
4175.24023 0.293122
4177.29980 0.300567
4179.35986 0.301754
4181.41992 0.306234
4183.47998 0.31119
4185.54004 0.314299
4187.60010 0.317792
4189.66016 0.32397
4191.72021 0.328989
4193.77979 0.32941
4195.83984 0.333482
4197.89990 0.334752
4199.95996 0.343244
4202.02002 0.347365
4204.08008 0.350284
4206.14014 0.354404
4208.20020 0.356838
4210.25977 0.358482
4212.31982 0.362607
4214.37988 0.364003
4216.43994 0.36729
4218.50000 0.369065
4220.56006 0.372302
4222.62012 0.371298
4224.68018 0.37344
4226.74023 0.373741
4228.79980 0.376752
4230.85986 0.378758
4232.91992 0.382987
4234.97998 0.383127
4237.04004 0.387188
4239.10010 0.391829
4241.16016 0.392115
4243.22021 0.392373
4245.27979 0.394619
4247.33984 0.397486
4249.39990 0.399332
4251.45996 0.399591
4253.52002 0.401236
4255.58008 0.401538
4257.64014 0.403757
4259.70020 0.406119
4261.75977 0.407212
4263.81982 0.409934
4265.87988 0.409934
4267.93994 0.411641
4270.00000 0.412933
4272.06006 0.413432
4274.12012 0.413432
4276.18018 0.415687
4278.24023 0.417734
4280.29980 0.41831
4282.35986 0.419469
4284.41992 0.419469
4286.47998 0.422994
4288.54004 0.422994
4290.60010 0.423137
4292.66016 0.428021
4294.72021 0.4284
4296.77979 0.430202
4298.83984 0.430202
4300.89990 0.430202
4302.95996 0.433939
4305.02002 0.433939
4307.08008 0.435194
4309.14014 0.437238
4311.20020 0.438196
4313.25977 0.440696
4315.31982 0.442106
4317.37988 0.442845
4319.43994 0.443102
4321.50000 0.443948
4323.56006 0.444793
4325.62012 0.445255
4327.68018 0.44565
4329.74023 0.44565
4331.79980 0.447874
4333.85986 0.447874
4335.91992 0.448568
4337.97998 0.448568
4340.04004 0.452301
4342.10010 0.452301
4344.16016 0.453157
4346.22021 0.453861
4348.27979 0.456995
4350.33984 0.456995
4352.39990 0.457682
4354.45996 0.456995
4356.52002 0.456995
4358.58008 0.461871
4360.64014 0.461871
4362.70020 0.461871
4364.75977 0.461871
4366.81982 0.461871
4368.87988 0.462412
4370.93994 0.463063
4373.00000 0.463063
4375.06006 0.463323
4377.12012 0.46399
4379.18018 0.466822
4381.24023 0.466848
4383.29980 0.466992
4385.35986 0.466992
4387.41992 0.468114
4389.47998 0.469448
4391.54004 0.475268
4393.60010 0.475268
4395.66016 0.475268
4397.72021 0.474138
4399.77979 0.474138
4401.83984 0.470697
4403.89990 0.470697
4405.95996 0.47492
4408.02002 0.474953
4410.08008 0.475228
4412.14014 0.475438
4414.20020 0.478242
4416.25977 0.477364
4418.31982 0.475438
4420.37988 0.477364
4422.43994 0.478805
4424.50000 0.481408
4426.56006 0.481408
4428.62012 0.481408
4430.68018 0.482956
4432.74023 0.482956
4434.79980 0.483393
4436.85986 0.483833
4438.91992 0.484546
4440.97998 0.484546
4443.04004 0.484913
4445.10010 0.484913
4447.16016 0.484546
4449.22021 0.484913
4451.27979 0.484913
4453.33984 0.484011
4455.39990 0.484266
4457.45996 0.484966
4459.52002 0.486431
4461.58008 0.486431
4463.64014 0.487888
4465.70020 0.489039
4467.75977 0.488624
4469.81982 0.489039
4471.87988 0.489039
4473.93994 0.489039
4476.00000 0.490072
4478.06006 0.490072
4480.12012 0.489979
4482.18018 0.489979
4484.24023 0.489979
4486.29980 0.489979
4488.35986 0.490016
4490.41992 0.492375
4492.47998 0.492375
4494.54004 0.492183
4496.60010 0.49092
4498.66016 0.491291
4500.72021 0.49092
4502.77979 0.49032
4504.83984 0.489763
4506.89990 0.487053
4508.95996 0.487053
4511.02002 0.489677
4513.08008 0.489763
4515.14014 0.491784
4517.20020 0.491893
4519.25977 0.492051
4521.31982 0.492933
4523.37988 0.492051
4525.43994 0.492933
4527.50000 0.492933
4529.56006 0.492933
4531.62012 0.493535
4533.68018 0.493535
4535.74023 0.495274
4537.79980 0.494023
4539.85986 0.494023
4541.91992 0.494023
4543.97998 0.494023
4546.04004 0.492558
4548.10010 0.492558
4550.16016 0.494252
4552.22021 0.493474
4554.27979 0.494252
4556.33984 0.494252
4558.39990 0.493508
4560.45996 0.493474
4562.52002 0.493192
4564.58008 0.492404
4566.64014 0.492404
4568.70020 0.492404
4570.75977 0.492373
4572.81982 0.490829
4574.87988 0.492373
4576.93994 0.492667
4579.00000 0.492667
4581.06006 0.495236
4583.12012 0.495236
4585.18018 0.49531
4587.24023 0.495236
4589.29980 0.494437
4591.35986 0.493188
4593.41992 0.494437
4595.47998 0.493188
4597.54004 0.493188
4599.60010 0.493188
4601.66016 0.493187
4603.72021 0.493056
4605.77979 0.493056
4607.83984 0.49304
4609.89990 0.490834
4611.95996 0.489437
4614.02002 0.490834
4616.08008 0.489437
4618.14014 0.48916
4620.20020 0.489418
4622.25977 0.489418
4624.31982 0.48916
4626.37988 0.488102
4628.43994 0.487724
4630.50000 0.487581
4632.56006 0.487581
4634.62012 0.487724
4636.68018 0.487724
4638.74023 0.488017
4640.79980 0.489646
4642.85986 0.488017
4644.91992 0.486999
4646.97998 0.488017
4649.04004 0.486955
4651.10010 0.486955
4653.16016 0.486955
4655.22021 0.48425
4657.27979 0.48425
4659.33984 0.484276
4661.39990 0.484276
4663.45996 0.484276
4665.52002 0.484276
4667.58008 0.481912
4669.64014 0.47894
4671.70020 0.47894
4673.75977 0.47889
4675.81982 0.478264
4677.87988 0.478264
4679.93994 0.47834
4682.00000 0.47834
4684.06006 0.478395
4686.12012 0.478395
4688.18018 0.47834
4690.24023 0.478266
4692.29980 0.473362
4694.35986 0.471945
4696.41992 0.471945
4698.47998 0.471945
4700.54004 0.470653
4702.60010 0.468527
4704.66016 0.467663
4706.72021 0.4675
4708.77979 0.4675
4710.83984 0.464203
4712.89990 0.464137
4714.95996 0.463913
4717.02002 0.462563
4719.08008 0.46222
4721.14014 0.461205
4723.20020 0.461205
4725.25977 0.460833
4727.31982 0.458392
4729.37988 0.45761
4731.43994 0.45755
4733.50000 0.456706
4735.56006 0.455869
4737.62012 0.455557
4739.68018 0.455166
4741.74023 0.451766
4743.79980 0.450655
4745.85986 0.449906
4747.91992 0.448376
4749.97998 0.447266
4752.04004 0.445045
4754.10010 0.444995
4756.16016 0.443444
4758.22021 0.442528
4760.27979 0.442528
4762.33984 0.442244
4764.39990 0.442244
4766.45996 0.438028
4768.52002 0.434177
4770.58008 0.434135
4772.64014 0.434135
4774.70020 0.433841
4776.75977 0.433471
4778.81982 0.433209
4780.87988 0.432991
4782.93994 0.428863
4785.00000 0.427303
4787.06006 0.424977
4789.12012 0.424977
4791.18018 0.424791
4793.24023 0.42318
4795.29980 0.419502
4797.35986 0.418146
4799.41992 0.416376
4801.47998 0.416297
4803.54004 0.415439
4805.60010 0.413341
4807.66016 0.412478
4809.72021 0.412448
4811.77979 0.409999
4813.83984 0.408674
4815.89990 0.406249
4817.95996 0.405708
4820.02002 0.403934
4822.08008 0.402415
4824.14014 0.401232
4826.20020 0.399291
4828.25977 0.397161
4830.31982 0.394645
4832.37988 0.393837
4834.43994 0.392571
4836.50000 0.392279
4838.56006 0.391121
4840.62012 0.390038
4842.68018 0.388548
4844.74023 0.387219
4846.79980 0.385622
4848.85986 0.380384
4850.91992 0.379787
4852.97998 0.379684
4855.04004 0.37697
4857.10010 0.376834
4859.16016 0.373587
4861.22021 0.371719
4863.27979 0.371072
4865.33984 0.368933
4867.39990 0.368212
4869.45996 0.367875
4871.52002 0.366794
4873.58008 0.363938
4875.64014 0.360873
4877.70020 0.360873
4879.75977 0.360258
4881.81982 0.360258
4883.87988 0.355536
4885.93994 0.355157
4888.00000 0.354164
4890.06006 0.353677
4892.12012 0.349371
4894.18018 0.347492
4896.24023 0.345887
4898.29980 0.34572
4900.35986 0.345177
4902.41992 0.342594
4904.47998 0.338925
4906.54004 0.338629
4908.60010 0.338585
4910.66016 0.336451
4912.72021 0.3363
4914.77979 0.33258
4916.83984 0.330004
4918.89990 0.329359
4920.95996 0.327421
4923.02002 0.326466
4925.08008 0.325912
4927.14014 0.32287
4929.20020 0.32287
4931.25977 0.322054
4933.31982 0.321786
4935.37988 0.317734
4937.43994 0.316582
4939.50000 0.31511
4941.56006 0.314459
4943.62012 0.313778
4945.68018 0.311558
4947.74023 0.310336
4949.79980 0.30991
4951.85986 0.309053
4953.91992 0.306632
4955.97998 0.306013
4958.04004 0.304473
4960.10010 0.304131
4962.16016 0.303722
4964.22021 0.299643
4966.27979 0.299306
4968.33984 0.299223
4970.39990 0.297722
4972.45996 0.296558
4974.52002 0.295772
4976.58008 0.294407
4978.64014 0.292649
4980.70020 0.290742
4982.75977 0.289619
4984.81982 0.28909
4986.87988 0.2887
4988.93994 0.286608
4991.00000 0.285376
4993.06006 0.283206
4995.12012 0.283026
4997.18018 0.281705
4999.24023 0.280056
5001.29980 0.280031
5003.35986 0.279127
5005.41992 0.276731
5007.47998 0.275747
5009.54004 0.27248
5011.60010 0.272203
5013.66016 0.272151
5015.72021 0.270002
5017.77979 0.268043
5019.83984 0.267994
5021.89990 0.265317
5023.95996 0.264973
5026.02002 0.26164
5028.08008 0.258373
5030.14014 0.257928
5032.20020 0.256315
5034.25977 0.255653
5036.31982 0.255547
5038.37988 0.253239
5040.43994 0.250646
5042.50000 0.249419
5044.56006 0.248384
5046.62012 0.246734
5048.68018 0.244695
5050.74023 0.241567
5052.79980 0.24108
5054.85986 0.238867
5056.91992 0.237817
5058.97998 0.234822
5061.04004 0.234744
5063.10010 0.234076
5065.16016 0.231625
5067.22021 0.230394
5069.27979 0.227443
5071.33984 0.224551
5073.39990 0.222614
5075.45996 0.222545
5077.52002 0.220083
5079.58008 0.217123
5081.64014 0.21667
5083.70020 0.215902
5085.75977 0.213644
5087.81982 0.213589
5089.87988 0.211053
5091.93994 0.210438
5094.00000 0.208795
5096.06006 0.206518
5098.12012 0.20604
5100.18018 0.205151
5102.24023 0.202883
5104.29980 0.200341
5106.35986 0.200285
5108.41992 0.199235
5110.47998 0.196182
5112.54004 0.195625
5114.60010 0.194189
5116.66016 0.193853
5118.72021 0.192276
5120.77979 0.190308
5122.83984 0.188403
5124.89990 0.186333
5126.95996 0.186094
5129.02002 0.185101
5131.08008 0.184726
5133.14014 0.180746
5135.20020 0.180548
5137.25977 0.180292
5139.31982 0.177303
5141.37988 0.176925
5143.43994 0.174039
5145.50000 0.173683
5147.56006 0.172706
5149.62012 0.169808
5151.68018 0.169212
5153.74023 0.167485
5155.79980 0.16671
5157.85986 0.16617
5159.91992 0.163767
5161.97998 0.162352
5164.04004 0.160565
5166.10010 0.160387
5168.16016 0.159705
5170.22021 0.157892
5172.27979 0.15539
5174.33984 0.154308
5176.39990 0.153447
5178.45996 0.152397
5180.52002 0.150452
5182.58008 0.149221
5184.64014 0.148604
5186.70020 0.146911
5188.75977 0.145903
5190.81982 0.144521
5192.87988 0.143435
5194.93994 0.141277
5197.00000 0.140291
5199.06006 0.139368
5201.12012 0.13752
5203.18018 0.137414
5205.24023 0.13402
5207.29980 0.133939
5209.35986 0.131237
5211.41992 0.130734
5213.47998 0.129331
5215.54004 0.127723
5217.60010 0.126266
5219.66016 0.125834
5221.72021 0.125314
5223.77979 0.122186
5225.83984 0.12164
5227.89990 0.12126
5229.95996 0.118773
5232.02002 0.117876
5234.08008 0.117206
5236.14014 0.116054
5238.20020 0.115351
5240.25977 0.113605
5242.31982 0.112844
5244.37988 0.111254
5246.43994 0.110305
5248.50000 0.109592
5250.56006 0.106674
5252.62012 0.106148
5254.68018 0.105809
5256.74023 0.104433
5258.79980 0.10399
5260.85986 0.103438
5262.91992 0.10143
5264.97998 0.101157
5267.04004 0.098953
5269.10010 0.098856
5271.16016 0.098435
5273.22021 0.097149
5275.27979 0.096706
5277.33984 0.094819
5279.39990 0.094547
5281.45996 0.093895
5283.52002 0.092753
5285.58008 0.091074
5287.64014 0.090419
5289.70020 0.089997
5291.75977 0.089139
5293.81982 0.088726
5295.87988 0.087653
5297.93994 0.087383
5300.00000 0.08575
5302.06006 0.085529
5304.12012 0.084151
5306.18018 0.083997
5308.24023 0.083094
5310.29980 0.082251
5312.35986 0.081897
5314.41992 0.081461
5316.47998 0.081236
5318.54004 0.080691
5320.60010 0.07975
5322.66016 0.079016
5324.72021 0.078736
5326.77979 0.078736
5328.83984 0.078626
5330.89990 0.078626
5332.95996 0.077944
5335.02002 0.075881
5337.08008 0.07579
5339.14014 0.07579
5341.20020 0.075481
5343.25977 0.074856
5345.31982 0.074716
5347.37988 0.074648
5349.43994 0.073999
5351.50000 0.073736
5353.56006 0.07298
5355.62012 0.072428
5357.68018 0.072418
5359.74023 0.071997
5361.79980 0.072115
5363.85986 0.071561
5365.91992 0.071555
5367.97998 0.071555
5370.04004 0.071555
5372.10010 0.071329
5374.16016 0.070925
5376.22021 0.070806
5378.27979 0.070339
5380.33984 0.070247
5382.39990 0.070033
5384.45996 0.070017
5386.52002 0.069984
5388.58008 0.069661
5390.64014 0.069256
5392.70020 0.069256
5394.75977 0.069092
5396.81982 0.069256
5398.87988 0.069256
5400.93994 0.069347
5403.00000 0.069102
5405.06006 0.069102
5407.12012 0.068633
5409.18018 0.068633
5411.24023 0.068633
5413.29980 0.068633
5415.35986 0.068636
5417.41992 0.068636
5419.47998 0.068818
5421.54004 0.068818
5423.60010 0.069286
5425.66016 0.069418
5427.72021 0.069624
5429.77979 0.069624
5431.83984 0.069624
5433.89990 0.069818
5435.95996 0.070178
5438.02002 0.070178
5440.08008 0.070178
5442.14014 0.070262
5444.20020 0.070442
5446.25977 0.070528
5448.31982 0.070678
5450.37988 0.071152
5452.43994 0.071152
5454.50000 0.071213
5456.56006 0.071782
5458.62012 0.072229
5460.68018 0.072691
5462.74023 0.072691
5464.79980 0.072854
5466.85986 0.073076
5468.91992 0.073236
5470.97998 0.074384
5473.04004 0.074418
5475.10010 0.074557
5477.16016 0.075761
5479.22021 0.076147
5481.27979 0.076147
5483.33984 0.076425
5485.39990 0.076488
5487.45996 0.076792
5489.52002 0.076964
5491.58008 0.078068
5493.64014 0.078349
5495.70020 0.078539
5497.75977 0.079175
5499.81982 0.079443
5501.87988 0.079796
5503.93994 0.080934
5506.00000 0.081614
5508.06006 0.082253
5510.12012 0.082253
5512.18018 0.082284
5514.24023 0.082284
5516.29980 0.082631
5518.35986 0.0829
5520.41992 0.083651
5522.47998 0.083731
5524.54004 0.084656
5526.60010 0.08466
5528.66016 0.085175
5530.72021 0.085649
5532.77979 0.086108
5534.83984 0.086185
5536.89990 0.087304
5538.95996 0.08732
5541.02002 0.087507
5543.08008 0.087744
5545.14014 0.087957
5547.20020 0.088111
5549.25977 0.088111
5551.31982 0.088482
5553.37988 0.088795
5555.43994 0.088795
5557.50000 0.088795
5559.56006 0.089074
5561.62012 0.089154
5563.68018 0.089162
5565.74023 0.089162
5567.79980 0.089154
5569.85986 0.089154
5571.91992 0.089584
5573.97998 0.089733
5576.04004 0.089733
5578.10010 0.089733
5580.16016 0.089484
5582.22021 0.089449
5584.27979 0.089357
5586.33984 0.089258
5588.39990 0.089258
5590.45996 0.088399
5592.52002 0.088251
5594.58008 0.088251
5596.64014 0.08806
5598.70020 0.087998
5600.75977 0.087976
5602.81982 0.086629
5604.87988 0.086412
5606.93994 0.086203
5609.00000 0.086054
5611.06006 0.086054
5613.12012 0.086005
5615.18018 0.085993
5617.24023 0.085447
5619.29980 0.084664
5621.35986 0.084283
5623.41992 0.084068
5625.47998 0.0839
5627.54004 0.082988
5629.60010 0.082364
5631.66016 0.081395
5633.72021 0.081323
5635.77979 0.080609
5637.83984 0.080198
5639.89990 0.079179
5641.95996 0.07866
5644.02002 0.078628
5646.08008 0.077956
5648.14014 0.077118
5650.20020 0.076604
5652.25977 0.076183
5654.31982 0.075421
5656.37988 0.074976
5658.43994 0.073847
5660.50000 0.073689
5662.56006 0.072083
5664.62012 0.071814
5666.68018 0.071395
5668.74023 0.070238
5670.79980 0.069798
5672.85986 0.069732
5674.91992 0.068876
5676.97998 0.067521
5679.04004 0.067261
5681.10010 0.066193
5683.16016 0.065653
5685.22021 0.065028
5687.27979 0.063728
5689.33984 0.06293
5691.39990 0.062616
5693.45996 0.061828
5695.52002 0.060681
5697.58008 0.059461
5699.64014 0.05897
5701.70020 0.058211
5703.75977 0.058084
5705.81982 0.056128
5707.87988 0.055777
5709.93994 0.055072
5712.00000 0.054443
5714.06006 0.053023
5716.12012 0.052499
5718.18018 0.051711
5720.24023 0.051339
5722.29980 0.050336
5724.35986 0.049773
5726.41992 0.048562
5728.47998 0.047857
5730.54004 0.0465
5732.60010 0.046065
5734.66016 0.044773
5736.72021 0.044442
5738.77979 0.044084
5740.83984 0.043275
5742.89990 0.041973
5744.95996 0.041717
5747.02002 0.040377
5749.08008 0.039903
5751.14014 0.039185
5753.20020 0.03863
5755.25977 0.038254
5757.31982 0.0364
5759.37988 0.036266
5761.43994 0.035627
5763.50000 0.034785
5765.56006 0.033805
5767.62012 0.033552
5769.68018 0.032767
5771.74023 0.03194
5773.79980 0.03139
5775.85986 0.031373
5777.91992 0.029772
5779.97998 0.029492
5782.04004 0.029049
5784.10010 0.028123
5786.16016 0.027515
5788.22021 0.026793
5790.27979 0.026613
5792.33984 0.025593
5794.39990 0.025353
5796.45996 0.02453
5798.52002 0.024337
5800.58008 0.023761
5802.64014 0.023107
5804.70020 0.022437
5806.75977 0.022313
5808.81982 0.021587
5810.87988 0.021219
5812.93994 0.020391
5815.00000 0.0202
5817.06006 0.019911
5819.12012 0.019822
5821.18018 0.01936
5823.24023 0.019203
5825.29980 0.018224
5827.35986 0.018085
5829.41992 0.017717
5831.47998 0.017376
5833.54004 0.017048
5835.60010 0.016415
5837.66016 0.016275
5839.72021 0.016007
5841.77979 0.015466
5843.83984 0.015459
5845.89990 0.015197
5847.95996 0.01485
5850.02002 0.014561
5852.08008 0.014406
5854.14014 0.014068
5856.20020 0.01348
5858.25977 0.013355
5860.31982 0.013313
5862.37988 0.013114
5864.43994 0.012994
5866.50000 0.012631
5868.56006 0.012599
5870.62012 0.01248
5872.68018 0.012173
5874.74023 0.011826
5876.79980 0.011787
5878.85986 0.011737
5880.91992 0.011482
5882.97998 0.011482
5885.04004 0.011313
5887.10010 0.011159
5889.16016 0.010982
5891.22021 0.010898
5893.27979 0.010802
5895.33984 0.010637
5897.39990 0.01026
5899.45996 0.010203
5901.52002 0.010142
5903.58008 0.010135
5905.64014 0.010135
5907.70020 0.010133
5909.75977 0.00995
5911.81982 0.009834
5913.87988 0.009834
5915.93994 0.009725
5918.00000 0.009722
5920.06006 0.009722
5922.12012 0.009719
5924.18018 0.009454
5926.24023 0.009454
5928.29980 0.009441
5930.35986 0.009441
5932.41992 0.009361
5934.47998 0.009361
5936.54004 0.009256
5938.60010 0.009256
5940.66016 0.009226
5942.72021 0.009172
5944.77979 0.009129
5946.83984 0.009129
5948.89990 0.009129
5950.95996 0.00904
5953.02002 0.009011
5955.08008 0.008967
5957.14014 0.008845
5959.20020 0.008701
5961.25977 0.008613
5963.31982 0.008563
5965.37988 0.008563
5967.43994 0.008572
5969.50000 0.008572
5971.56006 0.008572
5973.62012 0.008572
5975.68018 0.008572
5977.74023 0.008486
5979.79980 0.008486
5981.85986 0.008486
5983.91992 0.008486
5985.97998 0.008397
5988.04004 0.008397
5990.10010 0.00832
5992.16016 0.008251
5994.22021 0.008251
5996.27979 0.008222
5998.33984 0.008222
6000.39990 0.00808
6002.45996 0.008078
6004.52002 0.008042
6006.58008 0.007973
6008.64014 0.008042
6010.70020 0.008043
6012.75977 0.00798
6014.81982 0.00798
6016.87988 0.00798
6018.93994 0.007922
6021.00000 0.00775
6023.06006 0.00775
6025.12012 0.007584
6027.18018 0.007584
6029.24023 0.007668
6031.29980 0.007668
6033.35986 0.007555
6035.41992 0.007555
6037.47998 0.007555
6039.54004 0.007441
6041.60010 0.00724
6043.66016 0.007188
6045.72021 0.007144
6047.77979 0.007103
6049.83984 0.007103
6051.89990 0.007121
6053.95996 0.007103
6056.02002 0.007079
6058.08008 0.007039
6060.14014 0.006844
6062.20020 0.006844
6064.25977 0.006809
6066.31982 0.006728
6068.37988 0.006723
6070.43994 0.006668
6072.50000 0.006661
6074.56006 0.006661
6076.62012 0.006669
6078.68018 0.006669
6080.74023 0.006669
6082.79980 0.006669
6084.85986 0.006463
6086.91992 0.006348
6088.97998 0.006215
6091.04004 0.006215
6093.10010 0.005967
6095.16016 0.005932
6097.22021 0.005932
6099.27979 0.005932
6101.33984 0.00611
6103.39990 0.00611
6105.45996 0.00611
6107.52002 0.005885
6109.58008 0.005825
6111.64014 0.005789
6113.70020 0.005745
6115.75977 0.005745
6117.81982 0.005641
6119.87988 0.00561
6121.93994 0.005468
6124.00000 0.005468
6126.06006 0.005447
6128.12012 0.005312
6130.18018 0.005256
6132.24023 0.005312
6134.29980 0.005256
6136.35986 0.005242
6138.41992 0.005235
6140.47998 0.005207
6142.54004 0.005163
6144.60010 0.00507
6146.66016 0.005064
6148.72021 0.00496
6150.77979 0.004892
6152.83984 0.004879
6154.89990 0.004873
6156.95996 0.004788
6159.02002 0.004788
6161.08008 0.004759
6163.14014 0.004759
6165.20020 0.004608
6167.25977 0.00459
6169.31982 0.00459
6171.37988 0.00459
6173.43994 0.00459
6175.50000 0.00459
6177.56006 0.004476
6179.62012 0.004369
6181.68018 0.004253
6183.74023 0.004325
6185.79980 0.004253
6187.85986 0.004203
6189.91992 0.004133
6191.97998 0.004133
6194.04004 0.004016
6813.44385 0.0
