# %ECSV 0.9
# ---
# datatype:
# - {name: wavelength, unit: Angstrom, datatype: float32}
# - {name: response, datatype: float32}
# meta: !!omap
# - {band_name: f_914_9}
# - {group_name: CAHA}
wavelength response
8105.41748 0.0
9006.01953 0.004141
9006.44043 0.004312
9006.86035 0.004553
9007.28027 0.004635
9007.70020 0.004703
9008.12012 0.005086
9008.54004 0.005126
9008.95996 0.005194
9009.37988 0.005211
9009.79980 0.005217
9010.21973 0.00524
9010.63965 0.005179
9011.05957 0.005183
9011.48047 0.00515
9011.90039 0.005455
9012.32031 0.004603
9012.74023 0.005155
9013.16016 0.005225
9013.58008 0.005195
9014.00000 0.005026
9014.41992 0.005003
9014.83984 0.004883
9015.25977 0.004945
9015.67969 0.004936
9016.09961 0.004797
9016.51953 0.004992
9016.94043 0.004844
9017.36035 0.004884
9017.78027 0.005009
9018.20020 0.004791
9018.62012 0.004842
9019.04004 0.00479
9019.45996 0.004997
9019.87988 0.00484
9020.29980 0.004822
9020.71973 0.004958
9021.13965 0.005064
9021.55957 0.005037
9021.98047 0.005299
9022.40039 0.005034
9022.82031 0.005065
9023.24023 0.004906
9023.66016 0.00505
9024.08008 0.005362
9024.50000 0.004985
9024.91992 0.005117
9025.33984 0.005357
9025.75977 0.005269
9026.17969 0.005001
9026.59961 0.005279
9027.01953 0.005259
9027.44043 0.005346
9027.86035 0.005617
9028.28027 0.005398
9028.70020 0.005528
9029.12012 0.00557
9029.54004 0.005629
9029.95996 0.00551
9030.37988 0.005555
9030.79980 0.005723
9031.21973 0.005489
9031.63965 0.005975
9032.05957 0.005739
9032.48047 0.005964
9032.90039 0.005801
9033.32031 0.005789
9033.74023 0.005778
9034.16016 0.00579
9034.58008 0.006403
9035.00000 0.0063
9035.41992 0.006423
9035.83984 0.006657
9036.25977 0.006036
9036.67969 0.006611
9037.09961 0.006786
9037.51953 0.006492
9037.94043 0.006978
9038.36035 0.006656
9038.78027 0.006736
9039.20020 0.006915
9039.62012 0.007247
9040.04004 0.007216
9040.45996 0.007301
9040.87988 0.00723
9041.29980 0.007485
9041.71973 0.007473
9042.13965 0.007691
9042.55957 0.007426
9042.98047 0.007507
9043.40039 0.007994
9043.82031 0.008053
9044.24023 0.008318
9044.66016 0.00842
9045.08008 0.00838
9045.50000 0.008582
9045.91992 0.008808
9046.33984 0.008918
9046.75977 0.008641
9047.17969 0.00938
9047.59961 0.009199
9048.01953 0.009161
9048.44043 0.00949
9048.86035 0.009951
9049.28027 0.009776
9049.70020 0.009707
9050.12012 0.010173
9050.54004 0.010428
9050.95996 0.010396
9051.37988 0.010334
9051.79980 0.01075
9052.21973 0.010641
9052.63965 0.010894
9053.05957 0.010973
9053.48047 0.011264
9053.90039 0.011133
9054.32031 0.011663
9054.74023 0.012044
9055.16016 0.012146
9055.58008 0.012347
9056.00000 0.01241
9056.41992 0.01289
9056.83984 0.012888
9057.25977 0.013303
9057.67969 0.013407
9058.09961 0.014579
9058.51953 0.014986
9058.94043 0.014908
9059.36035 0.015159
9059.78027 0.015577
9060.20020 0.016109
9060.62012 0.016041
9061.04004 0.01651
9061.45996 0.017358
9061.87988 0.017153
9062.29980 0.017395
9062.71973 0.018011
9063.13965 0.018181
9063.55957 0.018873
9063.98047 0.019896
9064.40039 0.019853
9064.82031 0.020358
9065.24023 0.020975
9065.66016 0.02163
9066.08008 0.02203
9066.50000 0.022381
9066.91992 0.023145
9067.33984 0.024188
9067.75977 0.024213
9068.17969 0.025522
9068.59961 0.025933
9069.01953 0.026224
9069.44043 0.027775
9069.86035 0.02863
9070.28027 0.030055
9070.70020 0.030611
9071.12012 0.03171
9071.54004 0.032615
9071.95996 0.033138
9072.37988 0.034373
9072.79980 0.035038
9073.21973 0.035904
9073.63965 0.038127
9074.05957 0.039365
9074.48047 0.040701
9074.90039 0.04161
9075.32031 0.044499
9075.74023 0.045319
9076.16016 0.047457
9076.58008 0.049047
9077.00000 0.051265
9077.41992 0.053632
9077.83984 0.055713
9078.25977 0.058008
9078.67969 0.060955
9079.09961 0.063249
9079.51953 0.066617
9079.94043 0.069763
9080.36035 0.072563
9080.78027 0.076289
9081.20020 0.079631
9081.62012 0.084011
9082.04004 0.089222
9082.45996 0.094105
9082.87988 0.100158
9083.29980 0.10622
9083.71973 0.113203
9084.13965 0.120656
9084.55957 0.127946
9084.98047 0.136649
9085.40039 0.147297
9085.82031 0.157852
9086.24023 0.170332
9086.66016 0.184055
9087.08008 0.197908
9087.50000 0.213108
9087.91992 0.230385
9088.33984 0.248816
9088.75977 0.268853
9089.17969 0.289651
9089.59961 0.312513
9090.01953 0.337206
9090.44043 0.36056
9090.86035 0.38646
9091.28027 0.408731
9091.70020 0.433597
9092.12012 0.453983
9092.54004 0.484488
9092.95996 0.499453
9093.37988 0.518557
9093.79980 0.537502
9094.21973 0.551895
9094.63965 0.562787
9095.05957 0.57425
9095.48047 0.582466
9095.90039 0.588271
9096.32031 0.595478
9096.74023 0.596012
9097.16016 0.598197
9097.58008 0.602255
9098.00000 0.60057
9098.41992 0.59808
9098.83984 0.598306
9099.25977 0.598866
9099.67969 0.595341
9100.09961 0.593001
9100.51953 0.589614
9100.94043 0.588937
9101.36035 0.585699
9101.78027 0.582936
9102.20020 0.579813
9102.62012 0.578038
9103.04004 0.576285
9103.45996 0.573682
9103.87988 0.572444
9104.29980 0.568676
9104.71973 0.567543
9105.13965 0.56769
9105.55957 0.566761
9105.98047 0.565454
9106.40039 0.566241
9106.82031 0.564534
9107.24023 0.56606
9107.66016 0.565139
9108.08008 0.566978
9108.50000 0.568127
9108.91992 0.567873
9109.33984 0.571607
9109.75977 0.572804
9110.17969 0.576809
9110.59961 0.578933
9111.01953 0.579443
9111.44043 0.584715
9111.86035 0.589356
9112.28027 0.592665
9112.70020 0.595168
9113.12012 0.597156
9113.54004 0.602295
9113.95996 0.607679
9114.37988 0.611026
9114.79980 0.615376
9115.21973 0.620127
9115.63965 0.624701
9116.05957 0.626451
9116.48047 0.634375
9116.90039 0.63781
9117.32031 0.640973
9117.74023 0.643234
9118.16016 0.648342
9118.58008 0.653425
9119.00000 0.658315
9119.41992 0.662511
9119.83984 0.667674
9120.25977 0.669413
9120.67969 0.672699
9121.09961 0.676969
9121.51953 0.680216
9121.94043 0.681158
9122.36035 0.685529
9122.78027 0.688575
9123.20020 0.689464
9123.62012 0.69051
9124.04004 0.69261
9124.45996 0.692895
9124.87988 0.695314
9125.29980 0.698575
9125.71973 0.697928
9126.13965 0.697209
9126.55957 0.698978
9126.98047 0.6979
9127.40039 0.7014
9127.82031 0.699942
9128.24023 0.699825
9128.66016 0.700007
9129.08008 0.700542
9129.50000 0.70025
9129.91992 0.700558
9130.33984 0.698268
9130.75977 0.699111
9131.17969 0.696945
9131.59961 0.699987
9132.01953 0.696128
9132.44043 0.694151
9132.86035 0.696849
9133.28027 0.693788
9133.70020 0.69265
9134.12012 0.693694
9134.54004 0.690725
9134.95996 0.692982
9135.37988 0.692438
9135.79980 0.69259
9136.21973 0.689049
9136.63965 0.689429
9137.05957 0.688814
9137.48047 0.686271
9137.90039 0.686289
9138.32031 0.686807
9138.74023 0.68704
9139.16016 0.682702
9139.58008 0.683493
9140.00000 0.683783
9140.41992 0.682397
9140.83984 0.683366
9141.25977 0.680561
9141.67969 0.678683
9142.09961 0.677043
9142.51953 0.674904
9142.94043 0.673127
9143.36035 0.672427
9143.78027 0.668165
9144.20020 0.668424
9144.62012 0.664692
9145.04004 0.661025
9145.45996 0.657462
9145.87988 0.655633
9146.29980 0.654687
9146.71973 0.651436
9147.13965 0.646856
9147.55957 0.644492
9147.98047 0.640879
9148.40039 0.634624
9148.82031 0.631492
9149.24023 0.628962
9149.66016 0.62343
9150.08008 0.617792
9150.50000 0.613798
9150.91992 0.607742
9151.33984 0.603241
9151.75977 0.595815
9152.17969 0.591357
9152.59961 0.587526
9153.01953 0.580916
9153.44043 0.576796
9153.86035 0.570225
9154.28027 0.56502
9154.70020 0.557739
9155.12012 0.553103
9155.54004 0.547496
9155.95996 0.541402
9156.37988 0.535958
9156.79980 0.532095
9157.21973 0.525852
9157.63965 0.51948
9158.05957 0.516946
9158.48047 0.510265
9158.90039 0.506116
9159.32031 0.500935
9159.74023 0.497447
9160.16016 0.49273
9160.58008 0.488896
9161.00000 0.485073
9161.41992 0.482236
9161.83984 0.479539
9162.25977 0.475717
9162.67969 0.469966
9163.09961 0.469785
9163.51953 0.467179
9163.94043 0.465193
9164.36035 0.46472
9164.78027 0.46347
9165.20020 0.46212
9165.62012 0.462166
9166.04004 0.461465
9166.45996 0.463123
9166.87988 0.463113
9167.29980 0.462618
9167.71973 0.465751
9168.13965 0.470004
9168.55957 0.471035
9168.98047 0.474876
9169.40039 0.478565
9169.82031 0.482153
9170.24023 0.485698
9170.66016 0.493316
9171.08008 0.497896
9171.50000 0.505583
9171.91992 0.510431
9172.33984 0.517762
9172.75977 0.524359
9173.17969 0.532772
9173.59961 0.537954
9174.01953 0.546929
9174.44043 0.552853
9174.86035 0.559344
9175.28027 0.565441
9175.70020 0.566992
9176.12012 0.570368
9176.54004 0.570281
9176.95996 0.568827
9177.37988 0.566429
9177.79980 0.557329
9178.21973 0.547574
9178.63965 0.538466
9179.05957 0.52415
9179.48047 0.508503
9179.90039 0.490306
9180.32031 0.474681
9180.74023 0.455227
9181.16016 0.435896
9181.58008 0.414504
9182.00000 0.393711
9182.41992 0.374417
9182.83984 0.355815
9183.25977 0.337044
9183.67969 0.320518
9184.09961 0.302129
9184.51953 0.286081
9184.94043 0.269357
9185.36035 0.255528
9185.78027 0.240214
9186.20020 0.226112
9186.62012 0.213508
9187.04004 0.201093
9187.45996 0.188676
9187.87988 0.177092
9188.29980 0.166259
9188.71973 0.155392
9189.13965 0.147572
9189.55957 0.137871
9189.98047 0.1299
9190.40039 0.120974
9190.82031 0.112769
9191.24023 0.106698
9191.66016 0.100067
9192.08008 0.094598
9192.50000 0.089501
9192.91992 0.083685
9193.33984 0.079218
9193.75977 0.073993
9194.17969 0.070055
9194.59961 0.066348
9195.01953 0.06266
9195.44043 0.059538
9195.86035 0.056529
9196.28027 0.054164
9196.70020 0.051336
9197.12012 0.049056
9197.54004 0.046529
9197.95996 0.044751
9198.37988 0.043023
9198.79980 0.039871
9199.21973 0.039566
9199.63965 0.036794
9200.05957 0.035838
9200.48047 0.034411
9200.90039 0.033307
9201.32031 0.032287
9201.74023 0.031254
9202.16016 0.029957
9202.58008 0.028655
9203.00000 0.028246
9203.41992 0.027244
9203.83984 0.026243
9204.25977 0.025206
9204.67969 0.024379
9205.09961 0.023145
9205.51953 0.0229
9205.94043 0.022283
9206.36035 0.021122
9206.78027 0.020623
9207.20020 0.019962
9207.62012 0.019105
9208.04004 0.01836
9208.45996 0.01798
9208.87988 0.016739
9209.29980 0.016073
9209.71973 0.015776
9210.13965 0.015683
9210.55957 0.015231
9210.98047 0.014748
9211.40039 0.014003
9211.82031 0.013963
9212.24023 0.013581
9212.66016 0.012858
9213.08008 0.012999
9213.50000 0.012211
9213.91992 0.012189
9214.33984 0.012212
9214.75977 0.011648
9215.17969 0.011227
9215.59961 0.010923
9216.01953 0.010542
9216.44043 0.010493
9216.86035 0.009902
9217.28027 0.009812
9217.70020 0.009795
9218.12012 0.009616
9218.54004 0.009079
9218.95996 0.009199
9219.37988 0.008922
9219.79980 0.015207
9220.21973 0.009352
9220.63965 0.008257
9221.05957 0.007613
9221.48047 0.007903
9221.90039 0.007525
9222.32031 0.007516
9222.74023 0.007159
9223.16016 0.007309
9223.58008 0.007072
9224.00000 0.00653
9224.41992 0.006319
9224.83984 0.006651
9225.25977 0.006394
9225.67969 0.006495
9226.09961 0.005884
9226.51953 0.005974
9226.94043 0.005717
9227.36035 0.00594
9227.78027 0.005539
9228.20020 0.005435
9228.62012 0.005329
9229.04004 0.005457
9229.45996 0.005225
9229.87988 0.004993
9230.29980 0.004809
9230.71973 0.004815
9231.13965 0.004813
9231.55957 0.004616
9231.98047 0.004579
9232.40039 0.004449
9232.82031 0.004662
9233.24023 0.004372
9233.66016 0.004388
9234.08008 0.004086
9234.50000 0.004321
9234.91992 0.004056
9235.33984 0.004039
10158.87402 0.0
