# %ECSV 0.9
# ---
# datatype:
# - {name: wavelength, unit: Angstrom, datatype: float32}
# - {name: response, datatype: float32}
# meta: !!omap
# - {band_name: f_604_21}
# - {group_name: CAHA}
wavelength response
5176.84473 0.0
5752.04980 0.004054
5752.31006 0.004064
5752.56982 0.003787
5752.83008 0.004169
5753.08984 0.004236
5753.35010 0.0041
5753.60986 0.003956
5753.87012 0.004283
5754.12988 0.004136
5754.39014 0.004116
5754.64990 0.00427
5754.91992 0.004362
5755.18018 0.004123
5755.43994 0.004281
5755.70020 0.004373
5755.95996 0.00437
5756.22021 0.004334
5756.47998 0.004174
5756.74023 0.004299
5757.00000 0.004554
5757.25977 0.004329
5757.52002 0.004403
5757.77979 0.004519
5758.04004 0.004407
5758.29980 0.004653
5758.56006 0.004417
5758.81982 0.004509
5759.08008 0.004242
5759.33984 0.004652
5759.60010 0.004732
5759.85986 0.00467
5760.12012 0.004625
5760.39014 0.004495
5760.64990 0.004829
5760.91016 0.004569
5761.16992 0.004622
5761.43018 0.004785
5761.68994 0.004664
5761.95020 0.004813
5762.20996 0.004747
5762.47021 0.004916
5762.72998 0.004954
5762.99023 0.004751
5763.25000 0.00492
5763.50977 0.004895
5763.77002 0.004881
5764.02979 0.005183
5764.29004 0.004927
5764.54980 0.004955
5764.81006 0.004934
5765.06982 0.00494
5765.33008 0.005248
5765.60010 0.005294
5765.85986 0.005233
5766.12012 0.005148
5766.37988 0.005008
5766.64014 0.005252
5766.89990 0.005188
5767.16016 0.005291
5767.41992 0.005144
5767.68018 0.005107
5767.93994 0.005288
5768.20020 0.005418
5768.45996 0.005562
5768.72021 0.005459
5768.97998 0.005469
5769.24023 0.005435
5769.50000 0.005726
5769.75977 0.005616
5770.02002 0.005807
5770.27979 0.005502
5770.54004 0.005479
5770.81006 0.005749
5771.06982 0.0056
5771.33008 0.005656
5771.58984 0.00556
5771.85010 0.005698
5772.10986 0.006018
5772.37012 0.005942
5772.62988 0.005848
5772.89014 0.005846
5773.14990 0.0058
5773.41016 0.006024
5773.66992 0.005968
5773.93018 0.005953
5774.18994 0.005933
5774.45020 0.005918
5774.70996 0.005956
5774.97021 0.006302
5775.22998 0.006143
5775.49023 0.006137
5775.75000 0.006127
5776.02002 0.006271
5776.27979 0.006409
5776.54004 0.006168
5776.79980 0.006402
5777.06006 0.006378
5777.31982 0.006543
5777.58008 0.00648
5777.83984 0.006452
5778.10010 0.00653
5778.35986 0.006415
5778.62012 0.006387
5778.87988 0.006487
5779.14014 0.006673
5779.39990 0.006756
5779.66016 0.006829
5779.91992 0.006951
5780.18018 0.007062
5780.43994 0.006778
5780.70020 0.006706
5780.95996 0.00697
5781.22998 0.006908
5781.49023 0.006864
5781.75000 0.006974
5782.00977 0.007202
5782.27002 0.0073
5782.52979 0.007155
5782.79004 0.007317
5783.04980 0.006883
5783.31006 0.007573
5783.56982 0.007538
5783.83008 0.007263
5784.08984 0.007407
5784.35010 0.007373
5784.60986 0.007251
5784.87012 0.007569
5785.12988 0.00755
5785.39014 0.007444
5785.64990 0.007634
5785.91016 0.00763
5786.16992 0.007577
5786.43994 0.007679
5786.70020 0.007762
5786.95996 0.007929
5787.22021 0.007605
5787.47998 0.0078
5787.74023 0.007987
5788.00000 0.007761
5788.25977 0.008141
5788.52002 0.007823
5788.77979 0.007971
5789.04004 0.008167
5789.29980 0.008051
5789.56006 0.008388
5789.81982 0.008272
5790.08008 0.008256
5790.33984 0.008329
5790.60010 0.008552
5790.85986 0.008497
5791.12012 0.008615
5791.37988 0.008738
5791.64990 0.008589
5791.91016 0.008622
5792.16992 0.008859
5792.43018 0.00878
5792.68994 0.008931
5792.95020 0.008866
5793.20996 0.008795
5793.47021 0.009005
5793.72998 0.009169
5793.99023 0.008966
5794.25000 0.009086
5794.50977 0.009137
5794.77002 0.009219
5795.02979 0.009455
5795.29004 0.009425
5795.54980 0.009391
5795.81006 0.009617
5796.06982 0.009685
5796.33008 0.009435
5796.60010 0.009643
5796.85986 0.009924
5797.12012 0.009596
5797.37988 0.009609
5797.64014 0.009693
5797.89990 0.00996
5798.16016 0.010128
5798.41992 0.010064
5798.68018 0.010022
5798.93994 0.010219
5799.20020 0.010138
5799.45996 0.010059
5799.72021 0.010133
5799.97998 0.010339
5800.24023 0.010546
5800.50000 0.010532
5800.75977 0.01041
5801.02002 0.01061
5801.27979 0.010499
5801.54004 0.01096
5801.81006 0.010815
5802.06982 0.01096
5802.33008 0.011004
5802.58984 0.010984
5802.85010 0.010761
5803.10986 0.01089
5803.37012 0.011356
5803.62988 0.01121
5803.89014 0.011585
5804.14990 0.011228
5804.41016 0.01122
5804.66992 0.011569
5804.93018 0.011721
5805.18994 0.011788
5805.45020 0.011783
5805.70996 0.011914
5805.97021 0.01188
5806.22998 0.011727
5806.49023 0.012082
5806.75000 0.012439
5807.02002 0.012309
5807.27979 0.01232
5807.54004 0.012309
5807.79980 0.01245
5808.06006 0.012281
5808.31982 0.012919
5808.58008 0.012721
5808.83984 0.012921
5809.10010 0.012788
5809.35986 0.012897
5809.62012 0.013047
5809.87988 0.013144
5810.14014 0.013319
5810.39990 0.013225
5810.66016 0.013466
5810.91992 0.013691
5811.18018 0.013771
5811.43994 0.013574
5811.70020 0.013711
5811.95996 0.013722
5812.22998 0.014154
5812.49023 0.013803
5812.75000 0.014089
5813.00977 0.013885
5813.27002 0.014259
5813.52979 0.01466
5813.79004 0.01468
5814.04980 0.014548
5814.31006 0.014727
5814.56982 0.014383
5814.83008 0.014867
5815.08984 0.0149
5815.35010 0.014698
5815.60986 0.01521
5815.87012 0.014975
5816.12988 0.015336
5816.39014 0.015178
5816.64990 0.015423
5816.91016 0.015501
5817.16992 0.015791
5817.43994 0.015637
5817.70020 0.01556
5817.95996 0.015942
5818.22021 0.016203
5818.47998 0.01604
5818.74023 0.0162
5819.00000 0.01644
5819.25977 0.0167
5819.52002 0.016643
5819.77979 0.016311
5820.04004 0.016633
5820.29980 0.01688
5820.56006 0.016942
5820.81982 0.017321
5821.08008 0.017589
5821.33984 0.017445
5821.60010 0.017494
5821.85986 0.017871
5822.12012 0.017877
5822.37988 0.017803
5822.64990 0.018095
5822.91016 0.018325
5823.16992 0.018361
5823.43018 0.018575
5823.68994 0.018765
5823.95020 0.018801
5824.20996 0.01879
5824.47021 0.018953
5824.72998 0.018918
5824.99023 0.01939
5825.25000 0.019286
5825.50977 0.01943
5825.77002 0.019391
5826.02979 0.019714
5826.29004 0.019629
5826.54980 0.019792
5826.81006 0.020405
5827.06982 0.020279
5827.33008 0.020629
5827.58984 0.020454
5827.85010 0.020563
5828.12012 0.020891
5828.37988 0.021193
5828.64014 0.021488
5828.89990 0.021124
5829.16016 0.021419
5829.41992 0.021786
5829.68018 0.02201
5829.93994 0.022115
5830.20020 0.022041
5830.45996 0.022113
5830.72021 0.022489
5830.97998 0.022714
5831.24023 0.022691
5831.50000 0.022749
5831.75977 0.02329
5832.02002 0.023273
5832.27979 0.0237
5832.54004 0.023835
5832.79980 0.023903
5833.06006 0.023722
5833.33008 0.024149
5833.58984 0.024283
5833.85010 0.024805
5834.10986 0.024249
5834.37012 0.024961
5834.62988 0.024585
5834.89014 0.025167
5835.14990 0.025602
5835.41016 0.025493
5835.66992 0.025837
5835.93018 0.025732
5836.18994 0.026195
5836.45020 0.026166
5836.70996 0.026314
5836.97021 0.026648
5837.22998 0.026984
5837.49023 0.027267
5837.75000 0.027818
5838.00977 0.027372
5838.27002 0.028185
5838.54004 0.027767
5838.79980 0.027936
5839.06006 0.028419
5839.31982 0.029067
5839.58008 0.028747
5839.83984 0.029227
5840.10010 0.029206
5840.35986 0.029584
5840.62012 0.029888
5840.87988 0.029774
5841.14014 0.030179
5841.39990 0.030158
5841.66016 0.030561
5841.91992 0.030682
5842.18018 0.031121
5842.43994 0.03144
5842.70020 0.031674
5842.95996 0.031885
5843.22021 0.032016
5843.47998 0.032401
5843.75000 0.03281
5844.00977 0.033323
5844.27002 0.032733
5844.52979 0.032925
5844.79004 0.03324
5845.04980 0.033736
5845.31006 0.033783
5845.56982 0.034447
5845.83008 0.034645
5846.08984 0.034701
5846.35010 0.035284
5846.60986 0.035132
5846.87012 0.03541
5847.12988 0.035844
5847.39014 0.035961
5847.64990 0.036277
5847.91016 0.037054
5848.16992 0.03758
5848.43018 0.037307
5848.68994 0.038158
5848.95996 0.037976
5849.22021 0.038603
5849.47998 0.038367
5849.74023 0.039203
5850.00000 0.039581
5850.25977 0.039566
5850.52002 0.040202
5850.77979 0.040273
5851.04004 0.040701
5851.29980 0.040619
5851.56006 0.041532
5851.81982 0.041732
5852.08008 0.041718
5852.33984 0.041936
5852.60010 0.042248
5852.85986 0.042749
5853.12012 0.043471
5853.37988 0.043256
5853.64014 0.044151
5853.89990 0.044601
5854.16992 0.044599
5854.43018 0.045052
5854.68994 0.045599
5854.95020 0.046045
5855.20996 0.046288
5855.47021 0.046909
5855.72998 0.047026
5855.99023 0.047258
5856.25000 0.048051
5856.50977 0.04821
5856.77002 0.04851
5857.02979 0.049318
5857.29004 0.049034
5857.54980 0.049625
5857.81006 0.04996
5858.06982 0.051111
5858.33008 0.050629
5858.58984 0.05194
5858.85010 0.052411
5859.12012 0.052539
5859.37988 0.053071
5859.64014 0.053392
5859.89990 0.053581
5860.16016 0.053871
5860.41992 0.054583
5860.68018 0.055117
5860.93994 0.056029
5861.20020 0.05656
5861.45996 0.056439
5861.72021 0.057006
5861.97998 0.056893
5862.24023 0.058089
5862.50000 0.058165
5862.75977 0.058306
5863.02002 0.059369
5863.27979 0.060087
5863.54004 0.060313
5863.79980 0.060603
5864.06006 0.061482
5864.33008 0.062205
5864.58984 0.062615
5864.85010 0.063152
5865.10986 0.06339
5865.37012 0.06443
5865.62988 0.064767
5865.89014 0.065262
5866.14990 0.065604
5866.41016 0.066648
5866.66992 0.067436
5866.93018 0.067719
5867.18994 0.068228
5867.45020 0.068828
5867.70996 0.069826
5867.97021 0.069989
5868.22998 0.070872
5868.49023 0.071231
5868.75000 0.071775
5869.00977 0.073264
5869.27002 0.072188
5869.54004 0.073694
5869.79980 0.074828
5870.06006 0.074972
5870.31982 0.075594
5870.58008 0.076558
5870.83984 0.077225
5871.10010 0.077805
5871.35986 0.07884
5871.62012 0.079095
5871.87988 0.079733
5872.14014 0.080198
5872.39990 0.082059
5872.66016 0.082173
5872.91992 0.083135
5873.18018 0.083416
5873.43994 0.083652
5873.70020 0.085273
5873.95996 0.085765
5874.22021 0.086597
5874.47998 0.087341
5874.75000 0.0876
5875.00977 0.088428
5875.27002 0.090046
5875.52979 0.090836
5875.79004 0.091464
5876.04980 0.092466
5876.31006 0.093273
5876.56982 0.094088
5876.83008 0.094359
5877.08984 0.096217
5877.35010 0.096848
5877.60986 0.09835
5877.87012 0.099213
5878.12988 0.099805
5878.39014 0.099827
5878.64990 0.101758
5878.91016 0.102219
5879.16992 0.103449
5879.43018 0.103541
5879.68994 0.10515
5879.95996 0.105856
5880.22021 0.106886
5880.47998 0.107836
5880.74023 0.108247
5881.00000 0.109919
5881.25977 0.110533
5881.52002 0.112103
5881.77979 0.112549
5882.04004 0.113944
5882.29980 0.115254
5882.56006 0.11577
5882.81982 0.117375
5883.08008 0.11807
5883.33984 0.119501
5883.60010 0.119759
5883.85986 0.121907
5884.12012 0.123108
5884.37988 0.125022
5884.64014 0.124659
5884.89990 0.126131
5885.16992 0.127038
5885.43018 0.128712
5885.68994 0.129973
5885.95020 0.130447
5886.20996 0.131913
5886.47021 0.133546
5886.72998 0.13486
5886.99023 0.136232
5887.25000 0.137323
5887.50977 0.137874
5887.77002 0.139354
5888.02979 0.141647
5888.29004 0.14278
5888.54980 0.143407
5888.81006 0.14581
5889.06982 0.145598
5889.33008 0.148276
5889.58984 0.150205
5889.85010 0.150353
5890.10986 0.15228
5890.37988 0.153428
5890.64014 0.154118
5890.89990 0.156806
5891.16016 0.158078
5891.41992 0.159822
5891.68018 0.161059
5891.93994 0.163737
5892.20020 0.164517
5892.45996 0.165552
5892.72021 0.1667
5892.97998 0.168454
5893.24023 0.17051
5893.50000 0.171127
5893.75977 0.173933
5894.02002 0.17504
5894.27979 0.176472
5894.54004 0.179301
5894.79980 0.179849
5895.06006 0.181123
5895.31982 0.183938
5895.58008 0.185785
5895.85010 0.187305
5896.10986 0.189196
5896.37012 0.189882
5896.62988 0.192124
5896.89014 0.194741
5897.14990 0.19673
5897.41016 0.197021
5897.66992 0.200075
5897.93018 0.201061
5898.18994 0.203449
5898.45020 0.204648
5898.70996 0.206433
5898.97021 0.208719
5899.22998 0.211441
5899.49023 0.212292
5899.75000 0.214772
5900.00977 0.216326
5900.27002 0.219288
5900.52979 0.220885
5900.79004 0.224118
5901.06006 0.223581
5901.31982 0.226437
5901.58008 0.229262
5901.83984 0.230763
5902.10010 0.233916
5902.35986 0.234807
5902.62012 0.236765
5902.87988 0.23894
5903.14014 0.241241
5903.39990 0.244282
5903.66016 0.246511
5903.91992 0.249124
5904.18018 0.251316
5904.43994 0.253369
5904.70020 0.255282
5904.95996 0.257525
5905.22021 0.261608
5905.47998 0.262241
5905.74023 0.265453
5906.00000 0.266685
5906.27002 0.271289
5906.52979 0.272703
5906.79004 0.276212
5907.04980 0.278259
5907.31006 0.277608
5907.56982 0.282761
5907.83008 0.283784
5908.08984 0.28764
5908.35010 0.289836
5908.60986 0.291382
5908.87012 0.296391
5909.12988 0.297116
5909.39014 0.300308
5909.64990 0.301831
5909.91016 0.305031
5910.16992 0.308925
5910.43018 0.311243
5910.68994 0.313346
5910.95020 0.317575
5911.20996 0.31899
5911.47998 0.321394
5911.74023 0.324208
5912.00000 0.327137
5912.25977 0.328784
5912.52002 0.332252
5912.77979 0.336398
5913.04004 0.337867
5913.29980 0.341245
5913.56006 0.345513
5913.81982 0.347972
5914.08008 0.349718
5914.33984 0.352615
5914.60010 0.354942
5914.85986 0.358871
5915.12012 0.361836
5915.37988 0.364855
5915.64014 0.366359
5915.89990 0.371302
5916.16016 0.373662
5916.41992 0.376031
5916.68994 0.380143
5916.95020 0.382682
5917.20996 0.386289
5917.47021 0.38896
5917.72998 0.393253
5917.99023 0.397267
5918.25000 0.3995
5918.50977 0.401196
5918.77002 0.406922
5919.02979 0.406228
5919.29004 0.411015
5919.54980 0.413625
5919.81006 0.418399
5920.06982 0.422443
5920.33008 0.423431
5920.58984 0.423724
5920.85010 0.429154
5921.10986 0.431374
5921.37012 0.434934
5921.62988 0.437523
5921.89990 0.442911
5922.16016 0.444134
5922.41992 0.44961
5922.68018 0.452764
5922.93994 0.455196
5923.20020 0.458192
5923.45996 0.461131
5923.72021 0.461767
5923.97998 0.466713
5924.24023 0.469917
5924.50000 0.474493
5924.75977 0.47754
5925.02002 0.480886
5925.27979 0.484639
5925.54004 0.48656
5925.79980 0.489072
5926.06006 0.493241
5926.31982 0.495624
5926.58008 0.500506
5926.85010 0.50588
5927.10986 0.507179
5927.37012 0.511801
5927.62988 0.512418
5927.89014 0.5188
5928.14990 0.520373
5928.41016 0.523926
5928.66992 0.526562
5928.93018 0.530037
5929.18994 0.534403
5929.45020 0.536013
5929.70996 0.538067
5929.97021 0.540702
5930.22998 0.546582
5930.49023 0.547952
5930.75000 0.552355
5931.00977 0.555638
5931.27002 0.559065
5931.52979 0.559773
5931.79004 0.565833
5932.06006 0.566978
5932.31982 0.571467
5932.58008 0.573251
5932.83984 0.575247
5933.10010 0.579963
5933.35986 0.585342
5933.62012 0.585103
5933.87988 0.588557
5934.14014 0.591923
5934.39990 0.595859
5934.66016 0.598777
5934.91992 0.60084
5935.18018 0.603992
5935.43994 0.607239
5935.70020 0.610798
5935.95996 0.612375
5936.22021 0.612914
5936.47998 0.619609
5936.74023 0.62058
5937.00000 0.624799
5937.27002 0.625598
5937.52979 0.629866
5937.79004 0.636431
5938.04980 0.636831
5938.31006 0.637881
5938.56982 0.642357
5938.83008 0.642744
5939.08984 0.647877
5939.35010 0.651634
5939.60986 0.65169
5939.87012 0.654437
5940.12988 0.659365
5940.39014 0.659184
5940.64990 0.662241
5940.91016 0.663761
5941.16992 0.6656
5941.43018 0.668135
5941.68994 0.673413
5941.95020 0.672983
5942.20996 0.675064
5942.47998 0.677224
5942.74023 0.681067
5943.00000 0.683119
5943.25977 0.686179
5943.52002 0.686774
5943.77979 0.689153
5944.04004 0.692618
5944.29980 0.69311
5944.56006 0.696011
5944.81982 0.698382
5945.08008 0.702267
5945.33984 0.705249
5945.60010 0.708155
5945.85986 0.708542
5946.12012 0.708064
5946.37988 0.713456
5946.64014 0.714649
5946.89990 0.717467
5947.16016 0.718484
5947.41992 0.71965
5947.68994 0.722371
5947.95020 0.724703
5948.20996 0.729079
5948.47021 0.723719
5948.72998 0.726705
5948.99023 0.728393
5949.25000 0.732216
5949.50977 0.734595
5949.77002 0.739244
5950.02979 0.73718
5950.29004 0.739274
5950.54980 0.740732
5950.81006 0.743806
5951.06982 0.744927
5951.33008 0.747433
5951.58984 0.74521
5951.85010 0.749179
5952.10986 0.752435
5952.37012 0.752537
5952.62988 0.752173
5952.89990 0.753501
5953.16016 0.75815
5953.41992 0.755431
5953.68018 0.761126
5953.93994 0.761269
5954.20020 0.760949
5954.45996 0.763306
5954.72021 0.764872
5954.97998 0.766868
5955.24023 0.767604
5955.50000 0.768678
5955.75977 0.768748
5956.02002 0.771017
5956.27979 0.769687
5956.54004 0.771896
5956.79980 0.768903
5957.06006 0.775043
5957.31982 0.775534
5957.58008 0.776263
5957.83984 0.778374
5958.10010 0.777675
5958.37012 0.778856
5958.62988 0.780675
5958.89014 0.782728
5959.14990 0.780719
5959.41016 0.783736
5959.66992 0.786141
5959.93018 0.783264
5960.18994 0.78705
5960.45020 0.784791
5960.70996 0.786328
5960.97021 0.788226
5961.22998 0.785128
5961.49023 0.79036
5961.75000 0.789814
5962.00977 0.791637
5962.27002 0.791103
5962.52979 0.792458
5962.79004 0.790979
5963.04980 0.791002
5963.31006 0.79537
5963.58008 0.79492
5963.83984 0.79784
5964.10010 0.796541
5964.35986 0.797998
5964.62012 0.794999
5964.87988 0.798321
5965.14014 0.797134
5965.39990 0.797248
5965.66016 0.798649
5965.91992 0.799204
5966.18018 0.796379
5966.43994 0.800317
5966.70020 0.801042
5966.95996 0.801395
5967.22021 0.805404
5967.47998 0.80002
5967.74023 0.803382
5968.00000 0.8027
5968.25977 0.804589
5968.52002 0.801654
5968.79004 0.802841
5969.04980 0.805741
5969.31006 0.800684
5969.56982 0.804718
5969.83008 0.802079
5970.08984 0.801338
5970.35010 0.805152
5970.60986 0.802643
5970.87012 0.807346
5971.12988 0.806894
5971.39014 0.804713
5971.64990 0.807813
5971.91016 0.805677
5972.16992 0.805727
5972.43018 0.810107
5972.68994 0.806809
5972.95020 0.810127
5973.20996 0.804363
5973.47021 0.804373
5973.72998 0.805131
5974.00000 0.807538
5974.25977 0.808101
5974.52002 0.807701
5974.77979 0.8051
5975.04004 0.805864
5975.29980 0.806263
5975.56006 0.805524
5975.81982 0.809495
5976.08008 0.808263
5976.33984 0.803291
5976.60010 0.806408
5976.85986 0.807442
5977.12012 0.809672
5977.37988 0.806664
5977.64014 0.805089
5977.89990 0.807585
5978.16016 0.809707
5978.41992 0.8092
5978.68018 0.809016
5978.93994 0.80354
5979.20996 0.807845
5979.47021 0.806597
5979.72998 0.807036
5979.99023 0.806325
5980.25000 0.807288
5980.50977 0.806021
5980.77002 0.806695
5981.02979 0.808843
5981.29004 0.808385
5981.54980 0.805809
5981.81006 0.808494
5982.06982 0.808936
5982.33008 0.807764
5982.58984 0.810621
5982.85010 0.805243
5983.10986 0.807141
5983.37012 0.807355
5983.62988 0.805601
5983.89014 0.806568
5984.14990 0.804424
5984.41992 0.808385
5984.68018 0.805703
5984.93994 0.808115
5985.20020 0.806393
5985.45996 0.80718
5985.72021 0.803937
5985.97998 0.804256
5986.24023 0.807221
5986.50000 0.805646
5986.75977 0.807934
5987.02002 0.805382
5987.27979 0.804627
5987.54004 0.807936
5987.79980 0.803869
5988.06006 0.802776
5988.31982 0.804137
5988.58008 0.803766
5988.83984 0.805009
5989.10010 0.804673
5989.37012 0.804194
5989.62988 0.801965
5989.89014 0.802082
5990.14990 0.804255
5990.41016 0.801204
5990.66992 0.806301
5990.93018 0.800047
5991.18994 0.803528
5991.45020 0.802905
5991.70996 0.802204
5991.97021 0.801651
5992.22998 0.802382
5992.49023 0.80202
5992.75000 0.801933
5993.00977 0.801501
5993.27002 0.803428
5993.52979 0.803712
5993.79004 0.803089
5994.04980 0.80129
5994.31006 0.802274
5994.58008 0.802495
5994.83984 0.801312
5995.10010 0.800032
5995.35986 0.801612
5995.62012 0.801144
5995.87988 0.801435
5996.14014 0.799463
5996.39990 0.804926
5996.66016 0.801239
5996.91992 0.800735
5997.18018 0.798836
5997.43994 0.80057
5997.70020 0.801178
5997.95996 0.799396
5998.22021 0.800042
5998.47998 0.80095
5998.74023 0.799803
5999.00000 0.798821
5999.25977 0.796286
5999.52002 0.797391
5999.79004 0.798749
6000.04980 0.797768
6000.31006 0.798995
6000.56982 0.799496
6000.83008 0.794802
6001.08984 0.796064
6001.35010 0.796673
6001.60986 0.795903
6001.87012 0.798082
6002.12988 0.799543
6002.39014 0.796109
6002.64990 0.797192
6002.91016 0.79859
6003.16992 0.795829
6003.43018 0.795301
6003.68994 0.797393
6003.95020 0.79659
6004.20996 0.797217
6004.47021 0.797369
6004.72998 0.794681
6005.00000 0.799203
6005.25977 0.798025
6005.52002 0.797711
6005.77979 0.795813
6006.04004 0.794992
6006.29980 0.795832
6006.56006 0.794144
6006.81982 0.796816
6007.08008 0.7968
6007.33984 0.796277
6007.60010 0.793207
6007.85986 0.796785
6008.12012 0.79493
6008.37988 0.794094
6008.64014 0.796885
6008.89990 0.798938
6009.16016 0.794722
6009.41992 0.79274
6009.68018 0.794391
6009.93994 0.792058
6010.20996 0.791766
6010.47021 0.79352
6010.72998 0.794765
6010.99023 0.792891
6011.25000 0.796742
6011.50977 0.793244
6011.77002 0.792794
6012.02979 0.789798
6012.29004 0.792253
6012.54980 0.79225
6012.81006 0.792144
6013.06982 0.793006
6013.33008 0.793214
6013.58984 0.79495
6013.85010 0.793162
6014.10986 0.791534
6014.37012 0.792449
6014.62988 0.793618
6014.89014 0.792258
6015.14990 0.790592
6015.41992 0.792384
6015.68018 0.793061
6015.93994 0.792601
6016.20020 0.789895
6016.45996 0.791114
6016.72021 0.792706
6016.97998 0.789733
6017.24023 0.791139
6017.50000 0.789663
6017.75977 0.78989
6018.02002 0.790998
6018.27979 0.790459
6018.54004 0.787988
6018.79980 0.790751
6019.06006 0.788818
6019.31982 0.789162
6019.58008 0.790594
6019.83984 0.788687
6020.10010 0.787935
6020.35986 0.7908
6020.62012 0.787771
6020.89014 0.790599
6021.14990 0.789988
6021.41016 0.791129
6021.66992 0.789319
6021.93018 0.788469
6022.18994 0.788597
6022.45020 0.7898
6022.70996 0.789669
6022.97021 0.789931
6023.22998 0.788147
6023.49023 0.786206
6023.75000 0.787969
6024.00977 0.787966
6024.27002 0.788583
6024.52979 0.789278
6024.79004 0.788682
6025.04980 0.788411
6025.31006 0.789587
6025.56982 0.790648
6025.83008 0.788837
6026.10010 0.788938
6026.35986 0.78629
6026.62012 0.78582
6026.87988 0.785825
6027.14014 0.786958
6027.39990 0.78577
6027.66016 0.786105
6027.91992 0.786286
6028.18018 0.786207
6028.43994 0.788021
6028.70020 0.788075
6028.95996 0.785435
6029.22021 0.788449
6029.47998 0.786071
6029.74023 0.788561
6030.00000 0.786416
6030.25977 0.785788
6030.52002 0.786564
6030.77979 0.785215
6031.04004 0.784231
6031.31006 0.783993
6031.56982 0.784035
6031.83008 0.784495
6032.08984 0.785513
6032.35010 0.784473
6032.60986 0.785001
6032.87012 0.784234
6033.12988 0.782539
6033.39014 0.783828
6033.64990 0.784758
6033.91016 0.783067
6034.16992 0.78487
6034.43018 0.784674
6034.68994 0.786176
6034.95020 0.785188
6035.20996 0.784725
6035.47021 0.783905
6035.72998 0.783938
6035.99023 0.783308
6036.25000 0.783524
6036.52002 0.784015
6036.77979 0.783134
6037.04004 0.780722
6037.29980 0.782237
6037.56006 0.781818
6037.81982 0.781615
6038.08008 0.784128
6038.33984 0.782176
6038.60010 0.783146
6038.85986 0.780993
6039.12012 0.782695
6039.37988 0.780968
6039.64014 0.783154
6039.89990 0.781632
6040.16016 0.779033
6040.41992 0.781842
6040.68018 0.780557
6040.93994 0.780896
6041.20020 0.780127
6041.45996 0.78212
6041.72998 0.779564
6041.99023 0.781455
6042.25000 0.780347
6042.50977 0.779845
6042.77002 0.782126
6043.02979 0.780515
6043.29004 0.778122
6043.54980 0.777731
6043.81006 0.77977
6044.06982 0.780881
6044.33008 0.777584
6044.58984 0.778524
6044.85010 0.779116
6045.10986 0.77888
6045.37012 0.777536
6045.62988 0.777496
6045.89014 0.778423
6046.14990 0.777836
6046.41016 0.776946
6046.66992 0.778958
6046.93994 0.776
6047.20020 0.777804
6047.45996 0.776725
6047.72021 0.774033
6047.97998 0.776174
6048.24023 0.774171
6048.50000 0.775251
6048.75977 0.773578
6049.02002 0.776331
6049.27979 0.773989
6049.54004 0.777273
6049.79980 0.775486
6050.06006 0.771954
6050.31982 0.77358
6050.58008 0.773073
6050.83984 0.773149
6051.10010 0.774222
6051.35986 0.772309
6051.62012 0.773439
6051.87988 0.77036
6052.14990 0.771866
6052.41016 0.77187
6052.66992 0.772758
6052.93018 0.773332
6053.18994 0.771642
6053.45020 0.773192
6053.70996 0.771295
6053.97021 0.771414
6054.22998 0.77039
6054.49023 0.768554
6054.75000 0.766811
6055.00977 0.770499
6055.27002 0.768118
6055.52979 0.768544
6055.79004 0.767955
6056.04980 0.771111
6056.31006 0.7657
6056.56982 0.769432
6056.83008 0.765608
6057.10010 0.765573
6057.35986 0.765356
6057.62012 0.765041
6057.87988 0.765734
6058.14014 0.764695
6058.39990 0.76448
6058.66016 0.765346
6058.91992 0.76112
6059.18018 0.761157
6059.43994 0.760577
6059.70020 0.763298
6059.95996 0.761325
6060.22021 0.764938
6060.47998 0.762972
6060.74023 0.762431
6061.00000 0.758808
6061.25977 0.761236
6061.52002 0.762221
6061.77979 0.762305
6062.04004 0.760247
6062.31006 0.758179
6062.56982 0.756727
6062.83008 0.759331
6063.08984 0.758381
6063.35010 0.757525
6063.60986 0.757541
6063.87012 0.756605
6064.12988 0.756713
6064.39014 0.755317
6064.64990 0.753611
6064.91016 0.757868
6065.16992 0.756748
6065.43018 0.753533
6065.68994 0.754464
6065.95020 0.753401
6066.20996 0.752733
6066.47021 0.751548
6066.72998 0.752309
6066.99023 0.750434
6067.25000 0.751756
6067.52002 0.752619
6067.77979 0.749697
6068.04004 0.750332
6068.29980 0.74879
6068.56006 0.750261
6068.81982 0.749047
6069.08008 0.746986
6069.33984 0.746336
6069.60010 0.744469
6069.85986 0.744589
6070.12012 0.742785
6070.37988 0.745584
6070.64014 0.745845
6070.89990 0.74489
6071.16016 0.742203
6071.41992 0.741832
6071.68018 0.742189
6071.93994 0.742442
6072.20020 0.741052
6072.45996 0.742448
6072.72998 0.738942
6072.99023 0.73806
6073.25000 0.739254
6073.50977 0.737292
6073.77002 0.738193
6074.02979 0.735745
6074.29004 0.736349
6074.54980 0.735096
6074.81006 0.734389
6075.06982 0.732129
6075.33008 0.733095
6075.58984 0.733853
6075.85010 0.732327
6076.10986 0.730537
6076.37012 0.729781
6076.62988 0.729857
6076.89014 0.728854
6077.14990 0.73023
6077.41016 0.728488
6077.66992 0.726861
6077.93994 0.725971
6078.20020 0.727851
6078.45996 0.726081
6078.72021 0.724344
6078.97998 0.723223
6079.24023 0.72505
6079.50000 0.723087
6079.75977 0.721313
6080.02002 0.720076
6080.27979 0.720747
6080.54004 0.718726
6080.79980 0.718611
6081.06006 0.720458
6081.31982 0.718853
6081.58008 0.717309
6081.83984 0.715239
6082.10010 0.712906
6082.35986 0.711846
6082.62012 0.711818
6082.87988 0.713279
6083.14990 0.712949
6083.41016 0.709251
6083.66992 0.707992
6083.93018 0.708553
6084.18994 0.707528
6084.45020 0.707855
6084.70996 0.706483
6084.97021 0.703054
6085.22998 0.704633
6085.49023 0.701554
6085.75000 0.698986
6086.00977 0.699785
6086.27002 0.701859
6086.52979 0.699688
6086.79004 0.697585
6087.04980 0.69761
6087.31006 0.696292
6087.56982 0.69531
6087.83008 0.695045
6088.08984 0.692836
6088.35010 0.693406
6088.62012 0.691445
6088.87988 0.688622
6089.14014 0.688543
6089.39990 0.68877
6089.66016 0.688226
6089.91992 0.684313
6090.18018 0.682811
6090.43994 0.68388
6090.70020 0.681806
6090.95996 0.680415
6091.22021 0.680661
6091.47998 0.677547
6091.74023 0.678771
6092.00000 0.67675
6092.25977 0.673773
6092.52002 0.675137
6092.77979 0.672607
6093.04004 0.669809
6093.29980 0.671442
6093.56006 0.670737
6093.83008 0.666153
6094.08984 0.667264
6094.35010 0.666255
6094.60986 0.665761
6094.87012 0.663479
6095.12988 0.661274
6095.39014 0.663725
6095.64990 0.661642
6095.91016 0.655954
6096.16992 0.658559
6096.43018 0.656052
6096.68994 0.654713
6096.95020 0.654533
6097.20996 0.652072
6097.47021 0.649056
6097.72998 0.650129
6097.99023 0.647799
6098.25000 0.64833
6098.50977 0.644432
6098.77002 0.642968
6099.04004 0.640761
6099.29980 0.640021
6099.56006 0.638213
6099.81982 0.63727
6100.08008 0.636299
6100.33984 0.635256
6100.60010 0.632147
6100.85986 0.62898
6101.12012 0.631002
6101.37988 0.628199
6101.64014 0.626117
6101.89990 0.624352
6102.16016 0.622138
6102.41992 0.62137
6102.68018 0.62052
6102.93994 0.618057
6103.20020 0.616074
6103.45996 0.615157
6103.72021 0.613988
6103.97998 0.610799
6104.25000 0.611484
6104.50977 0.609369
6104.77002 0.607939
6105.02979 0.604994
6105.29004 0.603016
6105.54980 0.601252
6105.81006 0.600689
6106.06982 0.595466
6106.33008 0.594723
6106.58984 0.594848
6106.85010 0.594281
6107.10986 0.5915
6107.37012 0.588889
6107.62988 0.586859
6107.89014 0.586399
6108.14990 0.583647
6108.41016 0.58257
6108.66992 0.580606
6108.93018 0.578354
6109.18994 0.575586
6109.45996 0.575409
6109.72021 0.572386
6109.97998 0.571283
6110.24023 0.568658
6110.50000 0.566806
6110.75977 0.563896
6111.02002 0.561722
6111.27979 0.561761
6111.54004 0.557801
6111.79980 0.55766
6112.06006 0.55357
6112.31982 0.553772
6112.58008 0.54745
6112.83984 0.546413
6113.10010 0.548326
6113.35986 0.543946
6113.62012 0.542557
6113.87988 0.539187
6114.14014 0.539796
6114.39990 0.536681
6114.66992 0.536015
6114.93018 0.534874
6115.18994 0.530272
6115.45020 0.529265
6115.70996 0.526919
6115.97021 0.525307
6116.22998 0.524783
6116.49023 0.519805
6116.75000 0.518758
6117.00977 0.517071
6117.27002 0.514662
6117.52979 0.511167
6117.79004 0.510435
6118.04980 0.508805
6118.31006 0.505329
6118.56982 0.504349
6118.83008 0.498924
6119.08984 0.498406
6119.35010 0.497903
6119.62012 0.494579
6119.87988 0.4933
6120.14014 0.490354
6120.39990 0.489716
6120.66016 0.485168
6120.91992 0.485037
6121.18018 0.481102
6121.43994 0.47971
6121.70020 0.477347
6121.95996 0.47656
6122.22021 0.474151
6122.47998 0.469685
6122.74023 0.465396
6123.00000 0.465304
6123.25977 0.463649
6123.52002 0.462252
6123.77979 0.461197
6124.04004 0.457499
6124.29980 0.453609
6124.56006 0.451553
6124.83008 0.45
6125.08984 0.44752
6125.35010 0.445198
6125.60986 0.444034
6125.87012 0.442152
6126.12988 0.44001
6126.39014 0.437082
6126.64990 0.433896
6126.91016 0.433402
6127.16992 0.432991
6127.43018 0.428731
6127.68994 0.425401
6127.95020 0.424059
6128.20996 0.422533
6128.47021 0.4197
6128.72998 0.41632
6128.99023 0.412537
6129.25000 0.411367
6129.50977 0.410051
6129.77002 0.406733
6130.04004 0.405448
6130.29980 0.403189
6130.56006 0.401627
6130.81982 0.397311
6131.08008 0.395957
6131.33984 0.39266
6131.60010 0.39091
6131.85986 0.389159
6132.12012 0.387515
6132.37988 0.386353
6132.64014 0.381844
6132.89990 0.380183
6133.16016 0.379543
6133.41992 0.377195
6133.68018 0.373917
6133.93994 0.371902
6134.20020 0.370935
6134.45996 0.367445
6134.72021 0.365392
6134.97998 0.363305
6135.25000 0.361382
6135.50977 0.358291
6135.77002 0.355084
6136.02979 0.354889
6136.29004 0.352536
6136.54980 0.35056
6136.81006 0.347172
6137.06982 0.346083
6137.33008 0.343964
6137.58984 0.341215
6137.85010 0.338314
6138.10986 0.337767
6138.37012 0.334483
6138.62988 0.333036
6138.89014 0.33165
6139.14990 0.328548
6139.41016 0.326246
6139.66992 0.324007
6139.93018 0.321012
6140.18994 0.32054
6140.45996 0.315824
6140.72021 0.315784
6140.97998 0.314387
6141.24023 0.31282
6141.50000 0.310627
6141.75977 0.307077
6142.02002 0.305489
6142.27979 0.30335
6142.54004 0.299932
6142.79980 0.298833
6143.06006 0.29941
6143.31982 0.295152
6143.58008 0.293402
6143.83984 0.291912
6144.10010 0.290292
6144.35986 0.288146
6144.62012 0.286687
6144.87988 0.283678
6145.14014 0.280952
6145.39990 0.280267
6145.66992 0.277874
6145.93018 0.275265
6146.18994 0.273171
6146.45020 0.272773
6146.70996 0.270172
6146.97021 0.268674
6147.22998 0.266663
6147.49023 0.265839
6147.75000 0.262621
6148.00977 0.260605
6148.27002 0.259203
6148.52979 0.256901
6148.79004 0.255141
6149.04980 0.253779
6149.31006 0.252037
6149.56982 0.250006
6149.83008 0.248291
6150.08984 0.246302
6150.35010 0.245442
6150.60986 0.24285
6150.87988 0.241053
6151.14014 0.24068
6151.39990 0.237738
6151.66016 0.236628
6151.91992 0.234585
6152.18018 0.23326
6152.43994 0.23042
6152.70020 0.229696
6152.95996 0.228172
6153.22021 0.226139
6153.47998 0.22447
6153.74023 0.221933
6154.00000 0.220886
6154.25977 0.219729
6154.52002 0.218122
6154.77979 0.216702
6155.04004 0.214285
6155.29980 0.213445
6155.56006 0.211472
6155.81982 0.21077
6156.08008 0.207675
6156.35010 0.206874
6156.60986 0.205235
6156.87012 0.203637
6157.12988 0.202271
6157.39014 0.200508
6157.64990 0.200474
6157.91016 0.19817
6158.16992 0.196478
6158.43018 0.195619
6158.68994 0.193059
6158.95020 0.192008
6159.20996 0.191025
6159.47021 0.189094
6159.72998 0.187911
6159.99023 0.186597
6160.25000 0.185335
6160.50977 0.18369
6160.77002 0.18208
6161.02979 0.180471
6161.29004 0.177429
6161.56006 0.178507
6161.81982 0.176793
6162.08008 0.17451
6162.33984 0.174631
6162.60010 0.172443
6162.85986 0.171066
6163.12012 0.169796
6163.37988 0.168758
6163.64014 0.168303
6163.89990 0.166156
6164.16016 0.16555
6164.41992 0.163379
6164.68018 0.163003
6164.93994 0.161315
6165.20020 0.159928
6165.45996 0.157984
6165.72021 0.156959
6165.97998 0.155879
6166.24023 0.155243
6166.50000 0.152486
6166.77002 0.152442
6167.02979 0.151213
6167.29004 0.149963
6167.54980 0.149583
6167.81006 0.147812
6168.06982 0.146883
6168.33008 0.146067
6168.58984 0.144493
6168.85010 0.142167
6169.10986 0.142333
6169.37012 0.141557
6169.62988 0.140508
6169.89014 0.138619
6170.14990 0.138319
6170.41016 0.137559
6170.66992 0.136063
6170.93018 0.136264
6171.18994 0.13351
6171.45020 0.132585
6171.70996 0.131667
6171.97998 0.130767
6172.24023 0.129219
6172.50000 0.128316
6172.75977 0.127656
6173.02002 0.126028
6173.27979 0.125798
6173.54004 0.124527
6173.79980 0.124368
6174.06006 0.123044
6174.31982 0.121657
6174.58008 0.121097
6174.83984 0.120372
6175.10010 0.11926
6175.35986 0.118631
6175.62012 0.116913
6175.87988 0.116521
6176.14014 0.116059
6176.39990 0.114707
6176.66016 0.113124
6176.91992 0.11225
6177.18994 0.111783
6177.45020 0.111537
6177.70996 0.110455
6177.97021 0.109036
6178.22998 0.108245
6178.49023 0.107974
6178.75000 0.106942
6179.00977 0.106054
6179.27002 0.10518
6179.52979 0.104824
6179.79004 0.103326
6180.04980 0.103496
6180.31006 0.102367
6180.56982 0.101879
6180.83008 0.100551
6181.08984 0.09942
6181.35010 0.099
6181.60986 0.098024
6181.87012 0.097653
6182.12988 0.09664
6182.39990 0.095951
6182.66016 0.095088
6182.91992 0.094313
6183.18018 0.093958
6183.43994 0.0934
6183.70020 0.092063
6183.95996 0.091464
6184.22021 0.090984
6184.47998 0.090992
6184.74023 0.089762
6185.00000 0.088699
6185.25977 0.088444
6185.52002 0.088012
6185.77979 0.087325
6186.04004 0.086319
6186.29980 0.085943
6186.56006 0.084888
6186.81982 0.08484
6187.08008 0.083792
6187.35010 0.082687
6187.60986 0.082796
6187.87012 0.081704
6188.12988 0.081342
6188.39014 0.080019
6188.64990 0.079885
6188.91016 0.079217
6189.16992 0.078172
6189.43018 0.07779
6189.68994 0.077114
6189.95020 0.077166
6190.20996 0.076555
6190.47021 0.075531
6190.72998 0.074564
6190.99023 0.074291
6191.25000 0.074255
6191.50977 0.073409
6191.77002 0.072767
6192.02979 0.071995
6192.29004 0.071303
6192.56006 0.071478
6192.81982 0.070751
6193.08008 0.069868
6193.33984 0.069008
6193.60010 0.069445
6193.85986 0.068334
6194.12012 0.06817
6194.37988 0.068518
6194.64014 0.067451
6194.89990 0.067098
6195.16016 0.066251
6195.41992 0.065696
6195.68018 0.065381
6195.93994 0.064927
6196.20020 0.064151
6196.45996 0.064314
6196.72021 0.063283
6196.97998 0.062308
6197.24023 0.062878
6197.50000 0.062357
6197.77002 0.061488
6198.02979 0.060917
6198.29004 0.060501
6198.54980 0.059897
6198.81006 0.059706
6199.06982 0.059631
6199.33008 0.059079
6199.58984 0.058593
6199.85010 0.058038
6200.10986 0.057718
6200.37012 0.057363
6200.62988 0.056452
6200.89014 0.056284
6201.14990 0.056275
6201.41016 0.055515
6201.66992 0.055051
6201.93018 0.054964
6202.18994 0.054739
6202.45020 0.054006
6202.70996 0.053035
6202.97998 0.0529
6203.24023 0.053001
6203.50000 0.051831
6203.75977 0.051603
6204.02002 0.051484
6204.27979 0.050859
6204.54004 0.05101
6204.79980 0.050349
6205.06006 0.050077
6205.31982 0.050016
6205.58008 0.049377
6205.83984 0.049134
6206.10010 0.048893
6206.35986 0.048155
6206.62012 0.047852
6206.87988 0.047935
6207.14014 0.047123
6207.39990 0.047089
6207.66016 0.046805
6207.91992 0.046875
6208.18994 0.046247
6208.45020 0.045938
6208.70996 0.045563
6208.97021 0.044791
6209.22998 0.044549
6209.49023 0.044349
6209.75000 0.043556
6210.00977 0.043645
6210.27002 0.043864
6210.52979 0.042992
6210.79004 0.042916
6211.04980 0.042921
6211.31006 0.042875
6211.56982 0.041866
6211.83008 0.042084
6212.08984 0.040927
6212.35010 0.041058
6212.60986 0.041067
6212.87012 0.040826
6213.12988 0.040381
6213.39990 0.040247
6213.66016 0.039978
6213.91992 0.039305
6214.18018 0.039399
6214.43994 0.039249
6214.70020 0.038922
6214.95996 0.038745
6215.22021 0.038318
6215.47998 0.038052
6215.74023 0.037678
6216.00000 0.037521
6216.25977 0.036842
6216.52002 0.03693
6216.77979 0.036662
6217.04004 0.035901
6217.29980 0.036174
6217.56006 0.035436
6217.81982 0.035493
6218.08008 0.035273
6218.33984 0.035028
6218.60010 0.034884
6218.87012 0.034469
6219.12988 0.034543
6219.39014 0.03407
6219.64990 0.034011
6219.91016 0.033746
6220.16992 0.033566
6220.43018 0.033401
6220.68994 0.032821
6220.95020 0.032937
6221.20996 0.032295
6221.47021 0.032265
6221.72998 0.031811
6221.99023 0.031912
6222.25000 0.031764
6222.50977 0.031716
6222.77002 0.031581
6223.02979 0.030944
6223.29004 0.031071
6223.54980 0.03079
6223.81006 0.030922
6224.08008 0.030596
6224.33984 0.029898
6224.60010 0.030003
6224.85986 0.029799
6225.12012 0.029191
6225.37988 0.029389
6225.64014 0.029131
6225.89990 0.029279
6226.16016 0.02896
6226.41992 0.028902
6226.68018 0.028707
6226.93994 0.028232
6227.20020 0.028349
6227.45996 0.028432
6227.72021 0.027866
6227.97998 0.027531
6228.24023 0.027193
6228.50000 0.02732
6228.75977 0.027004
6229.02002 0.026729
6229.29004 0.026594
6229.54980 0.026642
6229.81006 0.026429
6230.06982 0.026237
6230.33008 0.026284
6230.58984 0.025777
6230.85010 0.025762
6231.10986 0.025631
6231.37012 0.025295
6231.62988 0.024917
6231.89014 0.025071
6232.14990 0.024825
6232.41016 0.024718
6232.66992 0.024547
6232.93018 0.024638
6233.18994 0.024331
6233.45020 0.023943
6233.70996 0.023971
6233.97021 0.023561
6234.22998 0.023366
6234.50000 0.023707
6234.75977 0.023513
6235.02002 0.023071
6235.27979 0.023029
6235.54004 0.022947
6235.79980 0.022701
6236.06006 0.022576
6236.31982 0.022511
6236.58008 0.022575
6236.83984 0.022176
6237.10010 0.022043
6237.35986 0.021872
6237.62012 0.021891
6237.87988 0.02195
6238.14014 0.021526
6238.39990 0.021261
6238.66016 0.021408
6238.91992 0.020928
6239.18018 0.02088
6239.43994 0.020943
6239.70996 0.020601
6239.97021 0.02059
6240.22998 0.020389
6240.49023 0.020364
6240.75000 0.020406
6241.00977 0.020329
6241.27002 0.020249
6241.52979 0.019958
6241.79004 0.019816
6242.04980 0.019903
6242.31006 0.019732
6242.56982 0.019295
6242.83008 0.019304
6243.08984 0.019112
6243.35010 0.019042
6243.60986 0.018799
6243.87012 0.019122
6244.12988 0.018504
6244.39014 0.018503
6244.64990 0.018611
6244.91992 0.018298
6245.18018 0.018422
6245.43994 0.018067
6245.70020 0.018108
6245.95996 0.017954
6246.22021 0.017775
6246.47998 0.017536
6246.74023 0.017502
6247.00000 0.017395
6247.25977 0.017747
6247.52002 0.017681
6247.77979 0.017407
6248.04004 0.017187
6248.29980 0.017243
6248.56006 0.017082
6248.81982 0.016688
6249.08008 0.016801
6249.33984 0.016533
6249.60010 0.016638
6249.87012 0.016718
6250.12988 0.01629
6250.39014 0.016519
6250.64990 0.016299
6250.91016 0.016091
6251.16992 0.016057
6251.43018 0.01588
6251.68994 0.015916
6251.95020 0.015807
6252.20996 0.01565
6252.47021 0.015675
6252.72998 0.015752
6252.99023 0.015511
6253.25000 0.015507
6253.50977 0.015092
6253.77002 0.015227
6254.02979 0.015036
6254.29004 0.015137
6254.54980 0.01473
6254.81006 0.014672
6255.08008 0.014887
6255.33984 0.01454
6255.60010 0.01468
6255.85986 0.014351
6256.12012 0.014331
6256.37988 0.014534
6256.64014 0.01438
6256.89990 0.013999
6257.16016 0.01426
6257.41992 0.013907
6257.68018 0.013875
6257.93994 0.013869
6258.20020 0.013768
6258.45996 0.013608
6258.72021 0.013594
6258.97998 0.013573
6259.24023 0.013438
6259.50000 0.01335
6259.75977 0.013488
6260.02002 0.01332
6260.29004 0.013192
6260.54980 0.013339
6260.81006 0.012943
6261.06982 0.013296
6261.33008 0.012824
6261.58984 0.012729
6261.85010 0.012821
6262.10986 0.012734
6262.37012 0.012563
6262.62988 0.01255
6262.89014 0.012617
6263.14990 0.012456
6263.41016 0.012278
6263.66992 0.012353
6263.93018 0.012054
6264.18994 0.012283
6264.45020 0.012109
6264.70996 0.012137
6264.97021 0.01188
6265.22998 0.011737
6265.50000 0.011743
6265.75977 0.011893
6266.02002 0.011563
6266.27979 0.011735
6266.54004 0.011808
6266.79980 0.011441
6267.06006 0.011348
6267.31982 0.011553
6267.58008 0.011455
6267.83984 0.011096
6268.10010 0.011342
6268.35986 0.011259
6268.62012 0.011067
6268.87988 0.011265
6269.14014 0.011076
6269.39990 0.010989
6269.66016 0.010756
6269.91992 0.010892
6270.18018 0.010521
6270.43994 0.010726
6270.70996 0.01079
6270.97021 0.010491
6271.22998 0.01057
6271.49023 0.010583
6271.75000 0.010243
6272.00977 0.010364
6272.27002 0.010226
6272.52979 0.010379
6272.79004 0.010226
6273.04980 0.010094
6273.31006 0.010092
6273.56982 0.010152
6273.83008 0.010085
6274.08984 0.009841
6274.35010 0.009835
6274.60986 0.009949
6274.87012 0.009746
6275.12988 0.009797
6275.39014 0.009815
6275.64990 0.00964
6275.91992 0.0097
6276.18018 0.009598
6276.43994 0.009511
6276.70020 0.009356
6276.95996 0.009505
6277.22021 0.009489
6277.47998 0.009377
6277.74023 0.009097
6278.00000 0.009454
6278.25977 0.009206
6278.52002 0.009102
6278.77979 0.009249
6279.04004 0.008964
6279.29980 0.009037
6279.56006 0.008906
6279.81982 0.008975
6280.08008 0.008871
6280.33984 0.008639
6280.60010 0.008922
6280.85986 0.008791
6281.12012 0.008526
6281.39014 0.008776
6281.64990 0.00853
6281.91016 0.008549
6282.16992 0.008668
6282.43018 0.008472
6282.68994 0.008564
6282.95020 0.008292
6283.20996 0.008335
6283.47021 0.008366
6283.72998 0.008321
6283.99023 0.008496
6284.25000 0.0082
6284.50977 0.008198
6284.77002 0.008246
6285.02979 0.008054
6285.29004 0.008084
6285.54980 0.008066
6285.81006 0.008015
6286.06982 0.007818
6286.33008 0.007886
6286.60010 0.007965
6286.85986 0.007915
6287.12012 0.00791
6287.37988 0.007898
6287.64014 0.007867
6287.89990 0.007727
6288.16016 0.007684
6288.41992 0.007678
6288.68018 0.007619
6288.93994 0.007648
6289.20020 0.007631
6289.45996 0.007453
6289.72021 0.007533
6289.97998 0.007647
6290.24023 0.007259
6290.50000 0.007294
6290.75977 0.007095
6291.02002 0.00749
6291.27979 0.007251
6291.54004 0.007204
6291.81006 0.007256
6292.06982 0.007136
6292.33008 0.007066
6292.58984 0.007169
6292.85010 0.007161
6293.10986 0.007109
6293.37012 0.006848
6293.62988 0.007033
6293.89014 0.006959
6294.14990 0.006898
6294.41016 0.006903
6294.66992 0.006862
6294.93018 0.006792
6295.18994 0.006717
6295.45020 0.006687
6295.70996 0.006743
6295.97021 0.006667
6296.22998 0.006583
6296.49023 0.006661
6296.75000 0.006572
6297.02002 0.006597
6297.27979 0.006485
6297.54004 0.006711
6297.79980 0.006559
6298.06006 0.006627
6298.31982 0.00656
6298.58008 0.006322
6298.83984 0.006439
6299.10010 0.006529
6299.35986 0.006391
6299.62012 0.006211
6299.87988 0.006245
6300.14014 0.006205
6300.39990 0.006128
6300.66016 0.006152
6300.91992 0.006061
6301.18018 0.0061
6301.43994 0.005952
6301.70020 0.006178
6301.95996 0.006066
6302.22998 0.005998
6302.49023 0.00612
6302.75000 0.005957
6303.00977 0.006099
6303.27002 0.005961
6303.52979 0.00575
6303.79004 0.00564
6304.04980 0.005671
6304.31006 0.005987
6304.56982 0.00577
6304.83008 0.005842
6305.08984 0.005745
6305.35010 0.005606
6305.60986 0.005686
6305.87012 0.005648
6306.12988 0.005573
6306.39014 0.005566
6306.64990 0.005552
6306.91016 0.005473
6307.16992 0.005577
6307.43994 0.005518
6307.70020 0.005644
6307.95996 0.005518
6308.22021 0.005486
6308.47998 0.005359
6308.74023 0.00536
6309.00000 0.00548
6309.25977 0.005533
6309.52002 0.005253
6309.77979 0.005244
6310.04004 0.005347
6310.29980 0.005154
6310.56006 0.005246
6310.81982 0.005115
6311.08008 0.005088
6311.33984 0.005217
6311.60010 0.005261
6311.85986 0.005157
6312.12012 0.005005
6312.37988 0.005022
6312.64990 0.005151
6312.91016 0.005022
6313.16992 0.005229
6313.43018 0.005211
6313.68994 0.005157
6313.95020 0.004981
6314.20996 0.004792
6314.47021 0.005073
6314.72998 0.004804
6314.99023 0.005083
6315.25000 0.005063
6315.50977 0.004869
6315.77002 0.004859
6316.02979 0.004794
6316.29004 0.004831
6316.54980 0.004576
6316.81006 0.00485
6317.06982 0.004656
6317.33008 0.004546
6317.60010 0.004708
6317.85986 0.004676
6318.12012 0.00484
6318.37988 0.004522
6318.64014 0.004827
6318.89990 0.004553
6319.16016 0.004498
6319.41992 0.004626
6319.68018 0.004607
6319.93994 0.004581
6320.20020 0.004501
6320.45996 0.004392
6320.72021 0.00457
6320.97998 0.004375
6321.24023 0.004597
6321.50000 0.004413
6321.75977 0.00441
6322.02002 0.004432
6322.27979 0.004612
6322.54004 0.004302
6322.81006 0.004448
6323.06982 0.004279
6323.33008 0.004162
6323.58984 0.004373
6323.85010 0.004222
6324.10986 0.004485
6324.37012 0.004154
6324.62988 0.004304
6324.89014 0.004214
6325.14990 0.004273
6325.41016 0.004249
6325.66992 0.004133
6325.93018 0.00424
6326.18994 0.004301
6326.45020 0.004127
6326.70996 0.004133
6959.38086 0.0
