# %ECSV 0.9
# ---
# datatype:
# - {name: wavelength, unit: Angstrom, datatype: float32}
# - {name: response, datatype: float32}
# meta: !!omap
# - {band_name: f_502_3}
# - {group_name: CAHA}
wavelength response
4466.79883 0.0
4963.10986 0.00409
4963.37012 0.003747
4963.62988 0.00322
4963.89014 0.004407
4964.14990 0.003756
4964.41016 0.004039
4964.66992 0.003187
4964.93018 0.003564
4965.18994 0.003769
4965.45020 0.00391
4965.70996 0.003847
4965.97021 0.0041
4966.22998 0.004403
4966.49023 0.003977
4966.75000 0.004325
4967.00977 0.004148
4967.27002 0.004464
4967.52979 0.004411
4967.79004 0.003501
4968.04980 0.004468
4968.31006 0.003992
4968.56982 0.004775
4968.83008 0.003972
4969.08984 0.004712
4969.35010 0.004963
4969.60986 0.004415
4969.87012 0.004822
4970.12988 0.004673
4970.39014 0.004759
4970.64990 0.00521
4970.91016 0.005882
4971.16992 0.005094
4971.43018 0.00546
4971.68994 0.005269
4971.95020 0.005306
4972.20996 0.005249
4972.45996 0.005863
4972.72998 0.005555
4972.97998 0.005798
4973.24023 0.005858
4973.50000 0.005718
4973.75977 0.006021
4974.02002 0.007096
4974.27979 0.005853
4974.54004 0.005687
4974.79980 0.006313
4975.06006 0.006392
4975.31982 0.006354
4975.58008 0.006329
4975.83984 0.006554
4976.10010 0.007234
4976.35986 0.006624
4976.62012 0.007337
4976.87988 0.007384
4977.14014 0.007292
4977.39990 0.007374
4977.66016 0.007265
4977.91992 0.007575
4978.18018 0.008359
4978.43994 0.008576
4978.70020 0.00866
4978.95996 0.008889
4979.22021 0.008549
4979.47998 0.007992
4979.74023 0.008603
4980.00000 0.008853
4980.25977 0.008905
4980.52002 0.008263
4980.77979 0.009595
4981.04004 0.009096
4981.29980 0.009817
4981.56006 0.009646
4981.81982 0.009951
4982.08008 0.010047
4982.33984 0.010052
4982.60010 0.010906
4982.85986 0.01138
4983.12012 0.010729
4983.37988 0.011219
4983.64014 0.011463
4983.89990 0.011909
4984.16016 0.011557
4984.41992 0.011947
4984.68018 0.013169
4984.93994 0.013088
4985.20020 0.012877
4985.45996 0.01329
4985.72021 0.013686
4985.97998 0.013653
4986.24023 0.014828
4986.50000 0.014569
4986.75977 0.015126
4987.02002 0.015078
4987.27979 0.014701
4987.54004 0.015307
4987.79980 0.016259
4988.06006 0.015869
4988.31982 0.016436
4988.58008 0.018065
4988.83984 0.018009
4989.10010 0.018131
4989.35986 0.018693
4989.62012 0.01893
4989.87988 0.018294
4990.14014 0.021566
4990.39990 0.020745
4990.66016 0.020165
4990.91992 0.020793
4991.18018 0.022424
4991.43994 0.022479
4991.70020 0.022236
4991.95996 0.024025
4992.22021 0.025481
4992.47998 0.024411
4992.74023 0.026188
4993.00000 0.028208
4993.25977 0.027069
4993.52002 0.028528
4993.77979 0.030619
4994.04004 0.02971
4994.29980 0.030642
4994.56006 0.033752
4994.81982 0.034476
4995.08008 0.034357
4995.33984 0.035303
4995.60010 0.037429
4995.85986 0.037211
4996.12012 0.03982
4996.37988 0.040427
4996.64014 0.041447
4996.89990 0.042586
4997.16016 0.044872
4997.41992 0.045699
4997.68018 0.047065
4997.93994 0.04991
4998.20020 0.051926
4998.45996 0.052461
4998.70996 0.054394
4998.97021 0.057494
4999.22998 0.058177
4999.49023 0.06036
4999.75000 0.06262
5000.00977 0.064435
5000.27002 0.06763
5000.52979 0.068691
5000.79004 0.07293
5001.04980 0.074373
5001.31006 0.078765
5001.56982 0.081781
5001.83008 0.08433
5002.08984 0.086976
5002.35010 0.092235
5002.60986 0.094265
5002.87012 0.09844
5003.12988 0.101439
5003.39014 0.106606
5003.64990 0.109063
5003.91016 0.113802
5004.16992 0.119955
5004.43018 0.120354
5004.68994 0.124831
5004.95020 0.133676
5005.20996 0.138183
5005.47021 0.142653
5005.72998 0.151421
5005.99023 0.152958
5006.25000 0.157765
5006.50977 0.166644
5006.77002 0.174571
5007.02979 0.177396
5007.29004 0.183826
5007.54980 0.196383
5007.81006 0.1998
5008.06982 0.206965
5008.33008 0.22052
5008.58984 0.22442
5008.85010 0.227988
5009.10986 0.239357
5009.37012 0.252095
5009.62988 0.250451
5009.89014 0.261855
5010.14990 0.276068
5010.41016 0.282318
5010.66992 0.295013
5010.93018 0.304039
5011.18994 0.308187
5011.45020 0.317608
5011.70996 0.329586
5011.97021 0.336525
5012.22998 0.341212
5012.49023 0.348817
5012.75000 0.361679
5013.00977 0.369947
5013.27002 0.377047
5013.52979 0.387665
5013.79004 0.394673
5014.04980 0.396256
5014.31006 0.406889
5014.56982 0.415299
5014.83008 0.415826
5015.08984 0.417995
5015.35010 0.425798
5015.60986 0.430154
5015.87012 0.438001
5016.12988 0.441723
5016.39014 0.442871
5016.64990 0.443977
5016.91016 0.453149
5017.16992 0.453857
5017.43018 0.45157
5017.68994 0.462957
5017.95020 0.462736
5018.20996 0.458522
5018.47021 0.458838
5018.72998 0.466229
5018.99023 0.465863
5019.25000 0.462728
5019.50977 0.469074
5019.77002 0.463571
5020.02979 0.464976
5020.29004 0.468333
5020.54980 0.469776
5020.81006 0.465219
5021.06982 0.468881
5021.33008 0.46339
5021.58984 0.470705
5021.85010 0.461095
5022.10986 0.467452
5022.37012 0.466093
5022.62988 0.462224
5022.89014 0.460111
5023.14990 0.463985
5023.41016 0.460932
5023.66992 0.464017
5023.93018 0.46058
5024.18994 0.461547
5024.43994 0.456037
5024.70996 0.459086
5024.95996 0.456844
5025.22021 0.460852
5025.47998 0.455263
5025.74023 0.458559
5026.00000 0.456886
5026.25977 0.452763
5026.52002 0.451074
5026.77979 0.457108
5027.04004 0.457178
5027.29980 0.453422
5027.56006 0.455361
5027.81982 0.448664
5028.08008 0.454595
5028.33984 0.461805
5028.60010 0.456197
5028.85986 0.447755
5029.12012 0.454177
5029.37988 0.454796
5029.64014 0.448957
5029.89990 0.449003
5030.16016 0.452276
5030.41992 0.44905
5030.68018 0.454501
5030.93994 0.449209
5031.20020 0.445829
5031.45996 0.44343
5031.72021 0.443838
5031.97998 0.444679
5032.24023 0.440579
5032.50000 0.439248
5032.75977 0.439583
5033.02002 0.432374
5033.27979 0.428489
5033.54004 0.429212
5033.79980 0.42007
5034.06006 0.414173
5034.31982 0.418697
5034.58008 0.407867
5034.83984 0.40456
5035.10010 0.399681
5035.35986 0.400583
5035.62012 0.386945
5035.87988 0.38325
5036.14014 0.384396
5036.39990 0.369741
5036.66016 0.361037
5036.91992 0.362834
5037.18018 0.348212
5037.43994 0.343223
5037.70020 0.341864
5037.95996 0.327103
5038.22021 0.320559
5038.47998 0.311923
5038.74023 0.308016
5039.00000 0.29489
5039.25977 0.289816
5039.52002 0.283037
5039.77979 0.273204
5040.04004 0.267662
5040.29980 0.261062
5040.56006 0.251968
5040.81982 0.242207
5041.08008 0.2342
5041.33984 0.23256
5041.60010 0.216744
5041.85986 0.215303
5042.12012 0.20949
5042.37988 0.201348
5042.64014 0.192677
5042.89990 0.190968
5043.16016 0.181645
5043.41992 0.172581
5043.68018 0.164969
5043.93994 0.161471
5044.20020 0.154517
5044.45996 0.149533
5044.72021 0.144832
5044.97998 0.13757
5045.24023 0.132897
5045.50000 0.132207
5045.75977 0.1255
5046.02002 0.119591
5046.27979 0.117666
5046.54004 0.114323
5046.79980 0.108334
5047.06006 0.103329
5047.31982 0.101083
5047.58008 0.09745
5047.83984 0.092745
5048.10010 0.090549
5048.35986 0.0874
5048.62012 0.082285
5048.87988 0.081972
5049.14014 0.076952
5049.39990 0.074006
5049.66016 0.073066
5049.91992 0.069507
5050.18018 0.06701
5050.43994 0.064569
5050.68994 0.064199
5050.95020 0.062394
5051.20996 0.059
5051.47021 0.056375
5051.72998 0.055649
5051.99023 0.053666
5052.25000 0.050836
5052.50977 0.05169
5052.77002 0.048884
5053.02979 0.046143
5053.29004 0.044822
5053.54980 0.043567
5053.81006 0.042908
5054.06982 0.041529
5054.33008 0.04052
5054.58984 0.03805
5054.85010 0.037987
5055.10986 0.036768
5055.37012 0.03465
5055.62988 0.033078
5055.89014 0.033406
5056.14990 0.033014
5056.41016 0.031963
5056.66992 0.029349
5056.93018 0.029233
5057.18994 0.029025
5057.45020 0.027261
5057.70996 0.026523
5057.97021 0.02633
5058.22998 0.026128
5058.49023 0.024597
5058.75000 0.025357
5059.00977 0.024627
5059.27002 0.022145
5059.52979 0.022688
5059.79004 0.020865
5060.04980 0.0224
5060.31006 0.020691
5060.56982 0.020751
5060.83008 0.019885
5061.08984 0.019474
5061.35010 0.018856
5061.60986 0.018727
5061.87012 0.017854
5062.12988 0.017362
5062.39014 0.017444
5062.64990 0.01727
5062.91016 0.015456
5063.16992 0.015497
5063.43018 0.015284
5063.68994 0.014799
5063.95020 0.015102
5064.20996 0.014274
5064.47021 0.013998
5064.72998 0.013595
5064.99023 0.013567
5065.25000 0.013163
5065.50977 0.012766
5065.77002 0.013013
5066.02979 0.012619
5066.29004 0.011907
5066.54980 0.01203
5066.81006 0.011082
5067.06982 0.011414
5067.33008 0.010625
5067.58984 0.010676
5067.85010 0.010538
5068.10986 0.010943
5068.37012 0.009983
5068.62988 0.009545
5068.89014 0.009639
5069.14990 0.009706
5069.41016 0.009054
5069.66992 0.008936
5069.93018 0.009023
5070.18994 0.008578
5070.45020 0.008397
5070.70996 0.008658
5070.97021 0.008029
5071.22998 0.009202
5071.49023 0.008502
5071.75000 0.008095
5072.00977 0.007949
5072.27002 0.007986
5072.52979 0.007744
5072.79004 0.006945
5073.04980 0.007475
5073.31006 0.006595
5073.56982 0.006752
5073.83008 0.00667
5074.08984 0.006908
5074.35010 0.006698
5074.60986 0.006541
5074.87012 0.00689
5075.12988 0.006177
5075.39014 0.005807
5075.64990 0.006281
5075.91016 0.005843
5076.16992 0.005448
5076.41992 0.00583
5076.68994 0.005972
5076.93994 0.005845
5077.20020 0.005172
5077.45996 0.006285
5077.72021 0.005226
5077.97998 0.005029
5078.24023 0.005242
5078.50000 0.004924
5078.75977 0.005522
5079.02002 0.004733
5079.27979 0.004364
5079.54004 0.004466
5079.79980 0.00513
5080.06006 0.004892
5080.31982 0.004715
5080.58008 0.004518
5080.83984 0.004749
5588.92383 0.0
