# %ECSV 0.9
# ---
# datatype:
# - {name: wavelength, unit: Angstrom, datatype: float32}
# - {name: response, datatype: float32}
# meta: !!omap
# - {band_name: f_954_5}
# - {group_name: CAHA}
wavelength response
8492.86719 0.0
9436.51953 0.004066
9436.94043 0.004312
9437.36035 0.004371
9437.78027 0.004389
9438.20020 0.004365
9438.62012 0.004325
9439.04004 0.004307
9439.45996 0.004666
9439.87988 0.005213
9440.29980 0.005088
9440.71973 0.005127
9441.13965 0.004766
9441.55957 0.005156
9441.98047 0.004813
9442.40039 0.004815
9442.82031 0.004944
9443.24023 0.005241
9443.66016 0.005071
9444.08008 0.005074
9444.50000 0.005612
9444.91992 0.005704
9445.33984 0.005649
9445.75977 0.005858
9446.17969 0.005688
9446.59961 0.006003
9447.01953 0.00599
9447.44043 0.006006
9447.86035 0.006182
9448.28027 0.006014
9448.70020 0.006381
9449.12012 0.006595
9449.54004 0.006916
9449.95996 0.006818
9450.37988 0.007149
9450.79980 0.00709
9451.21973 0.007507
9451.63965 0.007785
9452.05957 0.008076
9452.48047 0.008355
9452.90039 0.008397
9453.32031 0.008546
9453.74023 0.009033
9454.16016 0.008733
9454.58008 0.00927
9455.00000 0.009559
9455.41992 0.009823
9455.83984 0.010073
9456.25977 0.010579
9456.67969 0.010646
9457.09961 0.010607
9457.51953 0.011086
9457.94043 0.01149
9458.36035 0.011413
9458.78027 0.012353
9459.20020 0.01292
9459.62012 0.013361
9460.04004 0.013298
9460.45996 0.013591
9460.87988 0.014189
9461.29980 0.014892
9461.71973 0.01467
9462.13965 0.0151
9462.55957 0.015714
9462.98047 0.016514
9463.40039 0.016605
9463.82031 0.017022
9464.24023 0.017529
9464.66016 0.017598
9465.08008 0.018408
9465.50000 0.018716
9465.91992 0.019353
9466.33984 0.020293
9466.75977 0.020621
9467.17969 0.021246
9467.59961 0.021637
9468.01953 0.022625
9468.44043 0.023851
9468.86035 0.024314
9469.28027 0.025019
9469.70020 0.025275
9470.12012 0.025405
9470.54004 0.026316
9470.95996 0.027338
9471.37988 0.028247
9471.79980 0.029085
9472.21973 0.030065
9472.63965 0.030949
9473.05957 0.031889
9473.48047 0.034164
9473.90039 0.035099
9474.32031 0.036299
9474.74023 0.037767
9475.16016 0.038122
9475.58008 0.039835
9476.00000 0.041059
9476.41992 0.042172
9476.83984 0.043565
9477.25977 0.045276
9477.67969 0.047051
9478.09961 0.048548
9478.51953 0.050374
9478.94043 0.053081
9479.36035 0.054973
9479.78027 0.057654
9480.20020 0.05958
9480.62012 0.06141
9481.04004 0.066885
9481.45996 0.068499
9481.87988 0.06935
9482.29980 0.072676
9482.71973 0.075287
9483.13965 0.079739
9483.55957 0.082546
9483.98047 0.086176
9484.40039 0.090871
9484.82031 0.095404
9485.24023 0.098984
9485.66016 0.105299
9486.08008 0.108583
9486.50000 0.114516
9486.91992 0.119038
9487.33984 0.1252
9487.75977 0.131222
9488.17969 0.137631
9488.59961 0.144984
9489.01953 0.152332
9489.44043 0.160086
9489.86035 0.168003
9490.28027 0.177181
9490.70020 0.186946
9491.12012 0.197636
9491.54004 0.207339
9491.95996 0.2203
9492.37988 0.23153
9492.79980 0.243281
9493.21973 0.257928
9493.63965 0.273831
9494.05957 0.289526
9494.48047 0.303482
9494.90039 0.318624
9495.32031 0.335346
9495.74023 0.353211
9496.16016 0.372555
9496.58008 0.389692
9497.00000 0.410834
9497.41992 0.429135
9497.83984 0.449894
9498.25977 0.472281
9498.67969 0.492743
9499.09961 0.512814
9499.51953 0.533527
9499.94043 0.554229
9500.36035 0.574224
9500.78027 0.592567
9501.20020 0.612535
9501.62012 0.633006
9502.04004 0.649228
9502.45996 0.667434
9502.87988 0.687539
9503.29980 0.700495
9503.71973 0.715944
9504.13965 0.728337
9504.55957 0.741443
9504.98047 0.752277
9505.40039 0.76454
9505.82031 0.77567
9506.24023 0.784201
9506.66016 0.795064
9507.08008 0.803593
9507.50000 0.810731
9507.91992 0.818856
9508.33984 0.827645
9508.75977 0.833983
9509.17969 0.839657
9509.59961 0.84423
9510.01953 0.849261
9510.44043 0.856104
9510.86035 0.856125
9511.28027 0.862283
9511.70020 0.865995
9512.12012 0.868749
9512.54004 0.870031
9512.95996 0.873662
9513.37988 0.878028
9513.79980 0.877744
9514.21973 0.880389
9514.63965 0.879162
9515.05957 0.882472
9515.48047 0.880242
9515.90039 0.886372
9516.32031 0.880339
9516.74023 0.879421
9517.16016 0.881448
9517.58008 0.880279
9518.00000 0.880067
9518.41992 0.88168
9518.83984 0.878305
9519.25977 0.875648
9519.67969 0.87449
9520.09961 0.877655
9520.51953 0.873282
9520.94043 0.871697
9521.36035 0.868826
9521.78027 0.864034
9522.20020 0.862024
9522.62012 0.862708
9523.04004 0.86332
9523.45996 0.861538
9523.87988 0.861776
9524.29980 0.857544
9524.71973 0.854499
9525.13965 0.851978
9525.55957 0.851878
9525.98047 0.848148
9526.40039 0.846843
9526.82031 0.842313
9527.24023 0.843453
9527.66016 0.842132
9528.08008 0.839848
9528.50000 0.840164
9528.91992 0.838037
9529.33984 0.836979
9529.75977 0.838435
9530.17969 0.839494
9530.59961 0.841898
9531.01953 0.840393
9531.44043 0.841346
9531.86035 0.843619
9532.28027 0.842234
9532.70020 0.845121
9533.12012 0.846454
9533.54004 0.849607
9533.95996 0.850856
9534.37988 0.850125
9534.79980 0.856132
9535.21973 0.85936
9535.63965 0.860237
9536.05957 0.859101
9536.48047 0.859465
9536.90039 0.859892
9537.32031 0.859494
9537.74023 0.857091
9538.16016 0.856037
9538.58008 0.848685
9539.00000 0.846455
9539.41992 0.841624
9539.83984 0.830148
9540.25977 0.821679
9540.67969 0.808427
9541.09961 0.795717
9541.51953 0.783278
9541.94043 0.76531
9542.36035 0.747511
9542.78027 0.727452
9543.20020 0.706698
9543.62012 0.680544
9544.04004 0.656661
9544.45996 0.636643
9544.87988 0.613431
9545.29980 0.589145
9545.71973 0.563036
9546.13965 0.536859
9546.55957 0.51262
9546.98047 0.488025
9547.40039 0.463254
9547.82031 0.438717
9548.24023 0.417789
9548.66016 0.393068
9549.08008 0.373108
9549.50000 0.353296
9549.91992 0.333117
9550.33984 0.316281
9550.75977 0.29867
9551.17969 0.283012
9551.59961 0.266961
9552.01953 0.253409
9552.44043 0.241299
9552.86035 0.227804
9553.28027 0.217439
9553.70020 0.206581
9554.12012 0.19599
9554.54004 0.185427
9554.95996 0.176537
9555.37988 0.166599
9555.79980 0.160829
9556.21973 0.153248
9556.63965 0.146962
9557.05957 0.138972
9557.48047 0.132086
9557.90039 0.126592
9558.32031 0.119988
9558.74023 0.115011
9559.16016 0.110109
9559.58008 0.106166
9560.00000 0.10143
9560.41992 0.097508
9560.83984 0.093861
9561.25977 0.090357
9561.67969 0.086456
9562.09961 0.083219
9562.51953 0.079493
9562.94043 0.076414
9563.36035 0.073211
9563.78027 0.070918
9564.20020 0.069142
9564.62012 0.065787
9565.04004 0.063586
9565.45996 0.060817
9565.87988 0.060003
9566.29980 0.057526
9566.71973 0.055732
9567.13965 0.052852
9567.55957 0.051089
9567.98047 0.05013
9568.40039 0.049195
9568.82031 0.047138
9569.24023 0.045113
9569.66016 0.04381
9570.08008 0.042452
9570.50000 0.040434
9570.91992 0.040229
9571.33984 0.03884
9571.75977 0.037448
9572.17969 0.036206
9572.59961 0.034743
9573.01953 0.033199
9573.44043 0.032982
9573.86035 0.031097
9574.28027 0.03035
9574.70020 0.029292
9575.12012 0.028211
9575.54004 0.027475
9575.95996 0.026935
9576.37988 0.025704
9576.79980 0.025063
9577.21973 0.02505
9577.63965 0.023984
9578.05957 0.023022
9578.48047 0.022848
9578.90039 0.021652
9579.32031 0.021308
9579.74023 0.021037
9580.16016 0.0205
9580.58008 0.019652
9581.00000 0.019307
9581.41992 0.018825
9581.83984 0.018352
9582.25977 0.01754
9582.67969 0.017421
9583.09961 0.016695
9583.51953 0.016796
9583.94043 0.01631
9584.36035 0.015474
9584.78027 0.015135
9585.20020 0.014903
9585.62012 0.015002
9586.04004 0.014278
9586.45996 0.0138
9586.87988 0.01343
9587.29980 0.013223
9587.71973 0.013039
9588.13965 0.012505
9588.55957 0.012795
9588.98047 0.012281
9589.40039 0.012131
9589.82031 0.011838
9590.24023 0.01114
9590.66016 0.011179
9591.08008 0.010368
9591.50000 0.010774
9591.91992 0.010503
9592.33984 0.009945
9592.75977 0.010163
9593.17969 0.009481
9593.59961 0.009078
9594.01953 0.009245
9594.44043 0.008784
9594.86035 0.008579
9595.28027 0.008189
9595.70020 0.0082
9596.12012 0.007985
9596.54004 0.007913
9596.95996 0.007675
9597.37988 0.007463
9597.79980 0.007601
9598.21973 0.007418
9598.63965 0.00703
9599.05957 0.007051
9599.48047 0.006439
9599.90039 0.006624
9600.32031 0.006387
9600.74023 0.006244
9601.16016 0.006238
9601.58008 0.005754
9602.00000 0.006159
9602.41992 0.005908
9602.83984 0.005782
9603.25977 0.005559
9603.67969 0.005485
9604.09961 0.005433
9604.51953 0.005277
9604.94043 0.005388
9605.36035 0.005029
9605.78027 0.004835
9606.20020 0.004786
9606.62012 0.004858
9607.04004 0.004647
9607.45996 0.004791
9607.87988 0.004599
9608.29980 0.004384
9608.71973 0.004322
9609.13965 0.00442
9609.55957 0.004255
10570.51562 0.0
