# %ECSV 0.9
# ---
# datatype:
# - {name: wavelength, unit: Angstrom, datatype: float32}
# - {name: response, datatype: float32}
# meta: !!omap
# - {band_name: f_496_10}
# - {group_name: CAHA}
wavelength response
4340.49316 0.0
4822.77002 0.004079
4823.02979 0.003843
4823.29004 0.004139
4823.54980 0.003522
4823.81006 0.003392
4824.06982 0.002783
4824.33008 0.003426
4824.58984 0.00311
4824.85010 0.003622
4825.10986 0.00347
4825.37012 0.00377
4825.62012 0.003806
4825.87988 0.003928
4826.14014 0.004107
4826.39990 0.003779
4826.66016 0.003847
4826.91992 0.003114
4827.18018 0.004124
4827.43994 0.004364
4827.70020 0.003572
4827.95996 0.003829
4828.22021 0.004234
4828.47998 0.00394
4828.74023 0.004111
4829.00000 0.004384
4829.25977 0.004397
4829.52002 0.004338
4829.77979 0.004432
4830.04004 0.004501
4830.29980 0.004387
4830.56006 0.004189
4830.81006 0.004055
4831.06982 0.004522
4831.33008 0.004801
4831.58984 0.004299
4831.85010 0.004592
4832.10986 0.004791
4832.37012 0.004539
4832.62988 0.004526
4832.89014 0.004645
4833.14990 0.004112
4833.41016 0.004069
4833.66992 0.004998
4833.93018 0.004417
4834.18994 0.004927
4834.45020 0.005167
4834.70996 0.004782
4834.97021 0.004546
4835.22998 0.005567
4835.49023 0.004892
4835.75000 0.005085
4836.00000 0.005289
4836.25977 0.005275
4836.52002 0.004747
4836.77979 0.005399
4837.04004 0.005013
4837.29980 0.005405
4837.56006 0.005377
4837.81982 0.005311
4838.08008 0.005641
4838.33984 0.005159
4838.60010 0.005672
4838.85986 0.00614
4839.12012 0.005779
4839.37988 0.006178
4839.64014 0.006059
4839.89990 0.005624
4840.16016 0.00658
4840.41992 0.005884
4840.68018 0.006369
4840.93994 0.006454
4841.18994 0.007058
4841.45020 0.00661
4841.70996 0.00704
4841.97021 0.006626
4842.22998 0.006374
4842.49023 0.006271
4842.75000 0.007142
4843.00977 0.006887
4843.27002 0.006364
4843.52979 0.007359
4843.79004 0.006955
4844.04980 0.007267
4844.31006 0.007549
4844.56982 0.007582
4844.83008 0.007187
4845.08984 0.007793
4845.35010 0.007603
4845.60986 0.007542
4845.87012 0.007544
4846.12012 0.00809
4846.37988 0.007821
4846.64014 0.007333
4846.89990 0.007652
4847.16016 0.008277
4847.41992 0.008348
4847.68018 0.007968
4847.93994 0.008093
4848.20020 0.008973
4848.45996 0.008633
4848.72021 0.008663
4848.97998 0.008491
4849.24023 0.009473
4849.50000 0.009162
4849.75977 0.009364
4850.02002 0.008781
4850.27979 0.008914
4850.54004 0.009285
4850.79980 0.009837
4851.06006 0.009795
4851.31006 0.009475
4851.56982 0.010326
4851.83008 0.010124
4852.08984 0.010858
4852.35010 0.010792
4852.60986 0.010678
4852.87012 0.010651
4853.12988 0.01135
4853.39014 0.010009
4853.64990 0.011798
4853.91016 0.01072
4854.16992 0.012111
4854.43018 0.011776
4854.68994 0.01123
4854.95020 0.011102
4855.20996 0.011694
4855.47021 0.011912
4855.72998 0.012379
4855.99023 0.012882
4856.25000 0.012327
4856.50000 0.013158
4856.75977 0.012436
4857.02002 0.012561
4857.27979 0.013736
4857.54004 0.013362
4857.79980 0.013411
4858.06006 0.014226
4858.31982 0.014123
4858.58008 0.014894
4858.83984 0.014137
4859.10010 0.015037
4859.35986 0.014682
4859.62012 0.015907
4859.87988 0.015851
4860.14014 0.015405
4860.39990 0.015305
4860.66016 0.016102
4860.91992 0.016308
4861.18018 0.016811
4861.43994 0.016939
4861.68994 0.016762
4861.95020 0.017764
4862.20996 0.018001
4862.47021 0.017486
4862.72998 0.018419
4862.99023 0.018056
4863.25000 0.018746
4863.50977 0.018097
4863.77002 0.019921
4864.02979 0.019934
4864.29004 0.019292
4864.54980 0.019987
4864.81006 0.020199
4865.06982 0.021264
4865.33008 0.021628
4865.58984 0.021007
4865.85010 0.022202
4866.10986 0.022265
4866.37012 0.022812
4866.62988 0.023302
4866.87988 0.024226
4867.14014 0.024083
4867.39990 0.024612
4867.66016 0.024776
4867.91992 0.024498
4868.18018 0.025253
4868.43994 0.02701
4868.70020 0.026375
4868.95996 0.026536
4869.22021 0.027067
4869.47998 0.028803
4869.74023 0.027456
4870.00000 0.028211
4870.25977 0.028244
4870.52002 0.030027
4870.77979 0.030014
4871.04004 0.031504
4871.29980 0.031354
4871.56006 0.032013
4871.81982 0.031964
4872.08008 0.033422
4872.33008 0.034307
4872.58984 0.033792
4872.85010 0.035478
4873.10986 0.035281
4873.37012 0.03668
4873.62988 0.037748
4873.89014 0.03792
4874.14990 0.038864
4874.41016 0.039835
4874.66992 0.039294
4874.93018 0.040773
4875.18994 0.040854
4875.45020 0.041714
4875.70996 0.041853
4875.97021 0.04267
4876.22998 0.043972
4876.49023 0.045143
4876.75000 0.047081
4877.00977 0.048527
4877.27002 0.048284
4877.52002 0.049242
4877.77979 0.049262
4878.04004 0.051037
4878.29980 0.052313
4878.56006 0.055062
4878.81982 0.055247
4879.08008 0.055245
4879.33984 0.05693
4879.60010 0.058067
4879.85986 0.059364
4880.12012 0.060434
4880.37988 0.060132
4880.64014 0.064831
4880.89990 0.064138
4881.16016 0.066412
4881.41992 0.066054
4881.68018 0.068711
4881.93994 0.069547
4882.20020 0.073034
4882.45996 0.071463
4882.70996 0.073565
4882.97021 0.077647
4883.22998 0.07815
4883.49023 0.07945
4883.75000 0.079812
4884.00977 0.083429
4884.27002 0.087233
4884.52979 0.0857
4884.79004 0.089061
4885.04980 0.090481
4885.31006 0.093896
4885.56982 0.095483
4885.83008 0.096348
4886.08984 0.099283
4886.35010 0.101926
4886.60986 0.104351
4886.87012 0.104223
4887.12988 0.107453
4887.39014 0.111509
4887.64990 0.11285
4887.89990 0.113335
4888.16016 0.117196
4888.41992 0.121586
4888.68018 0.125913
4888.93994 0.127048
4889.20020 0.127756
4889.45996 0.132656
4889.72021 0.135619
4889.97998 0.138803
4890.24023 0.13916
4890.50000 0.14486
4890.75977 0.146568
4891.02002 0.152633
4891.27979 0.155315
4891.54004 0.157254
4891.79980 0.163425
4892.06006 0.167685
4892.31982 0.169458
4892.58008 0.171066
4892.83008 0.177293
4893.08984 0.182161
4893.35010 0.187752
4893.60986 0.186743
4893.87012 0.192112
4894.12988 0.197983
4894.39014 0.204294
4894.64990 0.207908
4894.91016 0.208225
4895.16992 0.217677
4895.43018 0.223937
4895.68994 0.226064
4895.95020 0.229854
4896.20996 0.235398
4896.47021 0.243225
4896.72998 0.249998
4896.99023 0.249245
4897.25000 0.256148
4897.50977 0.266402
4897.77002 0.27248
4898.02002 0.270632
4898.27979 0.28129
4898.54004 0.285754
4898.79980 0.293285
4899.06006 0.297969
4899.31982 0.300536
4899.58008 0.308925
4899.83984 0.320147
4900.10010 0.319279
4900.35986 0.323645
4900.62012 0.331811
4900.87988 0.341464
4901.14014 0.346063
4901.39990 0.352414
4901.66016 0.357257
4901.91992 0.364862
4902.18018 0.376869
4902.43994 0.378877
4902.70020 0.381871
4902.95996 0.39238
4903.20996 0.396686
4903.47021 0.405201
4903.72998 0.409424
4903.99023 0.41327
4904.25000 0.423395
4904.50977 0.428659
4904.77002 0.434224
4905.02979 0.439596
4905.29004 0.446725
4905.54980 0.459901
4905.81006 0.467037
4906.06982 0.47078
4906.33008 0.472556
4906.58984 0.480174
4906.85010 0.491237
4907.10986 0.490058
4907.37012 0.494643
4907.62988 0.50663
4907.89014 0.516053
4908.14990 0.518282
4908.39990 0.518611
4908.66016 0.529195
4908.91992 0.537997
4909.18018 0.538554
4909.43994 0.539618
4909.70020 0.548732
4909.95996 0.551861
4910.22021 0.560616
4910.47998 0.559896
4910.74023 0.562364
4911.00000 0.577221
4911.25977 0.577696
4911.52002 0.584769
4911.77979 0.584926
4912.04004 0.584785
4912.29980 0.59947
4912.56006 0.601295
4912.81982 0.599007
4913.08008 0.601087
4913.33984 0.608545
4913.60010 0.6156
4913.85010 0.616242
4914.10986 0.618553
4914.37012 0.620529
4914.62988 0.625972
4914.89014 0.633945
4915.14990 0.625386
4915.41016 0.635615
4915.66992 0.636715
4915.93018 0.643942
4916.18994 0.640382
4916.45020 0.637623
4916.70996 0.647119
4916.97021 0.653542
4917.22998 0.648604
4917.49023 0.650269
4917.75000 0.659424
4918.00977 0.664499
4918.27002 0.659968
4918.52979 0.660387
4918.79004 0.659645
4919.04004 0.670054
4919.29980 0.668845
4919.56006 0.664972
4919.81982 0.668622
4920.08008 0.673103
4920.33984 0.666442
4920.60010 0.670354
4920.85986 0.671806
4921.12012 0.67755
4921.37988 0.67711
4921.64014 0.681063
4921.89990 0.673608
4922.16016 0.675845
4922.41992 0.682377
4922.68018 0.684394
4922.93994 0.68344
4923.20020 0.683567
4923.45996 0.680958
4923.72021 0.68232
4923.97998 0.686297
4924.22998 0.686085
4924.49023 0.689956
4924.75000 0.686977
4925.00977 0.692973
4925.27002 0.688501
4925.52979 0.689259
4925.79004 0.687089
4926.04980 0.693718
4926.31006 0.69293
4926.56982 0.693484
4926.83008 0.68933
4927.08984 0.693671
4927.35010 0.701199
4927.60986 0.692113
4927.87012 0.691606
4928.12988 0.69461
4928.39014 0.700814
4928.64990 0.696613
4928.91016 0.69598
4929.16992 0.700512
4929.41992 0.706946
4929.68018 0.70732
4929.93994 0.698014
4930.20020 0.696121
4930.45996 0.705919
4930.72021 0.708971
4930.97998 0.704898
4931.24023 0.706022
4931.50000 0.70633
4931.75977 0.704491
4932.02002 0.709382
4932.27979 0.70841
4932.54004 0.709607
4932.79980 0.709755
4933.06006 0.716998
4933.31982 0.713375
4933.58008 0.712816
4933.83984 0.708192
4934.10010 0.716282
4934.35010 0.712796
4934.60986 0.714434
4934.87012 0.71352
4935.12988 0.715329
4935.39014 0.714236
4935.64990 0.713841
4935.91016 0.711622
4936.16992 0.713195
4936.43018 0.720826
4936.68994 0.721245
4936.95020 0.717045
4937.20996 0.7195
4937.47021 0.718114
4937.72998 0.723491
4937.99023 0.723423
4938.25000 0.724444
4938.50977 0.719357
4938.77002 0.728128
4939.02979 0.726567
4939.29004 0.719292
4939.54004 0.727209
4939.79980 0.729804
4940.06006 0.722629
4940.31982 0.730302
4940.58008 0.7333
4940.83984 0.729755
4941.10010 0.733168
4941.35986 0.730702
4941.62012 0.729901
4941.87988 0.726113
4942.14014 0.733193
4942.39990 0.73493
4942.66016 0.733681
4942.91992 0.734194
4943.18018 0.731307
4943.43994 0.735055
4943.70020 0.730594
4943.95996 0.732723
4944.22021 0.736168
4944.47998 0.740001
4944.72998 0.73323
4944.99023 0.743944
4945.25000 0.736277
4945.50977 0.746844
4945.77002 0.738111
4946.02979 0.74457
4946.29004 0.736724
4946.54980 0.739871
4946.81006 0.740921
4947.06982 0.740468
4947.33008 0.744426
4947.58984 0.743033
4947.85010 0.747265
4948.10986 0.741529
4948.37012 0.740386
4948.62988 0.737525
4948.89014 0.744211
4949.14990 0.749203
4949.41016 0.737494
4949.66992 0.742627
4949.91992 0.743024
4950.18018 0.741741
4950.43994 0.742494
4950.70020 0.738437
4950.95996 0.734359
4951.22021 0.738637
4951.47998 0.743941
4951.74023 0.745166
4952.00000 0.735277
4952.25977 0.739232
4952.52002 0.745079
4952.77979 0.741932
4953.04004 0.735376
4953.29980 0.731315
4953.56006 0.732047
4953.81982 0.736311
4954.08008 0.740871
4954.33984 0.738312
4954.60010 0.731082
4954.85986 0.750804
4955.12012 0.73687
4955.37012 0.734955
4955.62988 0.735561
4955.89014 0.729368
4956.14990 0.733444
4956.41016 0.735983
4956.66992 0.732213
4956.93018 0.73377
4957.18994 0.729894
4957.45020 0.739155
4957.70996 0.730503
4957.97021 0.728201
4958.22998 0.726008
4958.49023 0.725961
4958.75000 0.724986
4959.00977 0.724421
4959.27002 0.724586
4959.52979 0.72284
4959.79004 0.726511
4960.04980 0.729819
4960.31006 0.723176
4960.56006 0.713644
4960.81982 0.724713
4961.08008 0.72374
4961.33984 0.715898
4961.60010 0.720256
4961.85986 0.717613
4962.12012 0.710603
4962.37988 0.710365
4962.64014 0.70782
4962.89990 0.709413
4963.16016 0.711469
4963.41992 0.710588
4963.68018 0.70764
4963.93994 0.705024
4964.20020 0.711413
4964.45996 0.706873
4964.72021 0.70951
4964.97998 0.697874
4965.24023 0.703291
4965.50000 0.698055
4965.75000 0.707561
4966.00977 0.697103
4966.27002 0.698057
4966.52979 0.699239
4966.79004 0.702173
4967.04980 0.693919
4967.31006 0.695586
4967.56982 0.690929
4967.83008 0.694981
4968.08984 0.688621
4968.35010 0.686189
4968.60986 0.685175
4968.87012 0.691404
4969.12988 0.691348
4969.39014 0.684492
4969.64990 0.676942
4969.91016 0.682976
4970.16992 0.683095
4970.43018 0.685225
4970.68994 0.680908
4970.93994 0.673105
4971.20020 0.681554
4971.45996 0.671321
4971.72021 0.665529
4971.97998 0.666541
4972.24023 0.673895
4972.50000 0.673205
4972.75977 0.67484
4973.02002 0.662196
4973.27979 0.660507
4973.54004 0.663264
4973.79980 0.669588
4974.06006 0.661393
4974.31982 0.659978
4974.58008 0.662338
4974.83984 0.667792
4975.10010 0.659844
4975.35986 0.649389
4975.62012 0.653522
4975.87988 0.660421
4976.12988 0.660745
4976.39014 0.647224
4976.64990 0.63776
4976.91016 0.637868
4977.16992 0.638518
4977.43018 0.656945
4977.68994 0.640581
4977.95020 0.645525
4978.20996 0.649948
4978.47021 0.653251
4978.72998 0.638396
4978.99023 0.640497
4979.25000 0.647588
4979.50977 0.651538
4979.77002 0.642333
4980.02979 0.633557
4980.29004 0.636514
4980.54980 0.645297
4980.81006 0.64518
4981.06006 0.636686
4981.31982 0.631837
4981.58008 0.636568
4981.83984 0.641439
4982.10010 0.631376
4982.35986 0.621833
4982.62012 0.626468
4982.87988 0.636975
4983.14014 0.628611
4983.39990 0.622245
4983.66016 0.626899
4983.91992 0.629953
4984.18018 0.634124
4984.43994 0.622211
4984.70020 0.613576
4984.95996 0.624978
4985.22021 0.627913
4985.47998 0.621656
4985.74023 0.608084
4986.00000 0.61744
4986.25000 0.622877
4986.50977 0.61974
4986.77002 0.608882
4987.02979 0.605817
4987.29004 0.612009
4987.54980 0.618136
4987.81006 0.608386
4988.06982 0.596927
4988.33008 0.605199
4988.58984 0.613138
4988.85010 0.605425
4989.10986 0.594078
4989.37012 0.590011
4989.62988 0.601039
4989.89014 0.60566
4990.14990 0.591758
4990.41016 0.58344
4990.66992 0.594195
4990.93018 0.592486
4991.18994 0.585989
4991.43994 0.571507
4991.70020 0.577002
4991.95996 0.585043
4992.22021 0.583188
4992.47998 0.564356
4992.74023 0.560182
4993.00000 0.571019
4993.25977 0.564555
4993.52002 0.562495
4993.77979 0.557149
4994.04004 0.552727
4994.29980 0.556688
4994.56006 0.551215
4994.81982 0.542147
4995.08008 0.537967
4995.33984 0.542234
4995.60010 0.548911
4995.85986 0.537637
4996.12012 0.526
4996.37988 0.5226
4996.62988 0.526108
4996.89014 0.523939
4997.14990 0.508961
4997.41016 0.508209
4997.66992 0.513136
4997.93018 0.508002
4998.18994 0.500048
4998.45020 0.487542
4998.70996 0.485185
4998.97021 0.494012
4999.22998 0.486147
4999.49023 0.47194
4999.75000 0.465657
5000.00977 0.474113
5000.27002 0.469749
5000.52979 0.453494
5000.79004 0.446406
5001.04980 0.449581
5001.31006 0.452642
5001.56982 0.442108
5001.83008 0.425114
5002.08008 0.423556
5002.33984 0.428875
5002.60010 0.422888
5002.85986 0.407197
5003.12012 0.397572
5003.37988 0.39912
5003.64014 0.402623
5003.89990 0.39343
5004.16016 0.377587
5004.41992 0.374803
5004.68018 0.380704
5004.93994 0.376048
5005.20020 0.358408
5005.45996 0.351703
5005.72021 0.357216
5005.97998 0.354581
5006.24023 0.343636
5006.50000 0.327398
5006.75977 0.327841
5007.02002 0.33307
5007.27002 0.325597
5007.52979 0.314034
5007.79004 0.302039
5008.04980 0.307609
5008.31006 0.305948
5008.56982 0.297369
5008.83008 0.285445
5009.08984 0.280427
5009.35010 0.282097
5009.60986 0.280511
5009.87012 0.27062
5010.12988 0.261519
5010.39014 0.265478
5010.64990 0.263146
5010.91016 0.254153
5011.16992 0.236593
5011.43018 0.238665
5011.68994 0.24301
5011.95020 0.241758
5012.20996 0.225864
5012.45996 0.219248
5012.72021 0.217391
5012.97998 0.223522
5013.24023 0.21368
5013.50000 0.202193
5013.75977 0.199751
5014.02002 0.204036
5014.27979 0.198523
5014.54004 0.18843
5014.79980 0.18399
5015.06006 0.185971
5015.31982 0.184885
5015.58008 0.178683
5015.83984 0.169125
5016.10010 0.168778
5016.35986 0.168351
5016.62012 0.163461
5016.87988 0.159292
5017.14014 0.151792
5017.39990 0.154827
5017.64990 0.153618
5017.91016 0.14762
5018.16992 0.14086
5018.43018 0.139197
5018.68994 0.14003
5018.95020 0.137907
5019.20996 0.133474
5019.47021 0.127357
5019.72998 0.128304
5019.99023 0.126645
5020.25000 0.12259
5020.50977 0.116357
5020.77002 0.116084
5021.02979 0.117117
5021.29004 0.115186
5021.54980 0.108529
5021.81006 0.103207
5022.06982 0.103683
5022.33008 0.106123
5022.58008 0.102294
5022.83984 0.097593
5023.10010 0.095192
5023.35986 0.096063
5023.62012 0.097064
5023.87988 0.09213
5024.14014 0.087609
5024.39990 0.08935
5024.66016 0.090092
5024.91992 0.087005
5025.18018 0.081823
5025.43994 0.080125
5025.70020 0.079932
5025.95996 0.07877
5026.22021 0.077682
5026.47998 0.073054
5026.74023 0.073967
5027.00000 0.072572
5027.25977 0.070619
5027.52002 0.069011
5027.77002 0.065253
5028.02979 0.066845
5028.29004 0.06882
5028.54980 0.063531
5028.81006 0.061952
5029.06982 0.061595
5029.33008 0.063103
5029.58984 0.062154
5029.85010 0.057527
5030.10986 0.056105
5030.37012 0.056724
5030.62988 0.055069
5030.89014 0.054791
5031.14990 0.052071
5031.41016 0.051071
5031.66992 0.052246
5031.93018 0.052102
5032.18994 0.049355
5032.45020 0.046398
5032.70996 0.048259
5032.95996 0.04846
5033.22021 0.045719
5033.47998 0.044701
5033.74023 0.04338
5034.00000 0.043989
5034.25977 0.043856
5034.52002 0.041725
5034.77979 0.038553
5035.04004 0.039412
5035.29980 0.04081
5035.56006 0.04067
5035.81982 0.036769
5036.08008 0.035499
5036.33984 0.03732
5036.60010 0.036393
5036.85986 0.036914
5037.12012 0.033567
5037.37988 0.033377
5037.64014 0.0345
5037.89990 0.033384
5038.14990 0.032359
5038.41016 0.031549
5038.66992 0.030917
5038.93018 0.031133
5039.18994 0.030205
5039.45020 0.029684
5039.70996 0.028434
5039.97021 0.029165
5040.22998 0.029029
5040.49023 0.02786
5040.75000 0.026371
5041.00977 0.026767
5041.27002 0.026924
5041.52979 0.026918
5041.79004 0.024565
5042.04980 0.024423
5042.31006 0.024583
5042.56982 0.024886
5042.83008 0.024588
5043.08984 0.022881
5043.35010 0.023347
5043.60010 0.023212
5043.85986 0.022357
5044.12012 0.022128
5044.37988 0.021241
5044.64014 0.022292
5044.89990 0.021378
5045.16016 0.021546
5045.41992 0.020261
5045.68018 0.020602
5045.93994 0.019933
5046.20020 0.01996
5046.45996 0.018614
5046.72021 0.017734
5046.97998 0.018456
5047.24023 0.018393
5047.50000 0.018508
5047.75977 0.017406
5048.02002 0.016694
5048.27979 0.016855
5048.54004 0.0167
5048.79004 0.017355
5049.04980 0.015539
5049.31006 0.014737
5049.56982 0.016367
5049.83008 0.016235
5050.08984 0.015712
5050.35010 0.015616
5050.60986 0.014626
5050.87012 0.014812
5051.12988 0.014225
5051.39014 0.013699
5051.64990 0.013477
5051.91016 0.013504
5052.16992 0.014133
5052.43018 0.012967
5052.68994 0.012247
5052.95020 0.01273
5053.20996 0.01323
5053.47021 0.012443
5053.72998 0.012367
5053.97998 0.012224
5054.24023 0.012705
5054.50000 0.012105
5054.75977 0.012146
5055.02002 0.010249
5055.27979 0.011728
5055.54004 0.012263
5055.79980 0.01149
5056.06006 0.011006
5056.31982 0.010012
5056.58008 0.010752
5056.83984 0.009796
5057.10010 0.011135
5057.35986 0.009698
5057.62012 0.009507
5057.87988 0.010358
5058.14014 0.010641
5058.39990 0.009611
5058.66016 0.008763
5058.91992 0.009624
5059.16992 0.010259
5059.43018 0.008829
5059.68994 0.009017
5059.95020 0.008945
5060.20996 0.008851
5060.47021 0.009717
5060.72998 0.00876
5060.99023 0.008121
5061.25000 0.008597
5061.50977 0.008403
5061.77002 0.008818
5062.02979 0.007929
5062.29004 0.007878
5062.54980 0.007491
5062.81006 0.007758
5063.06982 0.007853
5063.33008 0.00762
5063.58984 0.007475
5063.85010 0.007478
5064.10010 0.00737
5064.35986 0.007083
5064.62012 0.007342
5064.87988 0.007197
5065.14014 0.00693
5065.39990 0.007403
5065.66016 0.006744
5065.91992 0.00674
5066.18018 0.006703
5066.43994 0.007167
5066.70020 0.00716
5066.95996 0.006025
5067.22021 0.006055
5067.47998 0.006688
5067.74023 0.006509
5068.00000 0.006293
5068.25977 0.005926
5068.52002 0.005871
5068.77979 0.006029
5069.04004 0.00648
5069.29004 0.005836
5069.54980 0.006221
5069.81006 0.005845
5070.06982 0.005626
5070.33008 0.006595
5070.58984 0.00506
5070.85010 0.00565
5071.10986 0.005591
5071.37012 0.005832
5071.62988 0.005609
5071.89014 0.005316
5072.14990 0.005002
5072.41016 0.005634
5072.66992 0.005667
5072.93018 0.005614
5073.18994 0.005171
5073.45020 0.005239
5073.70996 0.005455
5073.97021 0.005382
5074.22998 0.004988
5074.47998 0.004733
5074.74023 0.004826
5075.00000 0.005078
5075.25977 0.0048
5075.52002 0.005075
5075.77979 0.004557
5076.04004 0.004752
5076.29980 0.005132
5076.56006 0.004859
5076.81982 0.004098
5077.08008 0.004207
5077.33984 0.004334
5585.07373 0.0
