# %ECSV 0.9
# ---
# datatype:
# - {name: wavelength, unit: Angstrom, datatype: float32}
# - {name: response, datatype: float32}
# meta: !!omap
# - {band_name: f_480_10}
# - {group_name: CAHA}
wavelength response
4216.28369 0.0
4684.75977 0.00416
4685.02002 0.002997
4685.27979 0.003154
4685.54004 0.003754
4685.79980 0.004024
4686.06006 0.003515
4686.31982 0.004382
4686.58008 0.003527
4686.83984 0.004245
4687.10010 0.00326
4687.35986 0.003721
4687.62012 0.00286
4687.87988 0.004534
4688.14014 0.003947
4688.39990 0.003986
4688.64990 0.003681
4688.91016 0.004817
4689.16992 0.003396
4689.43018 0.003843
4689.68994 0.003907
4689.95020 0.004549
4690.20996 0.003853
4690.47021 0.004164
4690.72998 0.003876
4690.99023 0.003742
4691.25000 0.004337
4691.50977 0.004257
4691.77002 0.003809
4692.02979 0.004232
4692.29004 0.00376
4692.54980 0.003973
4692.81006 0.004906
4693.06982 0.004363
4693.33008 0.004698
4693.58984 0.0048
4693.85010 0.004577
4694.10986 0.004657
4694.37012 0.004869
4694.62988 0.004894
4694.89014 0.00441
4695.14990 0.005128
4695.39990 0.00541
4695.66016 0.004639
4695.91992 0.005473
4696.18018 0.005525
4696.43994 0.00539
4696.70020 0.005534
4696.95996 0.004761
4697.22021 0.005237
4697.47998 0.004996
4697.74023 0.00503
4698.00000 0.005176
4698.25977 0.004822
4698.52002 0.00594
4698.77979 0.005159
4699.04004 0.005843
4699.29980 0.005629
4699.56006 0.006263
4699.81982 0.006262
4700.08008 0.006054
4700.33984 0.006125
4700.60010 0.005243
4700.85986 0.00585
4701.12012 0.005527
4701.37988 0.0064
4701.62988 0.006126
4701.89014 0.005868
4702.14990 0.006826
4702.41016 0.006202
4702.66992 0.006903
4702.93018 0.005958
4703.18994 0.006453
4703.45020 0.007083
4703.70996 0.006093
4703.97021 0.006867
4704.22998 0.007119
4704.49023 0.007148
4704.75000 0.006922
4705.00977 0.006804
4705.27002 0.007127
4705.52979 0.007479
4705.79004 0.007316
4706.04980 0.007398
4706.31006 0.007252
4706.56982 0.008148
4706.83008 0.007892
4707.08984 0.008281
4707.35010 0.008209
4707.60986 0.007656
4707.87012 0.00883
4708.12012 0.008127
4708.37988 0.008736
4708.64014 0.008573
4708.89990 0.009368
4709.16016 0.009017
4709.41992 0.008953
4709.68018 0.008927
4709.93994 0.008814
4710.20020 0.009442
4710.45996 0.009578
4710.72021 0.009531
4710.97998 0.008964
4711.24023 0.009813
4711.50000 0.010037
4711.75977 0.009745
4712.02002 0.010169
4712.27979 0.009442
4712.54004 0.010773
4712.79980 0.010428
4713.06006 0.011396
4713.31982 0.010604
4713.58008 0.010843
4713.83984 0.011476
4714.10010 0.01093
4714.35986 0.011814
4714.62012 0.011065
4714.87012 0.011857
4715.12988 0.01211
4715.39014 0.010949
4715.64990 0.013387
4715.91016 0.012662
4716.16992 0.012309
4716.43018 0.012214
4716.68994 0.013825
4716.95020 0.013789
4717.20996 0.013998
4717.47021 0.013201
4717.72998 0.013253
4717.99023 0.013881
4718.25000 0.014649
4718.50977 0.013938
4718.77002 0.014656
4719.02979 0.015028
4719.29004 0.015638
4719.54980 0.015356
4719.81006 0.014906
4720.06982 0.015572
4720.33008 0.017107
4720.58984 0.015986
4720.85010 0.017091
4721.10010 0.016964
4721.35986 0.017484
4721.62012 0.01822
4721.87988 0.017728
4722.14014 0.017528
4722.39990 0.017581
4722.66016 0.01915
4722.91992 0.019255
4723.18018 0.018953
4723.43994 0.020029
4723.70020 0.020466
4723.95996 0.020394
4724.22021 0.020608
4724.47998 0.020495
4724.74023 0.02203
4725.00000 0.022212
4725.25977 0.022789
4725.52002 0.023213
4725.77979 0.023746
4726.04004 0.022332
4726.29980 0.023966
4726.56006 0.023546
4726.81982 0.024303
4727.08008 0.024266
4727.33984 0.02503
4727.60010 0.026215
4727.85010 0.026771
4728.10986 0.026845
4728.37012 0.027982
4728.62988 0.028454
4728.89014 0.02913
4729.14990 0.029134
4729.41016 0.029698
4729.66992 0.030125
4729.93018 0.03053
4730.18994 0.031381
4730.45020 0.03235
4730.70996 0.03269
4730.97021 0.034397
4731.22998 0.032833
4731.49023 0.033898
4731.75000 0.035062
4732.00977 0.035404
4732.27002 0.035024
4732.52979 0.036992
4732.79004 0.039483
4733.04980 0.039608
4733.31006 0.039414
4733.56982 0.04143
4733.83008 0.040933
4734.08008 0.04202
4734.33984 0.043871
4734.60010 0.044125
4734.85986 0.043707
4735.12012 0.046243
4735.37988 0.048395
4735.64014 0.047328
4735.89990 0.049472
4736.16016 0.050202
4736.41992 0.049777
4736.68018 0.051873
4736.93994 0.052442
4737.20020 0.054709
4737.45996 0.057669
4737.72021 0.055992
4737.97998 0.05674
4738.24023 0.058216
4738.50000 0.059995
4738.75977 0.062501
4739.02002 0.063298
4739.27979 0.066588
4739.54004 0.066388
4739.79980 0.068928
4740.06006 0.068088
4740.31982 0.069575
4740.58008 0.071633
4740.83008 0.073859
4741.08984 0.076491
4741.35010 0.078064
4741.60986 0.079064
4741.87012 0.079701
4742.12988 0.080985
4742.39014 0.085784
4742.64990 0.087034
4742.91016 0.076035
4743.16992 0.090525
4743.43018 0.094222
4743.68994 0.095855
4743.95020 0.096299
4744.20996 0.099118
4744.47021 0.100517
4744.72998 0.102714
4744.99023 0.105142
4745.25000 0.110264
4745.50977 0.112205
4745.77002 0.114617
4746.02979 0.115155
4746.29004 0.122066
4746.54980 0.122383
4746.81006 0.124517
4747.06006 0.128148
4747.31982 0.130531
4747.58008 0.135092
4747.83984 0.136318
4748.10010 0.140652
4748.35986 0.141095
4748.62012 0.146898
4748.87988 0.151702
4749.14014 0.155338
4749.39990 0.158019
4749.66016 0.159145
4749.91992 0.165879
4750.18018 0.168552
4750.43994 0.175231
4750.70020 0.178371
4750.95996 0.182637
4751.22021 0.183186
4751.47998 0.190495
4751.74023 0.193228
4752.00000 0.197297
4752.25977 0.200931
4752.52002 0.206466
4752.77979 0.209028
4753.04004 0.215177
4753.29980 0.218877
4753.56006 0.223869
4753.81006 0.230106
4754.06982 0.232721
4754.33008 0.240126
4754.58984 0.243731
4754.85010 0.246549
4755.10986 0.257689
4755.37012 0.259114
4755.62988 0.263283
4755.89014 0.267707
4756.14990 0.272863
4756.41016 0.278635
4756.66992 0.283962
4756.93018 0.292362
4757.18994 0.294541
4757.45020 0.302469
4757.70996 0.308879
4757.97021 0.312116
4758.22998 0.32117
4758.49023 0.323431
4758.75000 0.330007
4759.00977 0.335323
4759.27002 0.340045
4759.52979 0.345262
4759.79004 0.353798
4760.04004 0.354021
4760.29980 0.366689
4760.56006 0.366673
4760.81982 0.370668
4761.08008 0.381021
4761.33984 0.382864
4761.60010 0.39081
4761.85986 0.392932
4762.12012 0.3942
4762.37988 0.404623
4762.64014 0.405711
4762.89990 0.413701
4763.16016 0.422716
4763.41992 0.423877
4763.68018 0.428731
4763.93994 0.433514
4764.20020 0.43574
4764.45996 0.441767
4764.72021 0.445917
4764.97998 0.449726
4765.24023 0.458023
4765.50000 0.459253
4765.75977 0.461953
4766.02002 0.462574
4766.27979 0.472201
4766.54004 0.474496
4766.79004 0.477816
4767.04980 0.482497
4767.31006 0.484829
4767.56982 0.487407
4767.83008 0.488838
4768.08984 0.49726
4768.35010 0.500435
4768.60986 0.505715
4768.87012 0.506713
4769.12988 0.506862
4769.39014 0.508607
4769.64990 0.508952
4769.91016 0.51705
4770.16992 0.512861
4770.43018 0.525806
4770.68994 0.516388
4770.95020 0.527521
4771.20996 0.526111
4771.47021 0.532576
4771.72998 0.52878
4771.99023 0.53002
4772.25000 0.529546
4772.50977 0.535611
4772.77002 0.535401
4773.02002 0.545875
4773.27979 0.542527
4773.54004 0.542059
4773.79980 0.54733
4774.06006 0.548364
4774.31982 0.545236
4774.58008 0.551037
4774.83984 0.553326
4775.10010 0.545125
4775.35986 0.554279
4775.62012 0.545478
4775.87988 0.552599
4776.14014 0.551226
4776.39990 0.553572
4776.66016 0.551857
4776.91992 0.553106
4777.18018 0.55233
4777.43994 0.549788
4777.70020 0.553869
4777.95996 0.562524
4778.22021 0.565398
4778.47998 0.556485
4778.74023 0.561504
4779.00000 0.561497
4779.25977 0.561195
4779.52002 0.558617
4779.77002 0.560524
4780.02979 0.564155
4780.29004 0.559181
4780.54980 0.560115
4780.81006 0.557476
4781.06982 0.563892
4781.33008 0.562201
4781.58984 0.557713
4781.85010 0.559815
4782.10986 0.570429
4782.37012 0.557636
4782.62988 0.571354
4782.89014 0.566263
4783.14990 0.561291
4783.41016 0.562236
4783.66992 0.568087
4783.93018 0.566717
4784.18994 0.565404
4784.45020 0.56511
4784.70996 0.567203
4784.97021 0.570138
4785.22998 0.567059
4785.49023 0.56813
4785.75000 0.56155
4786.00000 0.568218
4786.25977 0.568299
4786.52002 0.561979
4786.77979 0.568909
4787.04004 0.568477
4787.29980 0.565695
4787.56006 0.566232
4787.81982 0.573097
4788.08008 0.566999
4788.33984 0.565534
4788.60010 0.566407
4788.85986 0.57121
4789.12012 0.570165
4789.37988 0.569064
4789.64014 0.565997
4789.89990 0.567518
4790.16016 0.565165
4790.41992 0.571075
4790.68018 0.572944
4790.93994 0.563553
4791.20020 0.568611
4791.45996 0.567454
4791.72021 0.568879
4791.97998 0.566133
4792.24023 0.567217
4792.50000 0.569218
4792.75000 0.57037
4793.00977 0.567842
4793.27002 0.57293
4793.52979 0.568854
4793.79004 0.570857
4794.04980 0.573375
4794.31006 0.575006
4794.56982 0.57244
4794.83008 0.57343
4795.08984 0.568632
4795.35010 0.567479
4795.60986 0.571219
4795.87012 0.571148
4796.12988 0.573401
4796.39014 0.567895
4796.64990 0.572283
4796.91016 0.567
4797.16992 0.56344
4797.43018 0.571179
4797.68994 0.568511
4797.95020 0.572354
4798.20996 0.570806
4798.47021 0.567092
4798.72998 0.568701
4798.97998 0.576716
4799.24023 0.567381
4799.50000 0.57277
4799.75977 0.56356
4800.02002 0.572137
4800.27979 0.569124
4800.54004 0.571527
4800.79980 0.565435
4801.06006 0.567714
4801.31982 0.570363
4801.58008 0.566422
4801.83984 0.567682
4802.10010 0.564353
4802.35986 0.567867
4802.62012 0.565157
4802.87988 0.571537
4803.14014 0.570488
4803.39990 0.566911
4803.66016 0.572383
4803.91992 0.56855
4804.18018 0.566192
4804.43994 0.566424
4804.70020 0.563792
4804.95996 0.564263
4805.22021 0.563833
4805.47998 0.563388
4805.72998 0.565593
4805.99023 0.568178
4806.25000 0.566104
4806.50977 0.566988
4806.77002 0.56601
4807.02979 0.562248
4807.29004 0.564795
4807.54980 0.561434
4807.81006 0.562032
4808.06982 0.569651
4808.33008 0.561161
4808.58984 0.569479
4808.85010 0.560245
4809.10986 0.559288
4809.37012 0.564645
4809.62988 0.560287
4809.89014 0.561922
4810.14990 0.55857
4810.41016 0.562984
4810.66992 0.561099
4810.93018 0.565331
4811.18994 0.559441
4811.45020 0.556984
4811.70996 0.559873
4811.95996 0.560173
4812.22021 0.556036
4812.47998 0.557707
4812.74023 0.555143
4813.00000 0.554775
4813.25977 0.557997
4813.52002 0.556283
4813.77979 0.553456
4814.04004 0.55335
4814.29980 0.554055
4814.56006 0.557525
4814.81982 0.552431
4815.08008 0.552866
4815.33984 0.552929
4815.60010 0.549014
4815.85986 0.558766
4816.12012 0.550817
4816.37988 0.551766
4816.64014 0.55394
4816.89990 0.551656
4817.16016 0.554107
4817.41992 0.547433
4817.68018 0.553076
4817.93994 0.553384
4818.20020 0.553715
4818.45996 0.54814
4818.70996 0.552707
4818.97021 0.552366
4819.22998 0.551351
4819.49023 0.547584
4819.75000 0.546134
4820.00977 0.557562
4820.27002 0.545928
4820.52979 0.545696
4820.79004 0.550046
4821.04980 0.547144
4821.31006 0.556588
4821.56982 0.554635
4821.83008 0.549553
4822.08984 0.55074
4822.35010 0.551403
4822.60986 0.547284
4822.87012 0.547301
4823.12988 0.550567
4823.39014 0.546783
4823.64990 0.544953
4823.91016 0.547629
4824.16992 0.550635
4824.43018 0.550139
4824.68994 0.550834
4824.93994 0.54797
4825.20020 0.548838
4825.45996 0.545011
4825.72021 0.549692
4825.97998 0.547578
4826.24023 0.549962
4826.50000 0.54844
4826.75977 0.54726
4827.02002 0.546027
4827.27979 0.54835
4827.54004 0.550635
4827.79980 0.548387
4828.06006 0.546636
4828.31982 0.547725
4828.58008 0.548611
4828.83984 0.550699
4829.10010 0.546538
4829.35986 0.546548
4829.62012 0.550524
4829.87988 0.541138
4830.14014 0.549828
4830.39990 0.542686
4830.66016 0.550501
4830.91992 0.54974
4831.18018 0.549968
4831.43994 0.5476
4831.68994 0.548563
4831.95020 0.54654
4832.20996 0.543471
4832.47021 0.546267
4832.72998 0.548093
4832.99023 0.545435
4833.25000 0.544624
4833.50977 0.544253
4833.77002 0.549942
4834.02979 0.54591
4834.29004 0.543487
4834.54980 0.540867
4834.81006 0.539375
4835.06982 0.540547
4835.33008 0.538949
4835.58984 0.540155
4835.85010 0.536566
4836.10986 0.534753
4836.37012 0.53366
4836.62988 0.536836
4836.89014 0.537214
4837.14990 0.53419
4837.41016 0.525649
4837.66992 0.532339
4837.91992 0.5292
4838.18018 0.52668
4838.43994 0.524514
4838.70020 0.520955
4838.95996 0.521643
4839.22021 0.522921
4839.47998 0.519115
4839.74023 0.512513
4840.00000 0.51018
4840.25977 0.509819
4840.52002 0.506853
4840.77979 0.502905
4841.04004 0.50703
4841.29980 0.497559
4841.56006 0.501083
4841.81982 0.494718
4842.08008 0.498157
4842.33984 0.487023
4842.60010 0.484089
4842.85986 0.486876
4843.12012 0.478203
4843.37988 0.473148
4843.64014 0.47013
4843.89990 0.467691
4844.16016 0.46447
4844.41992 0.457692
4844.66992 0.454404
4844.93018 0.450553
4845.18994 0.445901
4845.45020 0.443225
4845.70996 0.437222
4845.97021 0.432766
4846.22998 0.428234
4846.49023 0.426668
4846.75000 0.421329
4847.00977 0.413788
4847.27002 0.40362
4847.52979 0.404105
4847.79004 0.397924
4848.04980 0.393036
4848.31006 0.386458
4848.56982 0.383196
4848.83008 0.375672
4849.08984 0.374625
4849.35010 0.36469
4849.60986 0.365317
4849.87012 0.355551
4850.12988 0.355099
4850.39014 0.342571
4850.64990 0.347688
4850.89990 0.339307
4851.16016 0.330108
4851.41992 0.325562
4851.68018 0.32018
4851.93994 0.312214
4852.20020 0.309056
4852.45996 0.300985
4852.72021 0.301036
4852.97998 0.294272
4853.24023 0.287051
4853.50000 0.282727
4853.75977 0.276347
4854.02002 0.273514
4854.27979 0.26513
4854.54004 0.261109
4854.79980 0.259607
4855.06006 0.252401
4855.31982 0.246468
4855.58008 0.241615
4855.83984 0.234258
4856.10010 0.231161
4856.35986 0.2281
4856.62012 0.222041
4856.87988 0.21715
4857.14014 0.214286
4857.39990 0.207779
4857.64990 0.205201
4857.91016 0.200422
4858.16992 0.194922
4858.43018 0.192578
4858.68994 0.190554
4858.95020 0.18369
4859.20996 0.180025
4859.47021 0.174725
4859.72998 0.172796
4859.99023 0.170195
4860.25000 0.163927
4860.50977 0.15999
4860.77002 0.157298
4861.02979 0.153179
4861.29004 0.15083
4861.54980 0.14644
4861.81006 0.144316
4862.06982 0.142972
4862.33008 0.139068
4862.58984 0.133343
4862.85010 0.133786
4863.10986 0.129613
4863.37012 0.124779
4863.62988 0.124549
4863.87988 0.12081
4864.14014 0.11808
4864.39990 0.115491
4864.66016 0.113926
4864.91992 0.110168
4865.18018 0.108018
4865.43994 0.108109
4865.70020 0.103149
4865.95996 0.102576
4866.22021 0.099752
4866.47998 0.096318
4866.74023 0.093931
4867.00000 0.093593
4867.25977 0.091589
4867.52002 0.087746
4867.77979 0.086268
4868.04004 0.086449
4868.29980 0.082816
4868.56006 0.080267
4868.81982 0.080422
4869.08008 0.076662
4869.33984 0.076212
4869.60010 0.072905
4869.85986 0.072559
4870.12012 0.071993
4870.37988 0.07004
4870.62988 0.068253
4870.89014 0.068568
4871.14990 0.065366
4871.41016 0.064522
4871.66992 0.062386
4871.93018 0.060212
4872.18994 0.061247
4872.45020 0.058825
4872.70996 0.057119
4872.97021 0.055318
4873.22998 0.054684
4873.49023 0.054263
4873.75000 0.053612
4874.00977 0.052355
4874.27002 0.050387
4874.52979 0.049632
4874.79004 0.049393
4875.04980 0.048804
4875.31006 0.046739
4875.56982 0.045309
4875.83008 0.046048
4876.08984 0.044907
4876.35010 0.042392
4876.60986 0.042663
4876.87012 0.039942
4877.12012 0.040399
4877.37988 0.040585
4877.64014 0.038638
4877.89990 0.038512
4878.16016 0.03866
4878.41992 0.037937
4878.68018 0.036309
4878.93994 0.036358
4879.20020 0.035422
4879.45996 0.034254
4879.72021 0.033383
4879.97998 0.032835
4880.24023 0.032024
4880.50000 0.032666
4880.75977 0.031744
4881.02002 0.031333
4881.27979 0.030012
4881.54004 0.02958
4881.79980 0.029109
4882.06006 0.028295
4882.31982 0.027205
4882.58008 0.027733
4882.83984 0.027261
4883.10010 0.026252
4883.35010 0.025728
4883.60986 0.026312
4883.87012 0.025113
4884.12988 0.02446
4884.39014 0.024226
4884.64990 0.02388
4884.91016 0.022521
4885.16992 0.023083
4885.43018 0.022027
4885.68994 0.022539
4885.95020 0.022475
4886.20996 0.021865
4886.47021 0.020798
4886.72998 0.020334
4886.99023 0.020222
4887.25000 0.020023
4887.50977 0.019799
4887.77002 0.01921
4888.02979 0.019523
4888.29004 0.019301
4888.54980 0.018316
4888.81006 0.018479
4889.06982 0.018442
4889.33008 0.017448
4889.58984 0.017374
4889.85010 0.017424
4890.10010 0.016138
4890.35986 0.016807
4890.62012 0.015981
4890.87988 0.016101
4891.14014 0.01586
4891.39990 0.01493
4891.66016 0.015523
4891.91992 0.015592
4892.18018 0.014595
4892.43994 0.014364
4892.70020 0.013354
4892.95996 0.015358
4893.22021 0.014211
4893.47998 0.013098
4893.74023 0.013752
4894.00000 0.013816
4894.25977 0.013454
4894.52002 0.013487
4894.77979 0.012967
4895.04004 0.012847
4895.29980 0.011735
4895.56006 0.011864
4895.81982 0.012102
4896.08008 0.012479
4896.33008 0.012
4896.58984 0.011989
4896.85010 0.011539
4897.10986 0.011056
4897.37012 0.010716
4897.62988 0.011008
4897.89014 0.010602
4898.14990 0.010741
4898.41016 0.01024
4898.66992 0.01006
4898.93018 0.009884
4899.18994 0.009608
4899.45020 0.009757
4899.70996 0.008789
4899.97021 0.009603
4900.22998 0.009667
4900.49023 0.009379
4900.75000 0.008846
4901.00977 0.008897
4901.27002 0.008849
4901.52979 0.008658
4901.79004 0.008336
4902.04980 0.00933
4902.31006 0.009169
4902.56982 0.008419
4902.83008 0.007951
4903.08008 0.008232
4903.33984 0.007823
4903.60010 0.007567
4903.85986 0.008185
4904.12012 0.007095
4904.37988 0.007472
4904.64014 0.007594
4904.89990 0.008047
4905.16016 0.007606
4905.41992 0.007535
4905.68018 0.007323
4905.93994 0.0073
4906.20020 0.007201
4906.45996 0.006896
4906.72021 0.006591
4906.97998 0.006645
4907.24023 0.006551
4907.50000 0.006842
4907.75977 0.007077
4908.02002 0.006806
4908.27979 0.006522
4908.54004 0.006423
4908.79980 0.006039
4909.06006 0.005874
4909.31006 0.0063
4909.56982 0.006387
4909.83008 0.005602
4910.08984 0.005901
4910.35010 0.005491
4910.60986 0.006472
4910.87012 0.00542
4911.12988 0.005533
4911.39014 0.005829
4911.64990 0.005131
4911.91016 0.005794
4912.16992 0.005349
4912.43018 0.005208
4912.68994 0.005114
4912.95020 0.005078
4913.20996 0.004534
4913.47021 0.005279
4913.72998 0.005437
4913.99023 0.005009
4914.25000 0.004979
4914.50977 0.004742
4914.77002 0.005023
4915.02979 0.004422
4915.29004 0.004501
4915.54980 0.004698
4915.81006 0.004933
4916.06006 0.00469
4916.31982 0.004262
4916.58008 0.004563
4916.83984 0.004654
4917.10010 0.004753
4917.35986 0.00448
4917.62012 0.004383
4917.87988 0.004047
4918.14014 0.004067
4918.39990 0.004545
4918.66016 0.004323
5410.52637 0.0
