# %ECSV 0.9
# ---
# datatype:
# - {name: wavelength, unit: Angstrom, datatype: float32}
# - {name: response, datatype: float32}
# meta: !!omap
# - {band_name: f_538_98}
# - {group_name: CAHA}
wavelength response
4050.58228 0.0
4500.64697 0.00411
4503.89893 0.004348
4507.15088 0.004594
4510.40381 0.004849
4513.65576 0.005112
4516.90918 0.005384
4520.16211 0.005664
4523.41406 0.005953
4526.66699 0.00625
4529.91895 0.006556
4533.17188 0.00687
4536.42480 0.007192
4539.67822 0.007523
4542.93115 0.007863
4546.18408 0.008211
4549.43701 0.008567
4552.68896 0.008932
4555.94189 0.009307
4559.19482 0.009691
4562.44922 0.010087
4565.70215 0.010498
4568.95508 0.010928
4572.20801 0.011385
4575.46094 0.011881
4578.71484 0.012432
4581.96777 0.013055
4585.22217 0.013775
4588.47510 0.014611
4591.72900 0.015581
4594.98193 0.01669
4598.23584 0.017928
4601.48877 0.019267
4604.74316 0.020659
4607.99707 0.022043
4611.25000 0.023348
4614.50391 0.02451
4617.75781 0.025478
4621.01221 0.026224
4624.26611 0.026748
4627.52002 0.02708
4630.77393 0.027268
4634.02783 0.027375
4637.28223 0.027466
4640.53711 0.0276
4643.79102 0.027819
4647.04492 0.028147
4650.29883 0.028589
4653.55420 0.029135
4656.80811 0.029759
4660.06299 0.03044
4663.31689 0.031156
4666.57080 0.031894
4669.82617 0.032656
4673.08105 0.033449
4676.33496 0.034283
4679.58984 0.035169
4682.84521 0.03611
4686.10010 0.0371
4689.35400 0.038131
4692.60889 0.039195
4695.86377 0.040296
4699.11914 0.041443
4702.37500 0.04266
4705.62891 0.043973
4708.88379 0.045406
4712.14014 0.046976
4715.39502 0.048691
4718.64990 0.050553
4721.90479 0.052557
4725.16113 0.054702
4728.41602 0.056992
4731.67188 0.059435
4734.92676 0.062042
4738.18311 0.064826
4741.43799 0.067796
4744.69385 0.070967
4747.95020 0.074355
4751.20508 0.077983
4754.46094 0.081874
4757.71680 0.08606
4760.97314 0.090562
4764.22900 0.095399
4767.48389 0.100575
4770.74121 0.106083
4773.99707 0.111912
4777.25195 0.118043
4780.50879 0.12446
4783.76514 0.131158
4787.02100 0.138131
4790.27686 0.145387
4793.53418 0.152931
4796.79004 0.16078
4800.04688 0.168955
4803.30322 0.177485
4806.56006 0.186405
4809.81592 0.195761
4813.07324 0.205593
4816.33008 0.215944
4819.58594 0.22684
4822.84277 0.238287
4826.10010 0.25026
4829.35596 0.262706
4832.61279 0.275549
4835.87109 0.288694
4839.12695 0.302051
4842.38379 0.315544
4845.64209 0.329129
4848.89893 0.342795
4852.15576 0.356563
4855.41309 0.370467
4858.66992 0.384545
4861.92822 0.398823
4865.18506 0.413302
4868.44287 0.427965
4871.70020 0.442771
4874.95801 0.457657
4878.21484 0.472554
4881.47314 0.48739
4884.72998 0.502091
4887.98779 0.516593
4891.24609 0.530844
4894.50391 0.544812
4897.76221 0.558483
4901.02002 0.571859
4904.27783 0.584964
4907.53613 0.597827
4910.79297 0.61048
4914.05176 0.622947
4917.31006 0.635238
4920.56787 0.647336
4923.82715 0.659206
4927.08496 0.670794
4930.34277 0.682037
4933.60205 0.692883
4936.85986 0.7033
4940.11914 0.713285
4943.37695 0.72286
4946.63623 0.732076
4949.89502 0.740995
4953.15283 0.749669
4956.41211 0.75815
4959.66992 0.766456
4962.93018 0.774582
4966.18799 0.782499
4969.44678 0.790158
4972.70703 0.797501
4975.96484 0.804469
4979.22510 0.811022
4982.48389 0.817138
4985.74316 0.822824
4989.00195 0.828128
4992.26221 0.833116
4995.52100 0.837882
4998.77979 0.842523
5002.04004 0.847138
5005.29883 0.851799
5008.55908 0.856548
5011.81787 0.861388
5015.07812 0.866287
5018.33789 0.871176
5021.59814 0.875977
5024.85693 0.880597
5028.11719 0.884951
5031.37695 0.888968
5034.63721 0.892604
5037.89697 0.895842
5041.15723 0.898695
5044.41699 0.90121
5047.67822 0.90345
5050.93799 0.905497
5054.19824 0.907435
5057.45801 0.909329
5060.71924 0.911235
5063.97900 0.913177
5067.24023 0.915161
5070.50000 0.917173
5073.76123 0.919184
5077.02100 0.921163
5080.28223 0.923082
5083.54297 0.924914
5086.80420 0.926646
5090.06494 0.928271
5093.32617 0.929794
5096.58691 0.931223
5099.84814 0.932568
5103.10889 0.933846
5106.37012 0.935074
5109.63086 0.936272
5112.89209 0.93746
5116.15381 0.938657
5119.41504 0.939875
5122.67578 0.941117
5125.93799 0.942381
5129.19922 0.943659
5132.46094 0.944925
5135.72314 0.946159
5138.98389 0.947331
5142.24609 0.948415
5145.50781 0.949389
5148.77002 0.950243
5152.03076 0.950977
5155.29297 0.951605
5158.55518 0.95215
5161.81689 0.952634
5165.07910 0.95308
5168.34082 0.953504
5171.60400 0.953915
5174.86621 0.954316
5178.12793 0.95471
5181.39111 0.955095
5184.65283 0.955477
5187.91602 0.955851
5191.17822 0.956212
5194.43994 0.956552
5197.70312 0.95686
5200.96582 0.957117
5204.22900 0.957305
5207.49121 0.957415
5210.75391 0.957435
5214.01709 0.957361
5217.27979 0.957199
5220.54297 0.956961
5223.80615 0.95667
5227.06885 0.956348
5230.33301 0.95603
5233.59619 0.955747
5236.85889 0.955519
5240.12207 0.955366
5243.38477 0.955293
5246.64893 0.955288
5249.91309 0.955329
5253.17578 0.955386
5256.43896 0.955426
5259.70312 0.955423
5262.96680 0.955359
5266.23096 0.955228
5269.49512 0.955031
5272.75781 0.954778
5276.02197 0.954482
5279.28711 0.954144
5282.54980 0.953766
5285.81396 0.953335
5289.07910 0.952832
5292.34277 0.952239
5295.60693 0.95154
5298.87207 0.950737
5302.13623 0.94985
5305.39990 0.948915
5308.66504 0.94798
5311.92920 0.947092
5315.19385 0.946284
5318.45801 0.945572
5321.72412 0.944952
5324.98779 0.944397
5328.25293 0.943869
5331.51807 0.943323
5334.78320 0.942719
5338.04785 0.942024
5341.31299 0.941208
5344.57812 0.940256
5347.84277 0.939158
5351.10791 0.937917
5354.37402 0.936546
5357.63916 0.935063
5360.90479 0.933499
5364.16992 0.931894
5367.43604 0.930278
5370.70117 0.92869
5373.96680 0.927151
5377.23193 0.925673
5380.49805 0.92426
5383.76416 0.92291
5387.02979 0.921621
5390.29590 0.920392
5393.56201 0.919226
5396.82812 0.918118
5400.09424 0.917062
5403.35986 0.916044
5406.62598 0.915038
5409.89307 0.91401
5413.15918 0.912925
5416.42480 0.911741
5419.69092 0.910424
5422.95801 0.908942
5426.22510 0.907281
5429.49121 0.905441
5432.75781 0.903444
5436.02490 0.901323
5439.29199 0.899127
5442.55908 0.896913
5445.82520 0.894735
5449.09180 0.892637
5452.35889 0.890647
5455.62598 0.888771
5458.89404 0.886996
5462.16113 0.885289
5465.42822 0.883607
5468.69482 0.881906
5471.96191 0.880148
5475.22998 0.878305
5478.49805 0.876368
5481.76514 0.87434
5485.03320 0.872226
5488.29980 0.870041
5491.56787 0.867791
5494.83594 0.865478
5498.10400 0.863105
5501.37207 0.860668
5504.64014 0.858162
5507.90820 0.855592
5511.17578 0.852969
5514.44385 0.850307
5517.71191 0.847631
5520.97998 0.844969
5524.24902 0.842347
5527.51709 0.83979
5530.78613 0.837315
5534.05420 0.83493
5537.32324 0.832642
5540.59082 0.830444
5543.85986 0.828324
5547.12793 0.82626
5550.39697 0.824227
5553.66699 0.822187
5556.93506 0.820103
5560.20410 0.817937
5563.47314 0.815659
5566.74219 0.813248
5570.01221 0.8107
5573.28076 0.808018
5576.54980 0.80522
5579.81885 0.802323
5583.08887 0.799348
5586.35791 0.796316
5589.62793 0.793246
5592.89697 0.790157
5596.16699 0.787068
5599.43701 0.783992
5602.70703 0.780939
5605.97705 0.777917
5609.24609 0.774921
5612.51611 0.771941
5615.78711 0.768957
5619.05713 0.765948
5622.32715 0.762889
5625.59717 0.759765
5628.86719 0.756564
5632.13721 0.753291
5635.40820 0.749955
5638.67822 0.746573
5641.94922 0.743163
5645.21924 0.739737
5648.49023 0.736301
5651.76123 0.732854
5655.03076 0.729391
5658.30176 0.725907
5661.57324 0.722393
5664.84424 0.718847
5668.11523 0.715272
5671.38623 0.71167
5674.65723 0.708045
5677.92920 0.704409
5681.20020 0.70077
5684.47119 0.697139
5687.74316 0.693524
5691.01416 0.689931
5694.28613 0.686357
5697.55713 0.6828
5700.82910 0.67925
5704.10107 0.675697
5707.37207 0.672129
5710.64404 0.66854
5713.91602 0.664925
5717.18799 0.661282
5720.45996 0.657606
5723.73193 0.653891
5727.00391 0.650128
5730.27588 0.646313
5733.54785 0.642442
5736.82080 0.638523
5740.09277 0.634567
5743.36621 0.630594
5746.63818 0.626626
5749.91113 0.62268
5753.18408 0.618767
5756.45605 0.614889
5759.72900 0.611041
5763.00195 0.607215
5766.27490 0.603402
5769.54785 0.599597
5772.82080 0.595802
5776.09424 0.592016
5779.36719 0.588242
5782.64111 0.584475
5785.91406 0.580709
5789.18701 0.576932
5792.45996 0.573138
5795.73389 0.569316
5799.00781 0.565463
5802.28076 0.561581
5805.55518 0.557678
5808.82910 0.553763
5812.10303 0.54984
5815.37598 0.54591
5818.64990 0.54197
5821.92383 0.53801
5825.19824 0.534019
5828.47217 0.529992
5831.74707 0.525924
5835.02100 0.521815
5838.29492 0.517675
5841.56885 0.51351
5844.84424 0.509327
5848.11914 0.505131
5851.39307 0.500926
5854.66797 0.496711
5857.94189 0.49249
5861.21680 0.488263
5864.49219 0.484036
5867.76709 0.479815
5871.04199 0.475606
5874.31689 0.471413
5877.59180 0.467235
5880.86816 0.463069
5884.14307 0.458909
5887.41797 0.454747
5890.69287 0.450582
5893.96924 0.446413
5897.24414 0.442252
5900.52002 0.438115
5903.79590 0.434021
5907.07080 0.429982
5910.34717 0.426007
5913.62305 0.422093
5916.89893 0.418226
5920.17480 0.414387
5923.45117 0.410556
5926.72705 0.406718
5930.00293 0.402859
5933.27881 0.398974
5936.55615 0.395065
5939.83203 0.391136
5943.10791 0.387195
5946.38477 0.383252
5949.66211 0.379317
5952.93799 0.375399
5956.21484 0.371504
5959.49219 0.367636
5962.76904 0.363794
5966.04492 0.359974
5969.32324 0.356167
5972.60010 0.352364
5975.87695 0.348554
5979.15381 0.344728
5982.43115 0.340876
5985.70801 0.33699
5988.98584 0.333062
5992.26318 0.329083
5995.54102 0.325047
5998.81787 0.32095
6002.09619 0.316791
6005.37402 0.31258
6008.65186 0.308333
6011.93018 0.304076
6015.20801 0.299841
6018.48486 0.295664
6021.76416 0.291578
6025.04199 0.287612
6028.31982 0.283784
6031.59814 0.2801
6034.87598 0.276553
6038.15479 0.273127
6041.43408 0.269799
6044.71191 0.266543
6047.99121 0.263335
6051.27002 0.260155
6054.54785 0.256986
6057.82715 0.253819
6061.10596 0.250645
6064.38477 0.24746
6067.66406 0.244261
6070.94287 0.241048
6074.22217 0.237825
6077.50098 0.234601
6080.78076 0.231383
6084.06006 0.228181
6087.33887 0.225002
6090.61914 0.221848
6093.89795 0.218717
6097.17822 0.215606
6100.45801 0.212509
6103.73779 0.209422
6107.01807 0.206345
6110.29785 0.20328
6113.57812 0.200228
6116.85693 0.197198
6120.13818 0.194191
6123.41797 0.191217
6126.69824 0.18828
6129.97900 0.185385
6133.25879 0.182535
6136.54004 0.17973
6139.81982 0.176965
6143.10107 0.174235
6146.38086 0.17153
6149.66309 0.168841
6152.94287 0.166158
6156.22412 0.163474
6159.50488 0.160785
6162.78613 0.158088
6166.06689 0.15539
6169.34912 0.152695
6172.62988 0.150018
6175.91113 0.14737
6179.19189 0.144765
6182.47412 0.142216
6185.75586 0.139731
6189.03711 0.137311
6192.31885 0.134952
6195.60107 0.132643
6198.88281 0.130375
6202.16504 0.128135
6205.44678 0.125919
6208.72900 0.123726
6212.01123 0.121562
6215.29297 0.119436
6218.57520 0.117357
6221.85693 0.115332
6225.14014 0.11336
6228.42188 0.111438
6231.70508 0.109558
6234.98779 0.107709
6238.27100 0.105881
6241.55322 0.104061
6244.83594 0.102241
6248.11914 0.100413
6251.40186 0.098574
6254.68506 0.096721
6257.96777 0.094857
6261.25098 0.092987
6264.53516 0.091121
6267.81787 0.089268
6271.10205 0.08744
6274.38477 0.085645
6277.66797 0.083891
6280.95215 0.082178
6284.23584 0.080507
6287.52002 0.078871
6290.80420 0.077269
6294.08691 0.075696
6297.37207 0.074151
6300.65576 0.072638
6303.93994 0.07116
6307.22412 0.069722
6310.50781 0.06833
6313.79297 0.066983
6317.07715 0.065681
6320.36182 0.064419
6323.64600 0.063192
6326.93115 0.061992
6330.21582 0.060812
6333.50000 0.059645
6336.78613 0.058487
6340.06982 0.057334
6343.35498 0.056185
6346.64111 0.05504
6349.92578 0.053903
6353.21094 0.052777
6356.49707 0.051667
6359.78223 0.050577
6363.06689 0.049512
6366.35303 0.048475
6369.63916 0.047465
6372.92383 0.046481
6376.20996 0.045518
6379.49609 0.044571
6382.78223 0.043636
6386.06787 0.042709
6389.35400 0.041794
6392.64014 0.040892
6395.92578 0.040012
6399.21191 0.039159
6402.49902 0.038337
6405.78613 0.037548
6409.07178 0.036786
6412.35791 0.036045
6415.64600 0.035317
6418.93213 0.034594
6422.21924 0.033871
6425.50586 0.033145
6428.79297 0.032417
6432.08008 0.031692
6435.36719 0.030975
6438.65381 0.03027
6441.94092 0.029582
6445.22900 0.028915
6448.51611 0.028272
6451.80420 0.027652
6455.09082 0.027055
6458.37891 0.026478
6461.66699 0.025918
6464.95508 0.025371
6468.24316 0.024833
6471.53076 0.024301
6474.81787 0.023772
6478.10693 0.023244
6481.39502 0.022718
6484.68311 0.022194
6487.97217 0.021675
6491.25977 0.021163
6494.54785 0.020659
6497.83691 0.020166
6501.12500 0.019683
6504.41504 0.019211
6507.70312 0.01875
6510.99219 0.0183
6514.28076 0.017863
6517.56982 0.017439
6520.85889 0.017028
6524.14795 0.016627
6527.43799 0.016234
6530.72705 0.015845
6534.01709 0.015458
6537.30615 0.015071
6540.59619 0.014685
6543.88477 0.014303
6547.17480 0.013929
6550.46484 0.013569
6553.75488 0.013229
6557.04395 0.012912
6560.33398 0.012622
6563.62500 0.012359
6566.91504 0.012121
6570.20605 0.011906
6573.49609 0.011708
6576.78613 0.011524
6580.07715 0.011347
6583.36719 0.011174
6586.65820 0.011
6589.94922 0.01082
6593.23877 0.010629
6596.52979 0.010422
6599.82080 0.010196
6603.11182 0.009952
6606.40283 0.00969
6609.69482 0.009417
6612.98584 0.009138
6616.27686 0.008862
6619.56885 0.008595
6622.85986 0.008341
6626.15186 0.008103
6629.44287 0.007881
6632.73486 0.007671
6636.02686 0.007472
6639.31885 0.007281
6642.61084 0.007097
6645.90283 0.006918
6649.19482 0.006746
6652.48779 0.006581
6655.77979 0.006422
6659.07178 0.006268
6662.36523 0.006116
6665.65723 0.005964
6668.95020 0.00581
6672.24316 0.005653
6675.53613 0.005495
6678.82812 0.005339
6682.12207 0.00519
6685.41504 0.005052
6688.70801 0.004933
6692.00098 0.004836
6695.29395 0.004761
6698.58691 0.004705
6701.88086 0.004662
6705.17383 0.004622
6708.46777 0.004573
6711.76221 0.004507
6715.05518 0.004418
6718.34912 0.004308
6721.64307 0.004184
6724.93701 0.004059
7397.43066 0.0
