# %ECSV 0.9
# ---
# datatype:
# - {name: wavelength, unit: Angstrom, datatype: float32}
# - {name: response, datatype: float32}
# meta: !!omap
# - {band_name: f_488_12}
# - {group_name: CAHA}
wavelength response
4230.21631 0.0
4700.24023 0.007665
4700.50000 0.00712
4700.75977 0.007603
4701.02002 0.007045
4701.27979 0.007625
4701.54004 0.00803
4701.79980 0.007545
4702.06006 0.007958
4702.31982 0.00834
4702.58008 0.007544
4702.83984 0.008296
4703.10010 0.008209
4703.35986 0.006822
4703.62012 0.00794
4703.87988 0.007668
4704.14014 0.007789
4704.39990 0.007591
4704.66016 0.008823
4704.91992 0.007931
4705.18018 0.007553
4705.43994 0.008704
4705.70020 0.008056
4705.95996 0.008305
4706.22021 0.007766
4706.47998 0.008117
4706.74023 0.007706
4707.00000 0.008344
4707.25977 0.007189
4707.52002 0.008444
4707.77979 0.008768
4708.04004 0.008046
4708.29980 0.009039
4708.56006 0.008613
4708.81982 0.00881
4709.08008 0.009084
4709.33984 0.008579
4709.60010 0.008664
4709.85986 0.00841
4710.12012 0.009502
4710.37988 0.008486
4710.64014 0.008667
4710.89990 0.009042
4711.16016 0.0103
4711.41992 0.008927
4711.68018 0.008053
4711.93994 0.008914
4712.20020 0.009105
4712.45996 0.009547
4712.72021 0.0092
4712.97998 0.008982
4713.24023 0.008673
4713.50000 0.009913
4713.75977 0.009601
4714.02002 0.009389
4714.27979 0.009669
4714.54004 0.009307
4714.79980 0.009499
4715.06006 0.009368
4715.31982 0.009207
4715.58008 0.009862
4715.83984 0.010134
4716.10010 0.010419
4716.35986 0.010245
4716.62012 0.010525
4716.87988 0.010267
4717.14014 0.01005
4717.39990 0.010955
4717.66016 0.010438
4717.91992 0.009627
4718.18018 0.009915
4718.43994 0.010618
4718.70020 0.011283
4718.95996 0.010463
4719.22021 0.010851
4719.47998 0.010951
4719.74023 0.011054
4720.00000 0.011401
4720.25977 0.011028
4720.52002 0.011008
4720.77979 0.011255
4721.04004 0.011783
4721.29980 0.011151
4721.56006 0.010469
4721.81982 0.010996
4722.08008 0.011172
4722.33984 0.011186
4722.60010 0.010902
4722.85986 0.011142
4723.12012 0.01158
4723.37988 0.011963
4723.64014 0.011676
4723.89990 0.011102
4724.16016 0.011962
4724.41992 0.011758
4724.68018 0.012754
4724.93994 0.012224
4725.20020 0.013302
4725.45996 0.012564
4725.72021 0.012594
4725.97998 0.01288
4726.24023 0.01244
4726.50000 0.012611
4726.75977 0.013787
4727.02002 0.01288
4727.27979 0.013152
4727.54004 0.013503
4727.79980 0.012653
4728.06006 0.013316
4728.31982 0.012052
4728.58008 0.012412
4728.83984 0.012562
4729.10010 0.013294
4729.35986 0.012867
4729.62012 0.01316
4729.87988 0.013501
4730.14014 0.01356
4730.39990 0.014328
4730.66016 0.013547
4730.91992 0.01438
4731.18018 0.014841
4731.43994 0.013013
4731.70020 0.014991
4731.95996 0.014122
4732.22021 0.014221
4732.47998 0.015015
4732.74023 0.014253
4733.00000 0.014183
4733.25977 0.014606
4733.52002 0.015286
4733.77979 0.01484
4734.04004 0.016339
4734.29980 0.014717
4734.56006 0.014491
4734.81982 0.014817
4735.08008 0.015602
4735.33984 0.015415
4735.60010 0.015791
4735.85986 0.015724
4736.12012 0.015999
4736.37988 0.015625
4736.64014 0.015572
4736.89990 0.015374
4737.16016 0.016312
4737.41992 0.015804
4737.68018 0.016289
4737.93994 0.016181
4738.20020 0.016105
4738.45996 0.017625
4738.72021 0.017287
4738.97998 0.017539
4739.24023 0.017138
4739.50000 0.017035
4739.75977 0.017731
4740.02002 0.01676
4740.27979 0.018196
4740.54004 0.017751
4740.79980 0.017056
4741.06006 0.016144
4741.31982 0.017921
4741.58008 0.017687
4741.83984 0.018286
4742.10010 0.018225
4742.35986 0.018184
4742.62012 0.018552
4742.87988 0.016733
4743.14014 0.015214
4743.39990 0.016937
4743.66016 0.017818
4743.91992 0.018618
4744.18018 0.018818
4744.43994 0.019583
4744.70020 0.019508
4744.95996 0.018684
4745.22021 0.019545
4745.47998 0.020991
4745.74023 0.019512
4746.00000 0.021514
4746.25977 0.019334
4746.52002 0.020587
4746.77979 0.019837
4747.04004 0.02135
4747.29980 0.020752
4747.56006 0.021188
4747.81982 0.020504
4748.08008 0.021734
4748.33984 0.020887
4748.60010 0.021793
4748.85986 0.022601
4749.12012 0.022728
4749.37988 0.022285
4749.64014 0.022684
4749.89990 0.022458
4750.16016 0.022505
4750.41992 0.022059
4750.68018 0.02415
4750.93994 0.022538
4751.20020 0.023932
4751.45996 0.02331
4751.72021 0.023266
4751.97998 0.023404
4752.24023 0.024047
4752.50000 0.024659
4752.75977 0.023658
4753.02002 0.024982
4753.27979 0.025351
4753.54004 0.026105
4753.79980 0.024785
4754.06006 0.024046
4754.31982 0.024602
4754.58008 0.025542
4754.83984 0.025301
4755.10010 0.026613
4755.35986 0.025651
4755.62012 0.025925
4755.87988 0.032106
4756.14014 0.068784
4756.39990 0.032387
4756.66016 0.025974
4756.91992 0.026909
4757.18018 0.026947
4757.43994 0.028699
4757.70020 0.02781
4757.95996 0.029093
4758.22021 0.027839
4758.47998 0.027489
4758.74023 0.02844
4759.00000 0.029248
4759.25977 0.028947
4759.52002 0.030433
4759.77979 0.029108
4760.04004 0.030642
4760.29980 0.030519
4760.56006 0.029016
4760.81982 0.030954
4761.08008 0.03075
4761.33984 0.030935
4761.60010 0.031758
4761.85986 0.030869
4762.12012 0.032304
4762.37988 0.032619
4762.64014 0.032965
4762.89990 0.031698
4763.16016 0.032441
4763.41992 0.032213
4763.68018 0.033599
4763.93994 0.033053
4764.20020 0.033935
4764.45996 0.03315
4764.72021 0.035563
4764.97998 0.035363
4765.24023 0.034637
4765.50000 0.035247
4765.75977 0.034104
4766.02002 0.036556
4766.27979 0.036072
4766.54004 0.037091
4766.79980 0.036482
4767.06006 0.037481
4767.31982 0.037567
4767.58008 0.036888
4767.83984 0.037022
4768.10010 0.039018
4768.35986 0.038501
4768.62012 0.038523
4768.87988 0.039006
4769.14014 0.0386
4769.39990 0.039675
4769.66016 0.039827
4769.91992 0.040416
4770.18018 0.040788
4770.43994 0.040102
4770.70020 0.04181
4770.95996 0.041807
4771.22021 0.041995
4771.47998 0.042971
4771.74023 0.041734
4772.00000 0.043201
4772.25977 0.043125
4772.52002 0.042889
4772.77979 0.04501
4773.04004 0.045527
4773.29980 0.04437
4773.56006 0.044328
4773.81982 0.046983
4774.08008 0.04638
4774.33984 0.047322
4774.60010 0.046749
4774.85986 0.047446
4775.12012 0.048887
4775.37988 0.048548
4775.64014 0.046931
4775.89990 0.048047
4776.16016 0.048541
4776.41992 0.049568
4776.68018 0.049855
4776.93994 0.049812
4777.20020 0.050557
4777.45996 0.052011
4777.72021 0.053278
4777.97998 0.051771
4778.24023 0.053166
4778.50000 0.052371
4778.75977 0.05401
4779.02002 0.053525
4779.27979 0.053542
4779.54004 0.056172
4779.79980 0.054387
4780.06006 0.05532
4780.31982 0.056967
4780.58008 0.054992
4780.83984 0.055449
4781.10010 0.057328
4781.35986 0.057551
4781.62012 0.058803
4781.87988 0.059882
4782.14014 0.057727
4782.39990 0.061433
4782.66016 0.061282
4782.91992 0.060636
4783.18018 0.060917
4783.43994 0.062702
4783.70020 0.065484
4783.95996 0.063543
4784.22021 0.065977
4784.47998 0.065733
4784.74023 0.064085
4785.00000 0.066161
4785.25977 0.065065
4785.52002 0.067553
4785.77979 0.066677
4786.04004 0.067915
4786.29980 0.069252
4786.56006 0.068921
4786.81982 0.069269
4787.08008 0.072185
4787.33984 0.07
4787.60010 0.070577
4787.85986 0.073125
4788.12012 0.072107
4788.37988 0.073093
4788.64014 0.074501
4788.89990 0.074802
4789.16016 0.077831
4789.41992 0.077513
4789.68018 0.074623
4789.93994 0.078649
4790.20020 0.079321
4790.45996 0.077517
4790.72021 0.079584
4790.97998 0.082122
4791.24023 0.08169
4791.50000 0.079452
4791.75977 0.082509
4792.02002 0.084439
4792.27979 0.084191
4792.54004 0.086285
4792.79980 0.086163
4793.06006 0.087236
4793.31982 0.086115
4793.58008 0.090918
4793.83984 0.091195
4794.10010 0.088739
4794.35986 0.088539
4794.62012 0.093253
4794.87988 0.093956
4795.14014 0.091995
4795.39990 0.094563
4795.66016 0.096815
4795.91992 0.096896
4796.18018 0.098308
4796.43994 0.098146
4796.70020 0.102534
4796.95996 0.100371
4797.22021 0.098151
4797.47998 0.103482
4797.74023 0.102755
4798.00000 0.10519
4798.25977 0.102727
4798.52002 0.105285
4798.77979 0.10524
4799.04004 0.107834
4799.29980 0.108476
4799.56006 0.10931
4799.81982 0.112621
4800.08008 0.111441
4800.33984 0.111213
4800.60010 0.111728
4800.85986 0.10709
4801.12012 0.115764
4801.37988 0.119949
4801.64014 0.119975
4801.89990 0.11814
4802.16016 0.120809
4802.41992 0.120387
4802.68018 0.122758
4802.93994 0.12621
4803.20020 0.124361
4803.45996 0.128238
4803.72021 0.130358
4803.97998 0.129345
4804.24023 0.129222
4804.50000 0.132152
4804.75977 0.133296
4805.02002 0.133079
4805.27979 0.133904
4805.54004 0.135153
4805.79980 0.136576
4806.06006 0.1418
4806.31982 0.141871
4806.58008 0.145607
4806.83984 0.142011
4807.10010 0.145003
4807.35986 0.146937
4807.62012 0.14944
4807.87988 0.149923
4808.14014 0.15232
4808.39990 0.154628
4808.66016 0.155589
4808.91992 0.156199
4809.18018 0.155638
4809.43994 0.157698
4809.70020 0.159042
4809.95996 0.162479
4810.22021 0.162902
4810.47998 0.166329
4810.74023 0.165792
4811.00000 0.164782
4811.25977 0.171203
4811.52002 0.169922
4811.77979 0.173099
4812.04004 0.176466
4812.29980 0.17535
4812.56006 0.178235
4812.81982 0.180333
4813.08008 0.178525
4813.33984 0.178482
4813.60010 0.181926
4813.85986 0.183711
4814.12012 0.187735
4814.37988 0.189134
4814.64014 0.188543
4814.89990 0.189828
4815.16016 0.19486
4815.41992 0.193831
4815.68018 0.197489
4815.93994 0.195999
4816.20020 0.197952
4816.45996 0.204439
4816.72021 0.20573
4816.97998 0.201887
4817.24023 0.209683
4817.50000 0.210242
4817.75977 0.209418
4818.02002 0.216733
4818.27979 0.215288
4818.54004 0.216295
4818.79980 0.218661
4819.06006 0.221081
4819.31982 0.221138
4819.58008 0.229283
4819.83984 0.227238
4820.10010 0.226934
4820.35986 0.231753
4820.62012 0.234389
4820.87988 0.233941
4821.14014 0.234205
4821.39990 0.235541
4821.66016 0.24007
4821.91992 0.242374
4822.18018 0.244844
4822.43994 0.251267
4822.70020 0.251644
4822.95996 0.251829
4823.22021 0.253519
4823.47998 0.257043
4823.74023 0.25507
4824.00000 0.260343
4824.25977 0.257403
4824.52002 0.261551
4824.77979 0.265711
4825.04004 0.270613
4825.29980 0.267174
4825.56006 0.265084
4825.81982 0.252855
4826.08008 0.275948
4826.33984 0.279393
4826.60010 0.283395
4826.85986 0.278653
4827.12012 0.281757
4827.37988 0.284977
4827.64014 0.286641
4827.89990 0.292322
4828.16016 0.297974
4828.41992 0.297147
4828.68018 0.3018
4828.93994 0.299448
4829.20020 0.304508
4829.45996 0.30717
4829.72021 0.304036
4829.97998 0.30872
4830.24023 0.312263
4830.50000 0.310656
4830.75977 0.317879
4831.02002 0.319185
4831.27979 0.318874
4831.54004 0.31815
4831.79980 0.326274
4832.06006 0.325059
4832.31982 0.329283
4832.58008 0.332793
4832.83984 0.331486
4833.10010 0.335365
4833.35986 0.338398
4833.62012 0.337713
4833.87988 0.339305
4834.14014 0.342838
4834.39990 0.343478
4834.66016 0.34808
4834.91992 0.349384
4835.18018 0.348454
4835.43994 0.354562
4835.70020 0.358301
4835.95996 0.355231
4836.22021 0.36645
4836.47998 0.360002
4836.74023 0.362899
4837.00000 0.364102
4837.25977 0.364311
4837.52002 0.367293
4837.77979 0.375239
4838.04004 0.373642
4838.29980 0.372951
4838.56006 0.375821
4838.81982 0.381398
4839.08008 0.377987
4839.33984 0.382757
4839.60010 0.38322
4839.85986 0.383563
4840.12012 0.388878
4840.37988 0.387548
4840.64014 0.391333
4840.89990 0.395328
4841.16016 0.393321
4841.41992 0.392312
4841.68018 0.403948
4841.93994 0.39963
4842.20020 0.401787
4842.45996 0.406516
4842.72021 0.399868
4842.97998 0.40394
4843.24023 0.408333
4843.50000 0.411062
4843.75977 0.411557
4844.02002 0.407673
4844.27979 0.413604
4844.54004 0.41384
4844.79980 0.413142
4845.06006 0.418659
4845.31982 0.417909
4845.58008 0.42435
4845.83984 0.420027
4846.10010 0.425677
4846.35986 0.426455
4846.62012 0.423695
4846.87988 0.431509
4847.14014 0.431639
4847.39990 0.426324
4847.66016 0.431075
4847.91992 0.434974
4848.18018 0.432523
4848.43994 0.435322
4848.70020 0.437699
4848.95996 0.433861
4849.22021 0.434139
4849.47998 0.437423
4849.74023 0.439737
4850.00000 0.446439
4850.25977 0.439361
4850.52002 0.443151
4850.77979 0.438579
4851.04004 0.440363
4851.29980 0.441696
4851.56006 0.445639
4851.81982 0.4467
4852.08008 0.447228
4852.33984 0.451999
4852.60010 0.448806
4852.85986 0.450465
4853.12012 0.454945
4853.37988 0.448809
4853.64014 0.457859
4853.89990 0.452789
4854.16016 0.451468
4854.41992 0.454109
4854.68018 0.456956
4854.93994 0.454084
4855.20020 0.460381
4855.45996 0.459596
4855.72021 0.458947
4855.97998 0.45959
4856.24023 0.461908
4856.50000 0.456845
4856.75977 0.464027
4857.02002 0.459652
4857.27979 0.462616
4857.54004 0.461007
4857.79980 0.461135
4858.06006 0.46251
4858.31982 0.45997
4858.58008 0.463537
4858.83984 0.462889
4859.10010 0.469466
4859.35986 0.461904
4859.62012 0.464235
4859.87988 0.469003
4860.14014 0.467379
4860.39990 0.463284
4860.66016 0.463033
4860.91992 0.467307
4861.18018 0.467091
4861.43994 0.470376
4861.70020 0.467257
4861.95996 0.467962
4862.22021 0.470161
4862.47998 0.470421
4862.74023 0.46513
4863.00000 0.472119
4863.25977 0.471146
4863.52002 0.470101
4863.77979 0.469125
4864.04004 0.467617
4864.29980 0.466794
4864.56006 0.468414
4864.81982 0.468627
4865.08008 0.469255
4865.33984 0.47364
4865.60010 0.467865
4865.85986 0.469937
4866.12012 0.468935
4866.37988 0.474395
4866.64014 0.468054
4866.89990 0.469069
4867.16016 0.471044
4867.41992 0.467138
4867.68018 0.470114
4867.93994 0.466897
4868.20020 0.46635
4868.45996 0.469782
4868.72021 0.471282
4868.97998 0.469931
4869.24023 0.471808
4869.50000 0.472363
4869.75977 0.466593
4870.02002 0.473711
4870.27979 0.472509
4870.54004 0.468719
4870.79980 0.473201
4871.06006 0.473948
4871.31982 0.470687
4871.58008 0.471399
4871.83984 0.472995
4872.10010 0.472539
4872.35986 0.472667
4872.62012 0.470779
4872.87988 0.47149
4873.14014 0.470829
4873.39990 0.473706
4873.66016 0.473748
4873.91992 0.46974
4874.18018 0.474667
4874.43994 0.473687
4874.70020 0.468049
4874.95996 0.47069
4875.22021 0.471503
4875.47998 0.468043
4875.74023 0.470151
4876.00000 0.466456
4876.25977 0.471329
4876.52002 0.47317
4876.77979 0.465716
4877.04004 0.469536
4877.29980 0.472907
4877.56006 0.467397
4877.81982 0.466552
4878.08008 0.472231
4878.33984 0.471276
4878.60010 0.468707
4878.85986 0.470442
4879.12012 0.46802
4879.37988 0.467668
4879.64014 0.471785
4879.89990 0.466166
4880.16016 0.472715
4880.41992 0.467692
4880.68018 0.474806
4880.93994 0.472057
4881.20020 0.464941
4881.45996 0.470944
4881.72021 0.465792
4881.97998 0.466885
4882.24023 0.46963
4882.50000 0.469011
4882.75977 0.471421
4883.02002 0.467057
4883.27979 0.471049
4883.54004 0.474223
4883.79980 0.468281
4884.06006 0.467523
4884.31982 0.468199
4884.58008 0.466949
4884.83984 0.469215
4885.10010 0.466417
4885.35986 0.470671
4885.62012 0.467833
4885.87988 0.466785
4886.14014 0.467661
4886.39990 0.467216
4886.66016 0.467722
4886.91992 0.46638
4887.18018 0.466452
4887.43994 0.464839
4887.70020 0.469371
4887.95996 0.466749
4888.22021 0.462056
4888.47998 0.468742
4888.74023 0.467071
4889.00000 0.464525
4889.25977 0.465802
4889.52002 0.462284
4889.77979 0.46432
4890.04004 0.464413
4890.29980 0.467453
4890.56006 0.461103
4890.81982 0.463111
4891.08008 0.466681
4891.33984 0.465694
4891.60010 0.462768
4891.85986 0.468085
4892.12012 0.463675
4892.37988 0.461214
4892.64014 0.468596
4892.89990 0.465536
4893.16016 0.462471
4893.41992 0.46508
4893.68018 0.457754
4893.93994 0.45803
4894.20020 0.460674
4894.45996 0.459244
4894.72021 0.46288
4894.97998 0.465337
4895.24023 0.461555
4895.50000 0.459455
4895.75977 0.457001
4896.02002 0.463
4896.27979 0.464142
4896.54004 0.457736
4896.79980 0.459792
4897.06006 0.460252
4897.31982 0.460014
4897.58008 0.458738
4897.83984 0.456558
4898.10010 0.456512
4898.35986 0.460044
4898.62012 0.457241
4898.87988 0.457306
4899.14014 0.457164
4899.39990 0.453597
4899.66016 0.457652
4899.91992 0.455337
4900.18018 0.454947
4900.43994 0.455452
4900.70020 0.457662
4900.95996 0.459109
4901.22021 0.45662
4901.47998 0.448325
4901.74023 0.453651
4902.00000 0.452442
4902.25977 0.448761
4902.52002 0.451409
4902.77979 0.45096
4903.04004 0.447289
4903.29980 0.454801
4903.56006 0.451921
4903.81982 0.449152
4904.08008 0.44813
4904.33984 0.444085
4904.60010 0.445874
4904.85986 0.445071
4905.12012 0.447073
4905.37988 0.44469
4905.64014 0.447695
4905.89990 0.443791
4906.16016 0.442158
4906.41992 0.436675
4906.68018 0.440361
4906.93994 0.433449
4907.20020 0.4349
4907.45996 0.436658
4907.72021 0.436935
4907.97998 0.436171
4908.24023 0.435464
4908.50000 0.435044
4908.75977 0.431739
4909.02002 0.434369
4909.27979 0.43372
4909.54004 0.428083
4909.79980 0.430517
4910.06006 0.427674
4910.31982 0.42427
4910.58008 0.429818
4910.83984 0.426138
4911.10010 0.424725
4911.35986 0.423656
4911.62012 0.421435
4911.87988 0.425348
4912.14014 0.424795
4912.39990 0.418795
4912.66016 0.420534
4912.91992 0.416811
4913.18018 0.415967
4913.43994 0.412569
4913.70020 0.412484
4913.95996 0.41003
4914.22021 0.411952
4914.47998 0.407235
4914.74023 0.406998
4915.00000 0.410969
4915.25977 0.407492
4915.52002 0.406065
4915.77979 0.406109
4916.04004 0.403513
4916.29980 0.400874
4916.56006 0.397587
4916.81982 0.397613
4917.08008 0.394502
4917.33984 0.39482
4917.60010 0.392157
4917.85986 0.393461
4918.12012 0.390812
4918.37988 0.391774
4918.64014 0.391578
4918.89990 0.38939
4919.16016 0.385356
4919.41992 0.381498
4919.68018 0.381406
4919.93994 0.377542
4920.20020 0.376807
4920.45996 0.377579
4920.72021 0.373563
4920.97998 0.370904
4921.24023 0.36915
4921.50000 0.367966
4921.75977 0.369164
4922.02002 0.362569
4922.27979 0.362684
4922.54004 0.361725
4922.79980 0.361504
4923.06006 0.358061
4923.31982 0.357471
4923.58008 0.354353
4923.83984 0.352481
4924.10010 0.349751
4924.35986 0.34783
4924.62012 0.34686
4924.87988 0.346805
4925.14014 0.341802
4925.39990 0.336156
4925.66016 0.33857
4925.91992 0.334896
4926.18018 0.332701
4926.43994 0.32924
4926.70020 0.332413
4926.95996 0.329458
4927.22021 0.326875
4927.47998 0.323491
4927.74023 0.325498
4928.00000 0.323261
4928.25977 0.317588
4928.52002 0.317875
4928.77979 0.313498
4929.04004 0.31435
4929.29980 0.308363
4929.56006 0.309218
4929.81982 0.308558
4930.08008 0.307189
4930.33984 0.303986
4930.60010 0.3003
4930.85986 0.300542
4931.12012 0.29701
4931.37988 0.296752
4931.64014 0.295182
4931.89990 0.291647
4932.16016 0.28716
4932.41992 0.286014
4932.68018 0.28591
4932.93994 0.279515
4933.20020 0.279466
4933.45996 0.276376
4933.72021 0.277309
4933.97998 0.271953
4934.24023 0.272483
4934.50000 0.271239
4934.75977 0.265552
4935.02002 0.266354
4935.27979 0.264841
4935.54004 0.261723
4935.79980 0.263353
4936.06006 0.259174
4936.31982 0.251496
4936.58008 0.253092
4936.83984 0.250316
4937.10010 0.249895
4937.35986 0.247334
4937.62012 0.24307
4937.87988 0.244292
4938.14014 0.24095
4938.39990 0.240259
4938.66016 0.234331
4938.91992 0.236569
4939.18018 0.23441
4939.43994 0.231108
4939.70020 0.228619
4939.95996 0.227183
4940.22021 0.226298
4940.47998 0.226716
4940.74023 0.219587
4941.00000 0.218079
4941.25977 0.21726
4941.52002 0.214371
4941.77979 0.212435
4942.04004 0.211273
4942.29980 0.211709
4942.56006 0.20961
4942.81982 0.206754
4943.08008 0.204618
4943.33984 0.20429
4943.60010 0.200494
4943.85986 0.201171
4944.12012 0.198206
4944.37988 0.19381
4944.64014 0.192843
4944.89990 0.191322
4945.16016 0.19265
4945.41992 0.187566
4945.68018 0.186586
4945.93994 0.184951
4946.20020 0.18564
4946.45996 0.181254
4946.72021 0.179162
4946.97998 0.177098
4947.24023 0.177494
4947.50000 0.177756
4947.75977 0.17517
4948.02002 0.172614
4948.27979 0.169231
4948.54004 0.170726
4948.79980 0.166934
4949.06006 0.163794
4949.31982 0.164626
4949.58008 0.162846
4949.83984 0.163786
4950.10010 0.159002
4950.35986 0.159099
4950.62012 0.1579
4950.87988 0.155362
4951.14014 0.155533
4951.39990 0.152299
4951.66016 0.148906
4951.91992 0.14773
4952.18018 0.1464
4952.43994 0.1466
4952.70020 0.145427
4952.95996 0.143885
4953.22021 0.141925
4953.47998 0.141782
4953.74023 0.141044
4954.00000 0.13771
4954.25977 0.136936
4954.52002 0.136735
4954.77979 0.131674
4955.04004 0.134336
4955.29980 0.130158
4955.56006 0.131469
4955.81982 0.129387
4956.08008 0.127333
4956.33984 0.129172
4956.60010 0.127012
4956.85986 0.124458
4957.12012 0.122987
4957.37988 0.121164
4957.64014 0.121938
4957.89990 0.119299
4958.16016 0.120547
4958.41992 0.119204
4958.68018 0.115091
4958.93994 0.114126
4959.20020 0.113791
4959.45996 0.111306
4959.72021 0.110647
4959.97998 0.110526
4960.24023 0.109587
4960.50000 0.108556
4960.75977 0.107013
4961.02002 0.107048
4961.27979 0.105767
4961.54004 0.105757
4961.79980 0.104308
4962.06006 0.105165
4962.31982 0.102366
4962.58008 0.100609
4962.83984 0.101697
4963.10010 0.098471
4963.35986 0.098248
4963.62012 0.097221
4963.87988 0.096711
4964.14014 0.094637
4964.39990 0.092546
4964.66016 0.091854
4964.91992 0.091543
4965.18018 0.090516
4965.43994 0.091253
4965.70020 0.090406
4965.95996 0.089755
4966.22021 0.087286
4966.47998 0.086705
4966.74023 0.085794
4967.00000 0.084907
4967.25977 0.085318
4967.52002 0.082979
4967.77979 0.08333
4968.04004 0.081106
4968.29980 0.081657
4968.56006 0.082452
4968.81982 0.081644
4969.08008 0.080505
4969.33984 0.078485
4969.60010 0.078484
4969.85986 0.077853
4970.12012 0.076036
4970.37988 0.076169
4970.64014 0.073832
4970.89990 0.075142
4971.16016 0.073895
4971.41992 0.074046
4971.68018 0.070768
4971.93994 0.071251
4972.20020 0.070938
4972.45996 0.070201
4972.72021 0.068666
4972.97998 0.069369
4973.24023 0.065757
4973.50000 0.066322
4973.75977 0.067335
4974.02002 0.066487
4974.27979 0.065556
4974.54004 0.064983
4974.79980 0.064541
4975.06006 0.06323
4975.31982 0.062554
4975.58008 0.063686
4975.83984 0.064659
4976.10010 0.059929
4976.35986 0.060353
4976.62012 0.059003
4976.87988 0.060052
4977.14014 0.06042
4977.39990 0.05828
4977.66016 0.057707
4977.91992 0.055862
4978.18018 0.056143
4978.43994 0.057103
4978.70020 0.055748
4978.95996 0.05684
4979.22021 0.055653
4979.47998 0.055798
4979.74023 0.05361
4980.00000 0.053796
4980.25977 0.053236
4980.52002 0.053391
4980.77979 0.052619
4981.04004 0.052417
4981.29980 0.051139
4981.56006 0.049651
4981.81982 0.050876
4982.08008 0.050013
4982.33984 0.049278
4982.60010 0.048881
4982.85986 0.048844
4983.12012 0.049273
4983.37988 0.047385
4983.64014 0.049131
4983.89990 0.046685
4984.16016 0.046793
4984.41992 0.04622
4984.68018 0.045886
4984.93994 0.045388
4985.20020 0.044507
4985.45996 0.044417
4985.72021 0.044712
4985.97998 0.044346
4986.24023 0.043224
4986.50000 0.043639
4986.75977 0.043817
4987.02002 0.041114
4987.27979 0.041997
4987.54004 0.04227
4987.79980 0.040769
4988.06006 0.040947
4988.31982 0.040493
4988.58008 0.040674
4988.83984 0.039011
4989.10010 0.039775
4989.35986 0.039527
4989.62012 0.038337
4989.87988 0.038059
4990.14014 0.03829
4990.39990 0.038437
4990.66016 0.038313
4990.91992 0.037326
4991.18018 0.03695
4991.43994 0.036509
4991.70020 0.036703
4991.95996 0.035592
4992.22021 0.035473
4992.47998 0.03519
4992.74023 0.035886
4993.00000 0.034294
4993.25977 0.034964
4993.52002 0.035056
4993.77979 0.033892
4994.04004 0.032644
4994.29980 0.033462
4994.56006 0.032622
4994.81982 0.03345
4995.08008 0.032665
4995.33984 0.033073
4995.60010 0.032004
4995.85986 0.031048
4996.12012 0.031584
4996.37988 0.032567
4996.64014 0.031261
4996.89990 0.030205
4997.16016 0.030724
4997.41992 0.030365
4997.68018 0.030266
4997.93994 0.030076
4998.20020 0.030416
4998.45996 0.029563
4998.72021 0.028868
4998.97998 0.028831
4999.24023 0.029322
4999.50000 0.027839
4999.75977 0.029301
5000.02002 0.028198
5000.27979 0.027135
5000.54004 0.026496
5000.79980 0.027136
5001.06006 0.027827
5001.31982 0.027409
5001.58008 0.02731
5001.83984 0.027228
5002.10010 0.025503
5002.35986 0.026071
5002.62012 0.025328
5002.87988 0.02621
5003.14014 0.02524
5003.39990 0.025176
5003.66016 0.024914
5003.91992 0.024616
5004.18018 0.024131
5004.43994 0.023714
5004.70020 0.025319
5004.95996 0.023136
5005.22021 0.024349
5005.47998 0.023134
5005.74023 0.022907
5006.00000 0.023189
5006.25977 0.02305
5006.52002 0.022517
5006.77979 0.022478
5007.04004 0.024077
5007.29980 0.021918
5007.56006 0.022533
5007.81982 0.022298
5008.08008 0.021453
5008.33984 0.021785
5008.60010 0.021886
5008.85986 0.021104
5009.12012 0.020746
5009.37988 0.02143
5009.64014 0.020436
5009.89990 0.021629
5010.16016 0.021188
5010.41992 0.020671
5010.68018 0.020327
5010.93994 0.021247
5011.20020 0.020057
5011.45996 0.020699
5011.72021 0.019575
5011.97998 0.018731
5012.24023 0.019697
5012.50000 0.019409
5012.75977 0.018975
5013.02002 0.018415
5013.27979 0.018782
5013.54004 0.017713
5013.79980 0.018814
5014.06006 0.019409
5014.31982 0.018152
5014.58008 0.017631
5014.83984 0.018084
5015.10010 0.017416
5015.35986 0.018547
5015.62012 0.017453
5015.87988 0.017022
5016.14014 0.018227
5016.39990 0.016986
5016.66016 0.017295
5016.91992 0.01711
5017.18018 0.017047
5017.43994 0.016108
5017.70020 0.017558
5017.95996 0.016311
5018.22021 0.016188
5018.47998 0.015521
5018.74023 0.01607
5019.00000 0.01656
5019.25977 0.016841
5019.52002 0.015318
5019.77979 0.015957
5020.04004 0.015234
5020.29980 0.01569
5020.56006 0.015416
5020.81982 0.015989
5021.08008 0.01461
5021.33984 0.014779
5021.60010 0.014958
5021.85986 0.014564
5022.12012 0.014946
5022.37988 0.014695
5022.64014 0.013739
5022.89990 0.014695
5023.16016 0.013544
5023.41992 0.014124
5023.68018 0.013539
5023.93994 0.013991
5024.20020 0.013039
5024.45996 0.014538
5024.72021 0.013527
5024.97998 0.013927
5025.24023 0.013699
5025.50000 0.013434
5025.75977 0.013048
5026.02002 0.013886
5026.27979 0.013749
5026.54004 0.013704
5026.79980 0.013418
5027.06006 0.012169
5027.31982 0.012875
5027.58008 0.013128
5027.83984 0.013028
5028.10010 0.012609
5028.35986 0.012277
5028.62012 0.012718
5028.87988 0.012375
5029.14014 0.012087
5029.39990 0.011762
5029.66016 0.011769
5029.91992 0.012273
5030.18018 0.012001
5030.43994 0.011241
5030.70020 0.011711
5030.95996 0.011964
5031.22021 0.012421
5031.47998 0.011595
5031.74023 0.010897
5032.00000 0.010838
5032.25977 0.011206
5032.52002 0.011068
5032.77979 0.011415
5033.04004 0.011616
5033.29980 0.010744
5033.56006 0.010954
5033.81982 0.010415
5034.08008 0.010126
5034.33984 0.0108
5034.60010 0.010955
5034.85986 0.010755
5035.12012 0.01109
5035.37988 0.010739
5035.64014 0.010304
5035.89990 0.011011
5036.16016 0.010237
5036.41992 0.010618
5036.68018 0.010272
5036.93994 0.010059
5037.20020 0.010516
5037.45996 0.009981
5037.72021 0.009319
5037.97998 0.008914
5038.24023 0.009306
5038.50000 0.009512
5038.75977 0.009986
5039.02002 0.009988
5039.27979 0.009918
5039.54004 0.009085
5039.79980 0.009729
5040.06006 0.009931
5040.31982 0.009397
5040.58008 0.009224
5040.83984 0.009526
5041.10010 0.008222
5041.35986 0.009478
5041.62012 0.009582
5041.87988 0.009523
5042.14014 0.008838
5042.39990 0.008766
5042.66016 0.0083
5042.91992 0.008875
5043.18018 0.00879
5043.43994 0.008197
5043.70020 0.008415
5043.95996 0.009027
5044.22021 0.008933
5044.47998 0.008607
5044.74023 0.008842
5045.00000 0.008888
5045.25977 0.008591
5045.52002 0.008915
5045.77979 0.008387
5046.04004 0.007306
5046.29980 0.008966
5046.56006 0.008052
5046.81982 0.008277
5047.08008 0.007828
5047.33984 0.007881
5047.60010 0.007822
5047.85986 0.009148
5048.12012 0.007763
5048.37988 0.008053
5048.64014 0.007755
5048.89990 0.007864
5049.16016 0.008132
5049.41992 0.007847
5049.68018 0.006776
5049.93994 0.007774
5050.20020 0.008712
5050.45996 0.007524
5050.72021 0.007638
5050.97998 0.00749
5051.24023 0.007585
5051.50000 0.006935
5051.75977 0.007428
5052.02002 0.007009
5052.27979 0.007341
5052.54004 0.006591
5052.79980 0.006728
5053.06006 0.007517
5053.31982 0.006347
5053.58008 0.006681
5053.83984 0.007097
5054.10010 0.00645
5054.35986 0.006688
5054.62012 0.006061
5054.87988 0.007721
5055.14014 0.006956
5055.39990 0.006788
5055.66016 0.007376
5055.91992 0.006975
5056.18018 0.006298
5056.43994 0.006928
5056.70020 0.006634
5056.95996 0.006755
5057.22021 0.005662
5057.47998 0.006424
5057.74023 0.005797
5058.00000 0.006163
5058.25977 0.005577
5058.52002 0.005969
5058.77979 0.006497
5059.04004 0.005539
5059.29980 0.005785
5059.56006 0.006028
5059.81982 0.005191
5060.08008 0.005943
5060.33984 0.00632
5060.60010 0.006536
5060.85986 0.005416
5061.12012 0.005484
5061.37988 0.005102
5061.64014 0.00575
5061.89990 0.005663
5062.16016 0.005582
5062.41992 0.005842
5062.68018 0.005908
5062.93994 0.005477
5063.20020 0.005427
5063.45996 0.005865
5063.72021 0.005627
5063.97998 0.005619
5064.24023 0.005129
5064.50000 0.006233
5064.75977 0.005866
5065.02002 0.005046
5065.27979 0.006159
5065.54004 0.005909
5065.79980 0.005341
5066.06006 0.005725
5066.31982 0.005408
5066.58008 0.004879
5066.83984 0.004836
5067.10010 0.005618
5067.35986 0.005449
5067.62012 0.005438
5067.87988 0.005034
5068.14014 0.005234
5068.39990 0.004858
5068.66016 0.005598
5068.91992 0.004798
5069.18018 0.005415
5069.43994 0.005211
5069.70020 0.005216
5069.95996 0.005146
5070.22021 0.004922
5070.47998 0.004166
5070.74023 0.005519
5071.00000 0.005005
5071.25977 0.004543
5071.52002 0.004482
5071.77979 0.004973
5072.04004 0.004906
5072.29980 0.004618
5072.56006 0.005036
5072.81982 0.004504
5073.08008 0.005039
5073.33984 0.004893
5073.60010 0.004095
5073.85986 0.004139
5074.12012 0.00424
5581.53223 0.0
