# %ECSV 0.9
# ---
# datatype:
# - {name: wavelength, unit: Angstrom, datatype: float32}
# - {name: response, datatype: float32}
# meta: !!omap
# - {band_name: Js}
# - {group_name: Omega2000}
wavelength response
10170.00000 0.0
11300.00000 0.00120705
11305.00000 0.0010973
11310.00000 0.00123111
11315.00000 0.00138464
11320.00000 0.00137039
11325.00000 0.00139511
11330.00000 0.00164166
11335.00000 0.00167898
11340.00000 0.00172372
11345.00000 0.00199076
11350.00000 0.00226355
11355.00000 0.00237087
11360.00000 0.00260574
11365.00000 0.00277501
11370.00000 0.0030152
11375.00000 0.00335703
11380.00000 0.00359781
11385.00000 0.00403406
11390.00000 0.00438614
11395.00000 0.00479293
11400.00000 0.00517812
11405.00000 0.00578737
11410.00000 0.00657756
11415.00000 0.0073251
11420.00000 0.00820727
11425.00000 0.00908568
11430.00000 0.0100684
11435.00000 0.0113235
11440.00000 0.0127006
11445.00000 0.0142945
11450.00000 0.0161965
11455.00000 0.0181631
11460.00000 0.0199982
11465.00000 0.0225628
11470.00000 0.0255576
11475.00000 0.0289856
11480.00000 0.0328529
11485.00000 0.037093
11490.00000 0.0414508
11495.00000 0.0462805
11500.00000 0.0521794
11505.00000 0.0589998
11510.00000 0.0669129
11515.00000 0.075242
11520.00000 0.0834043
11525.00000 0.092817
11530.00000 0.103216
11535.00000 0.115837
11540.00000 0.130675
11545.00000 0.146059
11550.00000 0.161678
11555.00000 0.178378
11560.00000 0.197656
11565.00000 0.219231
11570.00000 0.244962
11575.00000 0.27164
11580.00000 0.299213
11585.00000 0.326192
11590.00000 0.35671
11595.00000 0.388872
11600.00000 0.424271
11605.00000 0.464035
11610.00000 0.499841
11615.00000 0.535121
11620.00000 0.568031
11625.00000 0.60455
11630.00000 0.640118
11635.00000 0.675515
11640.00000 0.707364
11645.00000 0.735375
11650.00000 0.759368
11655.00000 0.782001
11660.00000 0.803284
11665.00000 0.822797
11670.00000 0.838405
11675.00000 0.85161
11680.00000 0.861701
11685.00000 0.869754
11690.00000 0.87753
11695.00000 0.8845
11700.00000 0.889406
11705.00000 0.894049
11710.00000 0.897053
11715.00000 0.900176
11720.00000 0.903156
11725.00000 0.905532
11730.00000 0.908014
11735.00000 0.909843
11740.00000 0.911905
11745.00000 0.913847
11750.00000 0.915367
11755.00000 0.91681
11760.00000 0.919269
11765.00000 0.920677
11770.00000 0.922585
11775.00000 0.923903
11780.00000 0.924892
11785.00000 0.926676
11790.00000 0.927817
11795.00000 0.928732
11800.00000 0.930172
11805.00000 0.930676
11810.00000 0.931255
11815.00000 0.932511
11820.00000 0.932209
11825.00000 0.93242
11830.00000 0.932615
11835.00000 0.932023
11840.00000 0.931982
11845.00000 0.931376
11850.00000 0.930753
11855.00000 0.929998
11860.00000 0.929504
11865.00000 0.928399
11870.00000 0.927974
11875.00000 0.926993
11880.00000 0.926291
11885.00000 0.925248
11890.00000 0.923985
11895.00000 0.923097
11900.00000 0.921961
11905.00000 0.920948
11910.00000 0.920526
11915.00000 0.919122
11920.00000 0.918999
11925.00000 0.918689
11930.00000 0.917631
11935.00000 0.917958
11940.00000 0.918544
11945.00000 0.917142
11950.00000 0.917281
11955.00000 0.917338
11960.00000 0.917294
11965.00000 0.917948
11970.00000 0.917771
11975.00000 0.917993
11980.00000 0.919082
11985.00000 0.919069
11990.00000 0.919637
11995.00000 0.920053
12000.00000 0.919877
12005.00000 0.920249
12010.00000 0.920314
12015.00000 0.920082
12020.00000 0.920131
12025.00000 0.919905
12030.00000 0.919095
12035.00000 0.9188
12040.00000 0.917621
12045.00000 0.916153
12050.00000 0.915006
12055.00000 0.913241
12060.00000 0.911524
12065.00000 0.90937
12070.00000 0.906501
12075.00000 0.90434
12080.00000 0.900431
12085.00000 0.897069
12090.00000 0.89401
12095.00000 0.890272
12100.00000 0.886606
12105.00000 0.882705
12110.00000 0.877223
12115.00000 0.873242
12120.00000 0.868681
12125.00000 0.864354
12130.00000 0.86003
12135.00000 0.855416
12140.00000 0.850682
12145.00000 0.846367
12150.00000 0.842056
12155.00000 0.838616
12160.00000 0.834785
12165.00000 0.831126
12170.00000 0.827705
12175.00000 0.823882
12180.00000 0.820982
12185.00000 0.819127
12190.00000 0.816524
12195.00000 0.815105
12200.00000 0.812965
12205.00000 0.811494
12210.00000 0.810837
12215.00000 0.810147
12220.00000 0.809741
12225.00000 0.810281
12230.00000 0.810233
12235.00000 0.811485
12240.00000 0.812962
12245.00000 0.814133
12250.00000 0.816259
12255.00000 0.818556
12260.00000 0.820885
12265.00000 0.824358
12270.00000 0.827792
12275.00000 0.831265
12280.00000 0.835007
12285.00000 0.838457
12290.00000 0.842589
12295.00000 0.847402
12300.00000 0.852247
12305.00000 0.857925
12310.00000 0.861724
12315.00000 0.866053
12320.00000 0.871476
12325.00000 0.875798
12330.00000 0.881497
12335.00000 0.88667
12340.00000 0.890543
12345.00000 0.895302
12350.00000 0.899504
12355.00000 0.903562
12360.00000 0.908402
12365.00000 0.912281
12370.00000 0.915449
12375.00000 0.919015
12380.00000 0.920963
12385.00000 0.923741
12390.00000 0.926119
12395.00000 0.928053
12400.00000 0.929356
12405.00000 0.930486
12410.00000 0.93118
12415.00000 0.931885
12420.00000 0.932089
12425.00000 0.931679
12430.00000 0.931593
12435.00000 0.9305
12440.00000 0.929911
12445.00000 0.928719
12450.00000 0.926766
12455.00000 0.926094
12460.00000 0.924015
12465.00000 0.922122
12470.00000 0.921
12475.00000 0.918825
12480.00000 0.91758
12485.00000 0.915715
12490.00000 0.913721
12495.00000 0.912143
12500.00000 0.910834
12505.00000 0.909392
12510.00000 0.908478
12515.00000 0.907355
12520.00000 0.906335
12525.00000 0.906091
12530.00000 0.905334
12535.00000 0.905348
12540.00000 0.905552
12545.00000 0.905179
12550.00000 0.906412
12555.00000 0.906604
12560.00000 0.907276
12565.00000 0.90851
12570.00000 0.909488
12575.00000 0.910944
12580.00000 0.912502
12585.00000 0.913514
12590.00000 0.915582
12595.00000 0.917067
12600.00000 0.918
12605.00000 0.919939
12610.00000 0.921232
12615.00000 0.922145
12620.00000 0.924205
12625.00000 0.924743
12630.00000 0.925738
12635.00000 0.926588
12640.00000 0.927067
12645.00000 0.927311
12650.00000 0.927659
12655.00000 0.927251
12660.00000 0.927155
12665.00000 0.926571
12670.00000 0.925288
12675.00000 0.924295
12680.00000 0.922748
12685.00000 0.920887
12690.00000 0.919323
12695.00000 0.916687
12700.00000 0.914933
12705.00000 0.912134
12710.00000 0.909061
12715.00000 0.90611
12720.00000 0.903063
12725.00000 0.900506
12730.00000 0.897441
12735.00000 0.8936
12740.00000 0.890601
12745.00000 0.887168
12750.00000 0.883788
12755.00000 0.881165
12760.00000 0.878273
12765.00000 0.874845
12770.00000 0.872362
12775.00000 0.869293
12780.00000 0.867192
12785.00000 0.864766
12790.00000 0.86286
12795.00000 0.861341
12800.00000 0.859442
12805.00000 0.857862
12810.00000 0.857411
12815.00000 0.856328
12820.00000 0.856237
12825.00000 0.856095
12830.00000 0.855267
12835.00000 0.856109
12840.00000 0.856665
12845.00000 0.856969
12850.00000 0.858476
12855.00000 0.85884
12860.00000 0.860116
12865.00000 0.862084
12870.00000 0.863488
12875.00000 0.865021
12880.00000 0.867165
12885.00000 0.868837
12890.00000 0.871167
12895.00000 0.873248
12900.00000 0.875612
12905.00000 0.878024
12910.00000 0.879938
12915.00000 0.881744
12920.00000 0.883795
12925.00000 0.885841
12930.00000 0.887706
12935.00000 0.889755
12940.00000 0.890714
12945.00000 0.892263
12950.00000 0.8934
12955.00000 0.894147
12960.00000 0.895167
12965.00000 0.89496
12970.00000 0.894737
12975.00000 0.89484
12980.00000 0.894206
12985.00000 0.893121
12990.00000 0.892217
12995.00000 0.890541
13000.00000 0.889176
13005.00000 0.887279
13010.00000 0.885089
13015.00000 0.883171
13020.00000 0.880479
13025.00000 0.877103
13030.00000 0.87447
13035.00000 0.871608
13040.00000 0.869156
13045.00000 0.865944
13050.00000 0.863445
13055.00000 0.860554
13060.00000 0.856218
13065.00000 0.854793
13070.00000 0.852531
13075.00000 0.848847
13080.00000 0.845776
13085.00000 0.846551
13090.00000 0.84229
13095.00000 0.840169
13100.00000 0.838175
13105.00000 0.836504
13110.00000 0.835134
13115.00000 0.833191
13120.00000 0.830813
13125.00000 0.829405
13130.00000 0.826351
13135.00000 0.824209
13140.00000 0.82107
13145.00000 0.816714
13150.00000 0.811681
13155.00000 0.805189
13160.00000 0.797117
13165.00000 0.78969
13170.00000 0.779024
13175.00000 0.766825
13180.00000 0.751095
13185.00000 0.733142
13190.00000 0.712965
13195.00000 0.692551
13200.00000 0.669693
13205.00000 0.644543
13210.00000 0.615377
13215.00000 0.581773
13220.00000 0.549543
13225.00000 0.51789
13230.00000 0.486727
13235.00000 0.455042
13240.00000 0.421419
13245.00000 0.385417
13250.00000 0.351456
13255.00000 0.321638
13260.00000 0.295091
13265.00000 0.269307
13270.00000 0.243977
13275.00000 0.219611
13280.00000 0.195903
13285.00000 0.176118
13290.00000 0.158646
13295.00000 0.143949
13300.00000 0.129198
13305.00000 0.114908
13310.00000 0.102232
13315.00000 0.0912382
13320.00000 0.0819498
13325.00000 0.073946
13330.00000 0.0666299
13335.00000 0.0593707
13340.00000 0.052767
13345.00000 0.0470879
13350.00000 0.0423199
13355.00000 0.038323
13360.00000 0.0346264
13365.00000 0.031076
13370.00000 0.02777
13375.00000 0.0248426
13380.00000 0.0225092
13385.00000 0.0202764
13390.00000 0.0184202
13395.00000 0.0167992
13400.00000 0.0151971
13405.00000 0.0134783
13410.00000 0.0123379
13415.00000 0.0113135
13420.00000 0.0103442
13425.00000 0.00944646
13430.00000 0.00855412
13435.00000 0.00769824
13440.00000 0.00706093
13445.00000 0.00647681
13450.00000 0.00603248
13455.00000 0.0054617
13460.00000 0.00504065
13465.00000 0.00461446
13470.00000 0.00428016
13475.00000 0.00390924
13480.00000 0.00364738
13485.00000 0.00336154
13490.00000 0.00299493
13495.00000 0.00275101
13500.00000 0.00262922
13505.00000 0.00246379
13510.00000 0.00228547
13515.00000 0.00210709
13520.00000 0.00209111
13525.00000 0.00175326
14877.50000 0.0
