# %ECSV 0.9
# ---
# datatype:
# - {name: wavelength, unit: Angstrom, datatype: float32}
# - {name: response, datatype: float32}
# meta: !!omap
# - {band_name: K}
# - {group_name: Omega2000}
wavelength response
17541.00000 0.0
19490.00000 0.00496
19500.00000 0.0052
19510.00000 0.00596
19520.00000 0.00638
19530.00000 0.00575
19540.00000 0.00722
19550.00000 0.00754
19560.00000 0.00829
19570.00000 0.00838
19580.00000 0.00966
19590.00000 0.01036
19600.00000 0.01102
19610.00000 0.0125
19620.00000 0.01301
19630.00000 0.01423
19640.00000 0.0152
19650.00000 0.01719
19660.00000 0.01828
19670.00000 0.0208
19680.00000 0.02202
19690.00000 0.02405
19700.00000 0.026
19710.00000 0.02827
19720.00000 0.03056
19730.00000 0.03398
19740.00000 0.03694
19750.00000 0.04049
19760.00000 0.04473
19770.00000 0.04918
19780.00000 0.05348
19790.00000 0.05839
19800.00000 0.06465
19810.00000 0.07036
19820.00000 0.07831
19830.00000 0.08566
19840.00000 0.09338
19850.00000 0.10209
19860.00000 0.11235
19870.00000 0.12323
19880.00000 0.1352
19890.00000 0.14813
19900.00000 0.16232
19910.00000 0.1773
19920.00000 0.19398
19930.00000 0.2117
19940.00000 0.23033
19950.00000 0.25049
19960.00000 0.27193
19970.00000 0.29442
19980.00000 0.31827
19990.00000 0.34328
20000.00000 0.36914
20010.00000 0.39737
20020.00000 0.425
20030.00000 0.45374
20040.00000 0.48372
20050.00000 0.51331
20060.00000 0.54333
20070.00000 0.57317
20080.00000 0.60245
20090.00000 0.63026
20100.00000 0.65829
20110.00000 0.68404
20120.00000 0.70729
20130.00000 0.7308
20140.00000 0.75038
20150.00000 0.76898
20160.00000 0.78593
20170.00000 0.8018
20180.00000 0.81673
20190.00000 0.83074
20200.00000 0.84426
20210.00000 0.85692
20220.00000 0.86962
20230.00000 0.88135
20240.00000 0.89144
20250.00000 0.9003
20260.00000 0.90754
20270.00000 0.91412
20280.00000 0.91676
20290.00000 0.91847
20300.00000 0.91807
20310.00000 0.91528
20320.00000 0.91046
20330.00000 0.90592
20340.00000 0.89969
20350.00000 0.89443
20360.00000 0.88871
20370.00000 0.88325
20380.00000 0.88041
20390.00000 0.87736
20400.00000 0.87606
20410.00000 0.8761
20420.00000 0.87687
20430.00000 0.87765
20440.00000 0.87926
20450.00000 0.88043
20460.00000 0.88071
20470.00000 0.88034
20480.00000 0.8773
20490.00000 0.87342
20500.00000 0.86648
20510.00000 0.85768
20520.00000 0.8481
20530.00000 0.83617
20540.00000 0.82495
20550.00000 0.81378
20560.00000 0.80414
20570.00000 0.79607
20580.00000 0.78956
20590.00000 0.78595
20600.00000 0.78448
20610.00000 0.78465
20620.00000 0.78712
20630.00000 0.79147
20640.00000 0.79869
20650.00000 0.80638
20660.00000 0.81487
20670.00000 0.82422
20680.00000 0.83431
20690.00000 0.84316
20700.00000 0.85326
20710.00000 0.85933
20720.00000 0.86517
20730.00000 0.86988
20740.00000 0.87034
20750.00000 0.87011
20760.00000 0.86775
20770.00000 0.86501
20780.00000 0.86094
20790.00000 0.85742
20800.00000 0.85381
20810.00000 0.85195
20820.00000 0.85075
20830.00000 0.85064
20840.00000 0.85222
20850.00000 0.85492
20860.00000 0.85921
20870.00000 0.8635
20880.00000 0.86894
20890.00000 0.87401
20900.00000 0.87823
20910.00000 0.88335
20920.00000 0.88677
20930.00000 0.88964
20940.00000 0.89129
20950.00000 0.89218
20960.00000 0.89069
20970.00000 0.89003
20980.00000 0.88688
20990.00000 0.88372
21000.00000 0.88111
21010.00000 0.87795
21020.00000 0.87564
21030.00000 0.87352
21040.00000 0.8706
21050.00000 0.87017
21060.00000 0.86992
21070.00000 0.87043
21080.00000 0.87143
21090.00000 0.8723
21100.00000 0.87293
21110.00000 0.87498
21120.00000 0.87564
21130.00000 0.87627
21140.00000 0.87553
21150.00000 0.87387
21160.00000 0.87186
21170.00000 0.87027
21180.00000 0.86699
21190.00000 0.8628
21200.00000 0.85975
21210.00000 0.855
21220.00000 0.85141
21230.00000 0.84805
21240.00000 0.8452
21250.00000 0.84293
21260.00000 0.84185
21270.00000 0.84069
21280.00000 0.84116
21290.00000 0.84169
21300.00000 0.84303
21310.00000 0.84488
21320.00000 0.847
21330.00000 0.85011
21340.00000 0.85276
21350.00000 0.85529
21360.00000 0.8585
21370.00000 0.86055
21380.00000 0.86213
21390.00000 0.86476
21400.00000 0.86542
21410.00000 0.86687
21420.00000 0.86814
21430.00000 0.86835
21440.00000 0.86912
21450.00000 0.86879
21460.00000 0.86956
21470.00000 0.86989
21480.00000 0.87061
21490.00000 0.87093
21500.00000 0.87147
21510.00000 0.87229
21520.00000 0.87289
21530.00000 0.87372
21540.00000 0.87389
21550.00000 0.87509
21560.00000 0.87513
21570.00000 0.8758
21580.00000 0.8761
21590.00000 0.87642
21600.00000 0.87644
21610.00000 0.87625
21620.00000 0.87559
21630.00000 0.87547
21640.00000 0.87487
21650.00000 0.87377
21660.00000 0.87334
21670.00000 0.87208
21680.00000 0.87155
21690.00000 0.86923
21700.00000 0.8689
21710.00000 0.8673
21720.00000 0.86527
21730.00000 0.8634
21740.00000 0.86043
21750.00000 0.8563
21760.00000 0.8536
21770.00000 0.8491
21780.00000 0.84418
21790.00000 0.83866
21800.00000 0.83281
21810.00000 0.82628
21820.00000 0.81972
21830.00000 0.81291
21840.00000 0.80615
21850.00000 0.80049
21860.00000 0.79283
21870.00000 0.78665
21880.00000 0.78056
21890.00000 0.77635
21900.00000 0.77171
21910.00000 0.76691
21920.00000 0.76423
21930.00000 0.76134
21940.00000 0.75988
21950.00000 0.75848
21960.00000 0.7581
21970.00000 0.7582
21980.00000 0.75844
21990.00000 0.75972
22000.00000 0.76027
22010.00000 0.76236
22020.00000 0.7641
22030.00000 0.7649
22040.00000 0.76624
22050.00000 0.76824
22060.00000 0.76938
22070.00000 0.77065
22080.00000 0.77238
22090.00000 0.77363
22100.00000 0.77523
22110.00000 0.77651
22120.00000 0.77777
22130.00000 0.77936
22140.00000 0.78026
22150.00000 0.7814
22160.00000 0.78307
22170.00000 0.78376
22180.00000 0.78439
22190.00000 0.78463
22200.00000 0.78421
22210.00000 0.78468
22220.00000 0.78473
22230.00000 0.78427
22240.00000 0.78383
22250.00000 0.78327
22260.00000 0.78195
22270.00000 0.78097
22280.00000 0.78011
22290.00000 0.77949
22300.00000 0.77782
22310.00000 0.77775
22320.00000 0.77719
22330.00000 0.77645
22340.00000 0.77606
22350.00000 0.77632
22360.00000 0.77536
22370.00000 0.77591
22380.00000 0.77579
22390.00000 0.77594
22400.00000 0.77624
22410.00000 0.77678
22420.00000 0.77611
22430.00000 0.77645
22440.00000 0.77671
22450.00000 0.77504
22460.00000 0.77494
22470.00000 0.77325
22480.00000 0.77168
22490.00000 0.77066
22500.00000 0.76788
22510.00000 0.76534
22520.00000 0.76302
22530.00000 0.76013
22540.00000 0.75752
22550.00000 0.75545
22560.00000 0.75296
22570.00000 0.75105
22580.00000 0.75032
22590.00000 0.7494
22600.00000 0.74947
22610.00000 0.74912
22620.00000 0.74857
22630.00000 0.74838
22640.00000 0.74754
22650.00000 0.74594
22660.00000 0.74369
22670.00000 0.74084
22680.00000 0.73669
22690.00000 0.73151
22700.00000 0.72465
22710.00000 0.71802
22720.00000 0.70991
22730.00000 0.70014
22740.00000 0.69101
22750.00000 0.68013
22760.00000 0.66924
22770.00000 0.65896
22780.00000 0.64902
22790.00000 0.63887
22800.00000 0.63067
22810.00000 0.62469
22820.00000 0.62112
22830.00000 0.62064
22840.00000 0.62606
22850.00000 0.63414
22860.00000 0.64438
22870.00000 0.65955
22880.00000 0.67623
22890.00000 0.69236
22900.00000 0.70899
22910.00000 0.72491
22920.00000 0.73912
22930.00000 0.75223
22940.00000 0.76356
22950.00000 0.77421
22960.00000 0.7828
22970.00000 0.79052
22980.00000 0.79806
22990.00000 0.80387
23000.00000 0.81125
23010.00000 0.81768
23020.00000 0.8229
23030.00000 0.82899
23040.00000 0.83476
23050.00000 0.83871
23060.00000 0.84549
23070.00000 0.84887
23080.00000 0.85233
23090.00000 0.85794
23100.00000 0.85984
23110.00000 0.86279
23120.00000 0.86776
23130.00000 0.86811
23140.00000 0.87114
23150.00000 0.87407
23160.00000 0.87441
23170.00000 0.87477
23180.00000 0.87884
23190.00000 0.87841
23200.00000 0.87962
23210.00000 0.88187
23220.00000 0.88208
23230.00000 0.88352
23240.00000 0.88583
23250.00000 0.88574
23260.00000 0.88673
23270.00000 0.88907
23280.00000 0.88979
23290.00000 0.8905
23300.00000 0.89276
23310.00000 0.89241
23320.00000 0.89379
23330.00000 0.89425
23340.00000 0.89401
23350.00000 0.89473
23360.00000 0.89334
23370.00000 0.89114
23380.00000 0.89024
23390.00000 0.88727
23400.00000 0.88301
23410.00000 0.88066
23420.00000 0.87424
23430.00000 0.86869
23440.00000 0.86186
23450.00000 0.85344
23460.00000 0.84361
23470.00000 0.83326
23480.00000 0.82188
23490.00000 0.81002
23500.00000 0.79747
23510.00000 0.78234
23520.00000 0.76808
23530.00000 0.75435
23540.00000 0.73926
23550.00000 0.72531
23560.00000 0.71185
23570.00000 0.69898
23580.00000 0.68833
23590.00000 0.68156
23600.00000 0.67661
23610.00000 0.6778
23620.00000 0.68261
23630.00000 0.69127
23640.00000 0.70371
23650.00000 0.71785
23660.00000 0.73272
23670.00000 0.74752
23680.00000 0.76094
23690.00000 0.7744
23700.00000 0.78664
23710.00000 0.79858
23720.00000 0.80969
23730.00000 0.82029
23740.00000 0.83129
23750.00000 0.84157
23760.00000 0.85152
23770.00000 0.85989
23780.00000 0.86491
23790.00000 0.86482
23800.00000 0.85734
23810.00000 0.84009
23820.00000 0.81042
23830.00000 0.76584
23840.00000 0.7093
23850.00000 0.64096
23860.00000 0.56317
23870.00000 0.49011
23880.00000 0.41676
23890.00000 0.34993
23900.00000 0.29152
23910.00000 0.24277
23920.00000 0.20144
23930.00000 0.16726
23940.00000 0.14066
23950.00000 0.11785
23960.00000 0.09902
23970.00000 0.0834
23980.00000 0.07056
23990.00000 0.06024
24000.00000 0.05131
24010.00000 0.04419
24020.00000 0.03776
24030.00000 0.03252
24040.00000 0.02781
24050.00000 0.02421
24060.00000 0.02106
24070.00000 0.01885
24080.00000 0.01576
24090.00000 0.01363
24100.00000 0.01195
24110.00000 0.01042
24120.00000 0.00913
24130.00000 0.0076
24140.00000 0.00695
24150.00000 0.00619
24160.00000 0.00585
24170.00000 0.00444
26587.00000 0.0
