# %ECSV 0.9
# ---
# datatype:
# - {name: wavelength, unit: Angstrom, datatype: float32}
# - {name: response, datatype: float32}
# meta: !!omap
# - {band_name: Y}
# - {group_name: Omega2000}
wavelength response
8736.29980 0.0
9707.00000 0.00102
9710.00000 0.00217
9713.00000 0.00103
9716.00000 0.00132
9719.00000 0.00106
9722.00000 0.00089
9725.00000 0.00162
9728.00000 0.00155
9731.00000 0.00201
9734.00000 0.0025
9737.00000 0.00118
9740.00000 0.00205
9743.00000 0.00211
9746.00000 0.00204
9749.00000 0.00193
9752.00000 0.00191
9755.00000 0.0022
9758.00000 0.00335
9761.00000 0.00246
9764.00000 0.00353
9767.00000 0.00294
9770.00000 0.00307
9773.00000 0.00363
9776.00000 0.00356
9779.00000 0.0032
9782.00000 0.00439
9785.00000 0.0043
9788.00000 0.00475
9791.00000 0.00525
9794.00000 0.00518
9797.00000 0.00544
9800.00000 0.0062
9803.00000 0.00659
9806.00000 0.00685
9809.00000 0.00708
9812.00000 0.00764
9815.00000 0.0088
9818.00000 0.00867
9821.00000 0.01004
9824.00000 0.01046
9827.00000 0.01155
9830.00000 0.01121
9833.00000 0.01294
9836.00000 0.01411
9839.00000 0.01518
9842.00000 0.01605
9845.00000 0.0163
9848.00000 0.01883
9851.00000 0.02003
9854.00000 0.02104
9857.00000 0.0233
9860.00000 0.02525
9863.00000 0.02737
9866.00000 0.02895
9869.00000 0.03122
9872.00000 0.03441
9875.00000 0.03692
9878.00000 0.04083
9881.00000 0.04508
9884.00000 0.04866
9887.00000 0.05257
9890.00000 0.05733
9893.00000 0.06257
9896.00000 0.06735
9899.00000 0.07412
9902.00000 0.08212
9905.00000 0.08798
9908.00000 0.09687
9911.00000 0.10667
9914.00000 0.11625
9917.00000 0.12675
9920.00000 0.14046
9923.00000 0.15377
9926.00000 0.1663
9929.00000 0.18507
9932.00000 0.20223
9935.00000 0.21968
9938.00000 0.24087
9941.00000 0.26491
9944.00000 0.28733
9947.00000 0.3116
9950.00000 0.343
9953.00000 0.37154
9956.00000 0.39772
9959.00000 0.43331
9962.00000 0.4666
9965.00000 0.49516
9968.00000 0.53403
9971.00000 0.57075
9974.00000 0.59936
9977.00000 0.63289
9980.00000 0.66698
9983.00000 0.6939
9986.00000 0.7204
9989.00000 0.74847
9992.00000 0.77066
9995.00000 0.78646
9998.00000 0.80573
10001.00000 0.81889
10004.00000 0.82857
10007.00000 0.83763
10010.00000 0.84265
10013.00000 0.84604
10016.00000 0.8472
10019.00000 0.84643
10022.00000 0.84368
10025.00000 0.84263
10028.00000 0.83748
10031.00000 0.83261
10034.00000 0.82812
10037.00000 0.82182
10040.00000 0.81633
10043.00000 0.81075
10046.00000 0.80583
10049.00000 0.79941
10052.00000 0.7945
10055.00000 0.7893
10058.00000 0.78369
10061.00000 0.77969
10064.00000 0.77641
10067.00000 0.77179
10070.00000 0.76892
10073.00000 0.76541
10076.00000 0.76257
10079.00000 0.76084
10082.00000 0.75912
10085.00000 0.75795
10088.00000 0.75687
10091.00000 0.75647
10094.00000 0.75508
10097.00000 0.7557
10100.00000 0.75707
10103.00000 0.75734
10106.00000 0.75957
10109.00000 0.76097
10112.00000 0.76225
10115.00000 0.76583
10118.00000 0.76878
10121.00000 0.77049
10124.00000 0.77392
10127.00000 0.77729
10130.00000 0.77946
10133.00000 0.78285
10136.00000 0.78651
10139.00000 0.79002
10142.00000 0.79343
10145.00000 0.7981
10148.00000 0.80207
10151.00000 0.80509
10154.00000 0.80934
10157.00000 0.81316
10160.00000 0.81763
10163.00000 0.82087
10166.00000 0.82578
10169.00000 0.82914
10172.00000 0.83189
10175.00000 0.83521
10178.00000 0.83813
10181.00000 0.84042
10184.00000 0.84331
10187.00000 0.84708
10190.00000 0.84831
10193.00000 0.85137
10196.00000 0.85278
10199.00000 0.85521
10202.00000 0.85682
10205.00000 0.86008
10208.00000 0.86218
10211.00000 0.86261
10214.00000 0.86448
10217.00000 0.8657
10220.00000 0.86529
10223.00000 0.86656
10226.00000 0.86856
10229.00000 0.8692
10232.00000 0.8685
10235.00000 0.87017
10238.00000 0.86904
10241.00000 0.8704
10244.00000 0.86968
10247.00000 0.87066
10250.00000 0.87105
10253.00000 0.87035
10256.00000 0.87123
10259.00000 0.87267
10262.00000 0.87276
10265.00000 0.87417
10268.00000 0.87473
10271.00000 0.87466
10274.00000 0.8753
10277.00000 0.87637
10280.00000 0.87729
10283.00000 0.87909
10286.00000 0.87914
10289.00000 0.88082
10292.00000 0.88109
10295.00000 0.88255
10298.00000 0.88267
10301.00000 0.88361
10304.00000 0.88577
10307.00000 0.88735
10310.00000 0.88815
10313.00000 0.89044
10316.00000 0.89157
10319.00000 0.89229
10322.00000 0.89455
10325.00000 0.89592
10328.00000 0.89715
10331.00000 0.89773
10334.00000 0.89961
10337.00000 0.90015
10340.00000 0.90264
10343.00000 0.90251
10346.00000 0.90329
10349.00000 0.90417
10352.00000 0.90461
10355.00000 0.90532
10358.00000 0.90588
10361.00000 0.90584
10364.00000 0.90647
10367.00000 0.90686
10370.00000 0.90665
10373.00000 0.90635
10376.00000 0.9057
10379.00000 0.90427
10382.00000 0.90328
10385.00000 0.90216
10388.00000 0.90051
10391.00000 0.8993
10394.00000 0.89754
10397.00000 0.89568
10400.00000 0.89458
10403.00000 0.89204
10406.00000 0.89022
10409.00000 0.88873
10412.00000 0.88571
10415.00000 0.88371
10418.00000 0.88198
10421.00000 0.8789
10424.00000 0.87658
10427.00000 0.87523
10430.00000 0.87246
10433.00000 0.86996
10436.00000 0.86663
10439.00000 0.86471
10442.00000 0.86223
10445.00000 0.86019
10448.00000 0.85746
10451.00000 0.8558
10454.00000 0.85334
10457.00000 0.8521
10460.00000 0.8495
10463.00000 0.84806
10466.00000 0.84779
10469.00000 0.84634
10472.00000 0.84343
10475.00000 0.84423
10478.00000 0.84209
10481.00000 0.84063
10484.00000 0.84063
10487.00000 0.84062
10490.00000 0.83901
10493.00000 0.83977
10496.00000 0.83847
10499.00000 0.83886
10502.00000 0.83896
10505.00000 0.84036
10508.00000 0.84034
10511.00000 0.84149
10514.00000 0.84291
10517.00000 0.84316
10520.00000 0.8453
10523.00000 0.84605
10526.00000 0.84679
10529.00000 0.84966
10532.00000 0.85157
10535.00000 0.8523
10538.00000 0.85497
10541.00000 0.85656
10544.00000 0.85731
10547.00000 0.86104
10550.00000 0.86345
10553.00000 0.86562
10556.00000 0.8683
10559.00000 0.86887
10562.00000 0.87262
10565.00000 0.87501
10568.00000 0.87628
10571.00000 0.8796
10574.00000 0.88241
10577.00000 0.88289
10580.00000 0.88567
10583.00000 0.88711
10586.00000 0.88909
10589.00000 0.89114
10592.00000 0.89292
10595.00000 0.89489
10598.00000 0.8954
10601.00000 0.89714
10604.00000 0.89748
10607.00000 0.89647
10610.00000 0.8977
10613.00000 0.89798
10616.00000 0.89575
10619.00000 0.89337
10622.00000 0.8926
10625.00000 0.89
10628.00000 0.88684
10631.00000 0.88485
10634.00000 0.87987
10637.00000 0.87549
10640.00000 0.86864
10643.00000 0.86144
10646.00000 0.85377
10649.00000 0.8446
10652.00000 0.83631
10655.00000 0.82499
10658.00000 0.81058
10661.00000 0.79781
10664.00000 0.78438
10667.00000 0.76601
10670.00000 0.74903
10673.00000 0.73301
10676.00000 0.70999
10679.00000 0.69028
10682.00000 0.6696
10685.00000 0.64523
10688.00000 0.61903
10691.00000 0.59677
10694.00000 0.57208
10697.00000 0.54229
10700.00000 0.51739
10703.00000 0.4943
10706.00000 0.46337
10709.00000 0.43811
10712.00000 0.41467
10715.00000 0.38722
10718.00000 0.36154
10721.00000 0.34069
10724.00000 0.31837
10727.00000 0.29359
10730.00000 0.27466
10733.00000 0.2561
10736.00000 0.23572
10739.00000 0.21845
10742.00000 0.20479
10745.00000 0.18607
10748.00000 0.1716
10751.00000 0.15967
10754.00000 0.14704
10757.00000 0.13397
10760.00000 0.12475
10763.00000 0.11416
10766.00000 0.1047
10769.00000 0.09716
10772.00000 0.08997
10775.00000 0.08185
10778.00000 0.07538
10781.00000 0.06994
10784.00000 0.06459
10787.00000 0.05949
10790.00000 0.05447
10793.00000 0.05071
10796.00000 0.04555
10799.00000 0.04225
10802.00000 0.04018
10805.00000 0.0357
10808.00000 0.03335
10811.00000 0.03154
10814.00000 0.02873
10817.00000 0.02681
10820.00000 0.02521
10823.00000 0.02308
10826.00000 0.02113
10829.00000 0.01926
10832.00000 0.01844
10835.00000 0.01721
10838.00000 0.01585
10841.00000 0.01474
10844.00000 0.01381
10847.00000 0.01307
10850.00000 0.01232
10853.00000 0.01108
10856.00000 0.0104
10859.00000 0.00951
10862.00000 0.0091
10865.00000 0.00894
10868.00000 0.00735
10871.00000 0.00725
10874.00000 0.00705
10877.00000 0.00698
10880.00000 0.00556
10883.00000 0.00564
10886.00000 0.00535
10889.00000 0.00553
10892.00000 0.00475
10895.00000 0.00457
10898.00000 0.00401
10901.00000 0.00365
10904.00000 0.00392
10907.00000 0.00327
10910.00000 0.00332
10913.00000 0.00284
10916.00000 0.00249
10919.00000 0.00241
10922.00000 0.00184
10925.00000 0.00261
10928.00000 0.00246
10931.00000 0.00179
10934.00000 0.00216
10937.00000 0.00202
10940.00000 0.00131
10943.00000 0.00194
10946.00000 0.00156
10949.00000 0.00144
10952.00000 0.00148
10955.00000 0.00158
10958.00000 0.00145
10961.00000 0.00143
10964.00000 0.00121
12060.40039 0.0
