# %ECSV 0.9
# ---
# datatype:
# - {name: wavelength, unit: Angstrom, datatype: float32}
# - {name: response, datatype: float32}
# meta: !!omap
# - {band_name: SiC}
# - {group_name: LWS}
wavelength response
89361.00000 0.0
99290.00000 0.0031477
99300.00000 0.0031666
99310.00000 0.0031925
99320.00000 0.0032244
99330.00000 0.0032615
99340.00000 0.0033034
99350.00000 0.0033498
99360.00000 0.0034009
99370.00000 0.0034584
99380.00000 0.0035205
99390.00000 0.0035852
99400.00000 0.0036503
99410.00000 0.0037152
99420.00000 0.003783
99430.00000 0.0038518
99440.00000 0.0039194
99450.00000 0.0039836
99460.00000 0.0040431
99470.00000 0.0041001
99480.00000 0.0041543
99490.00000 0.0042056
99500.00000 0.0042536
99510.00000 0.0042978
99520.00000 0.0043378
99530.00000 0.0043748
99540.00000 0.0044101
99550.00000 0.0044451
99560.00000 0.0044796
99570.00000 0.004512
99580.00000 0.0045437
99590.00000 0.004576
99600.00000 0.0046103
99610.00000 0.004647
99620.00000 0.004685
99630.00000 0.0047244
99640.00000 0.0047651
99650.00000 0.0048072
99660.00000 0.0048513
99670.00000 0.0048975
99680.00000 0.0049449
99690.00000 0.0049925
99700.00000 0.0050394
99710.00000 0.0050857
99720.00000 0.0051323
99730.00000 0.0051785
99740.00000 0.0052236
99750.00000 0.0052669
99760.00000 0.005308
99770.00000 0.0053474
99780.00000 0.0053854
99790.00000 0.0054226
99800.00000 0.0054593
99810.00000 0.0054953
99820.00000 0.0055305
99830.00000 0.0055649
99840.00000 0.005599
99850.00000 0.0056328
99860.00000 0.0056672
99870.00000 0.0057021
99880.00000 0.0057362
99890.00000 0.0057686
99900.00000 0.0057981
99910.00000 0.0058245
99920.00000 0.0058488
99930.00000 0.0058709
99940.00000 0.0058909
99950.00000 0.0059089
99960.00000 0.0059228
99970.00000 0.0059324
99980.00000 0.005941
99990.00000 0.005952
100000.00000 0.0059686
100010.00000 0.0059886
100020.00000 0.0060101
100030.00000 0.0060359
100040.00000 0.0060694
100050.00000 0.0061136
100060.00000 0.0061716
100070.00000 0.0062412
100080.00000 0.006318
100090.00000 0.0063974
100100.00000 0.0064752
100110.00000 0.0065585
100120.00000 0.0066507
100130.00000 0.0067405
100140.00000 0.0068165
100150.00000 0.0068676
100160.00000 0.0068978
100170.00000 0.0069155
100180.00000 0.0069132
100190.00000 0.0068838
100200.00000 0.00682
100210.00000 0.0067171
100220.00000 0.0065796
100230.00000 0.0064143
100240.00000 0.0062277
100250.00000 0.0060263
100260.00000 0.0058015
100270.00000 0.0055463
100280.00000 0.0052766
100290.00000 0.0050082
100300.00000 0.0047572
100310.00000 0.0045206
100320.00000 0.0042845
100330.00000 0.0040587
100340.00000 0.0038532
100350.00000 0.003678
100360.00000 0.0035379
100370.00000 0.0034264
100380.00000 0.0033387
100390.00000 0.0032699
100400.00000 0.0032154
100410.00000 0.0031784
100420.00000 0.0031659
100430.00000 0.0031685
100440.00000 0.0031768
100450.00000 0.0031812
100460.00000 0.0031775
100470.00000 0.003173
100480.00000 0.0031694
100490.00000 0.0031679
100500.00000 0.00317
100510.00000 0.0031713
100520.00000 0.0031651
100530.00000 0.0031626
100540.00000 0.0031758
100550.00000 0.0032166
100560.00000 0.003289
100570.00000 0.0033793
100580.00000 0.0034927
100590.00000 0.0036358
100600.00000 0.0038153
100610.00000 0.004038
100620.00000 0.0043044
100630.00000 0.0046054
100640.00000 0.0049315
100650.00000 0.0052732
100660.00000 0.0056283
100670.00000 0.0060169
100680.00000 0.0064255
100690.00000 0.0068367
100700.00000 0.007233
100710.00000 0.0076029
100720.00000 0.0079676
100730.00000 0.0083225
100740.00000 0.008658
100750.00000 0.0089642
100760.00000 0.0092322
100770.00000 0.0094657
100780.00000 0.00967
100790.00000 0.0098495
100800.00000 0.0100087
100810.00000 0.0101505
100820.00000 0.0102628
100830.00000 0.0103509
100840.00000 0.0104257
100850.00000 0.0104983
100860.00000 0.0105784
100870.00000 0.0106543
100880.00000 0.0107254
100890.00000 0.0107985
100900.00000 0.0108808
100910.00000 0.0109789
100920.00000 0.0110906
100930.00000 0.0112124
100940.00000 0.011344
100950.00000 0.0114847
100960.00000 0.0116344
100970.00000 0.0117957
100980.00000 0.0119682
100990.00000 0.0121486
101000.00000 0.0123334
101010.00000 0.0125191
101020.00000 0.0127082
101030.00000 0.0129031
101040.00000 0.0131003
101050.00000 0.0132965
101060.00000 0.0134881
101070.00000 0.0136757
101080.00000 0.0138627
101090.00000 0.0140468
101100.00000 0.0142257
101110.00000 0.0143969
101120.00000 0.0145599
101130.00000 0.0147172
101140.00000 0.0148679
101150.00000 0.0150112
101160.00000 0.0151463
101170.00000 0.0152717
101180.00000 0.0153867
101190.00000 0.0154937
101200.00000 0.0155952
101210.00000 0.015694
101220.00000 0.0157909
101230.00000 0.0158804
101240.00000 0.0159658
101250.00000 0.0160514
101260.00000 0.0161417
101270.00000 0.01624
101280.00000 0.0163407
101290.00000 0.0164448
101300.00000 0.0165549
101310.00000 0.0166741
101320.00000 0.016805
101330.00000 0.0169469
101340.00000 0.0170983
101350.00000 0.017258
101360.00000 0.017425
101370.00000 0.0175983
101380.00000 0.0177811
101390.00000 0.0179729
101400.00000 0.0181703
101410.00000 0.01837
101420.00000 0.0185685
101430.00000 0.0187681
101440.00000 0.018971
101450.00000 0.0191744
101460.00000 0.0193755
101470.00000 0.0195714
101480.00000 0.0197618
101490.00000 0.019949
101500.00000 0.0201327
101510.00000 0.0203123
101520.00000 0.0204875
101530.00000 0.0206577
101540.00000 0.0208228
101550.00000 0.0209836
101560.00000 0.021141
101570.00000 0.0212957
101580.00000 0.0214484
101590.00000 0.0215982
101600.00000 0.0217451
101610.00000 0.0218892
101620.00000 0.0220308
101630.00000 0.0221699
101640.00000 0.0223065
101650.00000 0.0224406
101660.00000 0.0225719
101670.00000 0.0227003
101680.00000 0.0228256
101690.00000 0.0229464
101700.00000 0.0230635
101710.00000 0.0231785
101720.00000 0.0232931
101730.00000 0.0234087
101740.00000 0.0235222
101750.00000 0.023633
101760.00000 0.0237449
101770.00000 0.023862
101780.00000 0.0239882
101790.00000 0.0241221
101800.00000 0.0242594
101810.00000 0.024404
101820.00000 0.0245599
101830.00000 0.024731
101840.00000 0.0249191
101850.00000 0.0251204
101860.00000 0.0253352
101870.00000 0.0255641
101880.00000 0.0258075
101890.00000 0.0260669
101900.00000 0.0263446
101910.00000 0.0266376
101920.00000 0.0269421
101930.00000 0.0272541
101940.00000 0.0275708
101950.00000 0.0278992
101960.00000 0.0282378
101970.00000 0.0285808
101980.00000 0.0289227
101990.00000 0.0292579
102000.00000 0.0295911
102010.00000 0.0299246
102020.00000 0.0302547
102030.00000 0.0305777
102040.00000 0.0308899
102050.00000 0.0311906
102060.00000 0.0314826
102070.00000 0.0317664
102080.00000 0.0320422
102090.00000 0.0323103
102100.00000 0.0325698
102110.00000 0.0328186
102120.00000 0.0330596
102130.00000 0.0332958
102140.00000 0.0335302
102150.00000 0.0337644
102160.00000 0.0339934
102170.00000 0.0342191
102180.00000 0.0344448
102190.00000 0.0346742
102200.00000 0.0349102
102210.00000 0.0351496
102220.00000 0.0353918
102230.00000 0.0356384
102240.00000 0.0358907
102250.00000 0.0361503
102260.00000 0.0364171
102270.00000 0.0366901
102280.00000 0.0369692
102290.00000 0.0372542
102300.00000 0.037545
102310.00000 0.037842
102320.00000 0.0381458
102330.00000 0.0384554
102340.00000 0.0387699
102350.00000 0.0390882
102360.00000 0.0394097
102370.00000 0.0397353
102380.00000 0.040065
102390.00000 0.040399
102400.00000 0.0407372
102410.00000 0.0410797
102420.00000 0.0414261
102430.00000 0.0417765
102440.00000 0.0421314
102450.00000 0.0424913
102460.00000 0.0428564
102470.00000 0.0432262
102480.00000 0.0436006
102490.00000 0.0439802
102500.00000 0.0443654
102510.00000 0.0447571
102520.00000 0.0451556
102530.00000 0.0455607
102540.00000 0.0459717
102550.00000 0.0463879
102560.00000 0.0468084
102570.00000 0.0472332
102580.00000 0.0476637
102590.00000 0.0480991
102600.00000 0.048538
102610.00000 0.0489792
102620.00000 0.0494216
102630.00000 0.0498676
102640.00000 0.0503166
102650.00000 0.050767
102660.00000 0.0512172
102670.00000 0.0516655
102680.00000 0.0521124
102690.00000 0.052559
102700.00000 0.053005
102710.00000 0.0534501
102720.00000 0.0538938
102730.00000 0.054336
102740.00000 0.0547768
102750.00000 0.0552164
102760.00000 0.0556553
102770.00000 0.0560938
102780.00000 0.056532
102790.00000 0.0569683
102800.00000 0.0574038
102810.00000 0.0578399
102820.00000 0.0582779
102830.00000 0.0587192
102840.00000 0.0591617
102850.00000 0.0596056
102860.00000 0.0600519
102870.00000 0.0605023
102880.00000 0.060958
102890.00000 0.0614181
102900.00000 0.0618815
102910.00000 0.0623494
102920.00000 0.0628234
102930.00000 0.0633048
102940.00000 0.0637945
102950.00000 0.0642908
102960.00000 0.0647939
102970.00000 0.0653043
102980.00000 0.0658222
102990.00000 0.0663481
103000.00000 0.0668817
103010.00000 0.0674229
103020.00000 0.0679716
103030.00000 0.0685276
103040.00000 0.0690909
103050.00000 0.0696619
103060.00000 0.0702408
103070.00000 0.0708268
103080.00000 0.0714192
103090.00000 0.0720175
103100.00000 0.0726217
103110.00000 0.0732325
103120.00000 0.0738496
103130.00000 0.0744722
103140.00000 0.0750997
103150.00000 0.0757317
103160.00000 0.0763697
103170.00000 0.0770131
103180.00000 0.0776608
103190.00000 0.0783116
103200.00000 0.0789643
103210.00000 0.0796203
103220.00000 0.0802801
103230.00000 0.0809425
103240.00000 0.081606
103250.00000 0.0822693
103260.00000 0.0829322
103270.00000 0.0835961
103280.00000 0.0842605
103290.00000 0.0849249
103300.00000 0.0855887
103310.00000 0.0862511
103320.00000 0.086912
103330.00000 0.0875722
103340.00000 0.0882322
103350.00000 0.0888929
103360.00000 0.089555
103370.00000 0.0902166
103380.00000 0.0908776
103390.00000 0.09154
103400.00000 0.0922056
103410.00000 0.0928765
103420.00000 0.0935526
103430.00000 0.0942313
103440.00000 0.094914
103450.00000 0.0956028
103460.00000 0.0962994
103470.00000 0.0970053
103480.00000 0.0977181
103490.00000 0.098438
103500.00000 0.0991662
103510.00000 0.0999036
103520.00000 0.100651
103530.00000 0.10141
103540.00000 0.102177
103550.00000 0.102955
103560.00000 0.103741
103570.00000 0.104537
103580.00000 0.105342
103590.00000 0.106156
103600.00000 0.10698
103610.00000 0.107813
103620.00000 0.108653
103630.00000 0.109502
103640.00000 0.11036
103650.00000 0.111227
103660.00000 0.112101
103670.00000 0.112982
103680.00000 0.113868
103690.00000 0.11476
103700.00000 0.115659
103710.00000 0.116563
103720.00000 0.117473
103730.00000 0.118387
103740.00000 0.119304
103750.00000 0.120227
103760.00000 0.121155
103770.00000 0.122086
103780.00000 0.123018
103790.00000 0.12395
103800.00000 0.124884
103810.00000 0.12582
103820.00000 0.126757
103830.00000 0.127695
103840.00000 0.128633
103850.00000 0.12957
103860.00000 0.130508
103870.00000 0.131446
103880.00000 0.132384
103890.00000 0.133321
103900.00000 0.134256
103910.00000 0.135189
103920.00000 0.136121
103930.00000 0.137053
103940.00000 0.137985
103950.00000 0.138919
103960.00000 0.139852
103970.00000 0.140786
103980.00000 0.14172
103990.00000 0.142657
104000.00000 0.143598
104010.00000 0.144544
104020.00000 0.145491
104030.00000 0.146441
104040.00000 0.147397
104050.00000 0.148361
104060.00000 0.149337
104070.00000 0.150322
104080.00000 0.151314
104090.00000 0.152316
104100.00000 0.153329
104110.00000 0.154355
104120.00000 0.155393
104130.00000 0.156444
104140.00000 0.157506
104150.00000 0.158579
104160.00000 0.159664
104170.00000 0.16076
104180.00000 0.161869
104190.00000 0.162991
104200.00000 0.164122
104210.00000 0.165261
104220.00000 0.166403
104230.00000 0.167551
104240.00000 0.168707
104250.00000 0.169869
104260.00000 0.171035
104270.00000 0.1722
104280.00000 0.173364
104290.00000 0.17453
104300.00000 0.175698
104310.00000 0.176865
104320.00000 0.178032
104330.00000 0.179196
104340.00000 0.180358
104350.00000 0.181517
104360.00000 0.182675
104370.00000 0.183833
104380.00000 0.184993
104390.00000 0.186155
104400.00000 0.187317
104410.00000 0.188479
104420.00000 0.189644
104430.00000 0.190813
104440.00000 0.19199
104450.00000 0.193171
104460.00000 0.194356
104470.00000 0.195547
104480.00000 0.196744
104490.00000 0.19795
104500.00000 0.199164
104510.00000 0.200387
104520.00000 0.201618
104530.00000 0.202855
104540.00000 0.204099
104550.00000 0.20535
104560.00000 0.206608
104570.00000 0.207873
104580.00000 0.209145
104590.00000 0.210421
104600.00000 0.2117
104610.00000 0.212981
104620.00000 0.214267
104630.00000 0.215557
104640.00000 0.216849
104650.00000 0.218141
104660.00000 0.219432
104670.00000 0.220723
104680.00000 0.222015
104690.00000 0.223306
104700.00000 0.224596
104710.00000 0.225884
104720.00000 0.22717
104730.00000 0.228454
104740.00000 0.229736
104750.00000 0.231017
104760.00000 0.232297
104770.00000 0.233575
104780.00000 0.234852
104790.00000 0.236126
104800.00000 0.2374
104810.00000 0.238674
104820.00000 0.239949
104830.00000 0.241224
104840.00000 0.242499
104850.00000 0.243774
104860.00000 0.24505
104870.00000 0.246329
104880.00000 0.24761
104890.00000 0.248894
104900.00000 0.250179
104910.00000 0.251467
104920.00000 0.252758
104930.00000 0.254052
104940.00000 0.25535
104950.00000 0.256651
104960.00000 0.257955
104970.00000 0.259263
104980.00000 0.260574
104990.00000 0.261889
105000.00000 0.263207
105010.00000 0.264529
105020.00000 0.265854
105030.00000 0.267183
105040.00000 0.268514
105050.00000 0.269849
105060.00000 0.271187
105070.00000 0.272528
105080.00000 0.273872
105090.00000 0.275218
105100.00000 0.276566
105110.00000 0.277918
105120.00000 0.279272
105130.00000 0.280628
105140.00000 0.281986
105150.00000 0.283346
105160.00000 0.284707
105170.00000 0.286071
105180.00000 0.287437
105190.00000 0.288803
105200.00000 0.290171
105210.00000 0.291539
105220.00000 0.292908
105230.00000 0.294279
105240.00000 0.29565
105250.00000 0.297021
105260.00000 0.298391
105270.00000 0.299761
105280.00000 0.301131
105290.00000 0.302501
105300.00000 0.30387
105310.00000 0.305237
105320.00000 0.306602
105330.00000 0.307966
105340.00000 0.309328
105350.00000 0.310689
105360.00000 0.312047
105370.00000 0.313402
105380.00000 0.314752
105390.00000 0.3161
105400.00000 0.317445
105410.00000 0.318785
105420.00000 0.320122
105430.00000 0.321453
105440.00000 0.322779
105450.00000 0.3241
105460.00000 0.325417
105470.00000 0.326729
105480.00000 0.328038
105490.00000 0.329342
105500.00000 0.330641
105510.00000 0.331935
105520.00000 0.333226
105530.00000 0.334515
105540.00000 0.335804
105550.00000 0.337091
105560.00000 0.338374
105570.00000 0.339657
105580.00000 0.34094
105590.00000 0.342226
105600.00000 0.343517
105610.00000 0.34481
105620.00000 0.346104
105630.00000 0.347402
105640.00000 0.348704
105650.00000 0.350011
105660.00000 0.351324
105670.00000 0.352642
105680.00000 0.353965
105690.00000 0.355292
105700.00000 0.356622
105710.00000 0.357953
105720.00000 0.35929
105730.00000 0.360631
105740.00000 0.361973
105750.00000 0.363316
105760.00000 0.364655
105770.00000 0.36599
105780.00000 0.367325
105790.00000 0.368658
105800.00000 0.369988
105810.00000 0.371312
105820.00000 0.372629
105830.00000 0.373938
105840.00000 0.375241
105850.00000 0.376538
105860.00000 0.377829
105870.00000 0.379113
105880.00000 0.38039
105890.00000 0.381659
105900.00000 0.38292
105910.00000 0.384175
105920.00000 0.385427
105930.00000 0.386676
105940.00000 0.387922
105950.00000 0.389162
105960.00000 0.390399
105970.00000 0.391634
105980.00000 0.39287
105990.00000 0.394107
106000.00000 0.395345
106010.00000 0.396583
106020.00000 0.397821
106030.00000 0.399061
106040.00000 0.400304
106050.00000 0.401551
106060.00000 0.402801
106070.00000 0.404053
106080.00000 0.405308
106090.00000 0.406564
106100.00000 0.407822
106110.00000 0.409081
106120.00000 0.410344
106130.00000 0.411608
106140.00000 0.412872
106150.00000 0.414135
106160.00000 0.415394
106170.00000 0.416653
106180.00000 0.417912
106190.00000 0.419169
106200.00000 0.420421
106210.00000 0.421667
106220.00000 0.422905
106230.00000 0.42414
106240.00000 0.42537
106250.00000 0.426594
106260.00000 0.427809
106270.00000 0.429015
106280.00000 0.430212
106290.00000 0.431401
106300.00000 0.432581
106310.00000 0.433753
106320.00000 0.434915
106330.00000 0.436066
106340.00000 0.437208
106350.00000 0.438339
106360.00000 0.439461
106370.00000 0.440574
106380.00000 0.441678
106390.00000 0.442773
106400.00000 0.443858
106410.00000 0.444933
106420.00000 0.446
106430.00000 0.447061
106440.00000 0.448116
106450.00000 0.449163
106460.00000 0.450203
106470.00000 0.451236
106480.00000 0.452264
106490.00000 0.453289
106500.00000 0.454313
106510.00000 0.455332
106520.00000 0.456347
106530.00000 0.45736
106540.00000 0.458372
106550.00000 0.459387
106560.00000 0.460404
106570.00000 0.461421
106580.00000 0.462439
106590.00000 0.463458
106600.00000 0.464481
106610.00000 0.465509
106620.00000 0.466541
106630.00000 0.467577
106640.00000 0.468616
106650.00000 0.469659
106660.00000 0.470705
106670.00000 0.471754
106680.00000 0.472809
106690.00000 0.473868
106700.00000 0.47493
106710.00000 0.475991
106720.00000 0.47705
106730.00000 0.478106
106740.00000 0.479163
106750.00000 0.48022
106760.00000 0.481274
106770.00000 0.482322
106780.00000 0.483362
106790.00000 0.484393
106800.00000 0.48542
106810.00000 0.486441
106820.00000 0.487454
106830.00000 0.488458
106840.00000 0.489451
106850.00000 0.490434
106860.00000 0.491407
106870.00000 0.492372
106880.00000 0.49333
106890.00000 0.494283
106900.00000 0.49523
106910.00000 0.496169
106920.00000 0.497101
106930.00000 0.498028
106940.00000 0.498953
106950.00000 0.499879
106960.00000 0.500805
106970.00000 0.501727
106980.00000 0.502648
106990.00000 0.50357
107000.00000 0.504495
107010.00000 0.505424
107020.00000 0.506358
107030.00000 0.507295
107040.00000 0.508234
107050.00000 0.509176
107060.00000 0.51012
107070.00000 0.511067
107080.00000 0.512016
107090.00000 0.512969
107100.00000 0.513924
107110.00000 0.514879
107120.00000 0.515834
107130.00000 0.516787
107140.00000 0.517742
107150.00000 0.518697
107160.00000 0.519651
107170.00000 0.520603
107180.00000 0.521551
107190.00000 0.522496
107200.00000 0.523438
107210.00000 0.524378
107220.00000 0.525315
107230.00000 0.52625
107240.00000 0.527182
107250.00000 0.528111
107260.00000 0.529038
107270.00000 0.529962
107280.00000 0.530884
107290.00000 0.531806
107300.00000 0.532727
107310.00000 0.533646
107320.00000 0.534563
107330.00000 0.53548
107340.00000 0.536397
107350.00000 0.537315
107360.00000 0.538235
107370.00000 0.539155
107380.00000 0.540076
107390.00000 0.540997
107400.00000 0.541919
107410.00000 0.542843
107420.00000 0.543767
107430.00000 0.544694
107440.00000 0.545621
107450.00000 0.546548
107460.00000 0.547476
107470.00000 0.548404
107480.00000 0.549331
107490.00000 0.55026
107500.00000 0.551189
107510.00000 0.552117
107520.00000 0.553044
107530.00000 0.553968
107540.00000 0.554892
107550.00000 0.555814
107560.00000 0.556734
107570.00000 0.557653
107580.00000 0.55857
107590.00000 0.559484
107600.00000 0.560397
107610.00000 0.561307
107620.00000 0.562216
107630.00000 0.563122
107640.00000 0.564026
107650.00000 0.564927
107660.00000 0.565827
107670.00000 0.566725
107680.00000 0.56762
107690.00000 0.568512
107700.00000 0.569402
107710.00000 0.570289
107720.00000 0.571174
107730.00000 0.572057
107740.00000 0.572936
107750.00000 0.57381
107760.00000 0.574678
107770.00000 0.575542
107780.00000 0.576402
107790.00000 0.577256
107800.00000 0.578105
107810.00000 0.578945
107820.00000 0.579777
107830.00000 0.580601
107840.00000 0.581417
107850.00000 0.582226
107860.00000 0.583028
107870.00000 0.583821
107880.00000 0.584606
107890.00000 0.585382
107900.00000 0.586148
107910.00000 0.586909
107920.00000 0.587664
107930.00000 0.588416
107940.00000 0.589166
107950.00000 0.589908
107960.00000 0.590646
107970.00000 0.591381
107980.00000 0.592117
107990.00000 0.592857
108000.00000 0.593599
108010.00000 0.594341
108020.00000 0.595084
108030.00000 0.59583
108040.00000 0.596578
108050.00000 0.59733
108060.00000 0.598087
108070.00000 0.598849
108080.00000 0.599613
108090.00000 0.600379
108100.00000 0.601144
108110.00000 0.601909
108120.00000 0.602675
108130.00000 0.603444
108140.00000 0.604212
108150.00000 0.604978
108160.00000 0.605738
108170.00000 0.606491
108180.00000 0.607239
108190.00000 0.607984
108200.00000 0.608724
108210.00000 0.609458
108220.00000 0.610184
108230.00000 0.610901
108240.00000 0.611611
108250.00000 0.612313
108260.00000 0.613009
108270.00000 0.613698
108280.00000 0.61438
108290.00000 0.615057
108300.00000 0.615725
108310.00000 0.616386
108320.00000 0.617042
108330.00000 0.617693
108340.00000 0.61834
108350.00000 0.618985
108360.00000 0.619624
108370.00000 0.62026
108380.00000 0.620891
108390.00000 0.621518
108400.00000 0.622142
108410.00000 0.622762
108420.00000 0.623379
108430.00000 0.623992
108440.00000 0.6246
108450.00000 0.625203
108460.00000 0.625801
108470.00000 0.626394
108480.00000 0.626982
108490.00000 0.627566
108500.00000 0.628143
108510.00000 0.628713
108520.00000 0.629276
108530.00000 0.62983
108540.00000 0.630378
108550.00000 0.630918
108560.00000 0.631452
108570.00000 0.63198
108580.00000 0.632502
108590.00000 0.633017
108600.00000 0.633525
108610.00000 0.634027
108620.00000 0.634525
108630.00000 0.63502
108640.00000 0.635514
108650.00000 0.636002
108660.00000 0.636486
108670.00000 0.636967
108680.00000 0.637448
108690.00000 0.637929
108700.00000 0.638413
108710.00000 0.638897
108720.00000 0.63938
108730.00000 0.639864
108740.00000 0.64035
108750.00000 0.640838
108760.00000 0.641329
108770.00000 0.641821
108780.00000 0.642315
108790.00000 0.642811
108800.00000 0.64331
108810.00000 0.643811
108820.00000 0.644315
108830.00000 0.644822
108840.00000 0.645331
108850.00000 0.645843
108860.00000 0.646357
108870.00000 0.646872
108880.00000 0.647389
108890.00000 0.647909
108900.00000 0.64843
108910.00000 0.648953
108920.00000 0.649478
108930.00000 0.650004
108940.00000 0.650532
108950.00000 0.651062
108960.00000 0.651593
108970.00000 0.652126
108980.00000 0.652658
108990.00000 0.653191
109000.00000 0.653723
109010.00000 0.654257
109020.00000 0.654791
109030.00000 0.655324
109040.00000 0.655857
109050.00000 0.656388
109060.00000 0.656917
109070.00000 0.657446
109080.00000 0.657974
109090.00000 0.658501
109100.00000 0.659024
109110.00000 0.659545
109120.00000 0.660062
109130.00000 0.660577
109140.00000 0.661089
109150.00000 0.661599
109160.00000 0.662105
109170.00000 0.662608
109180.00000 0.663108
109190.00000 0.663604
109200.00000 0.664097
109210.00000 0.664588
109220.00000 0.665076
109230.00000 0.665561
109240.00000 0.666044
109250.00000 0.666524
109260.00000 0.667001
109270.00000 0.667476
109280.00000 0.66795
109290.00000 0.668425
109300.00000 0.668899
109310.00000 0.669371
109320.00000 0.669842
109330.00000 0.670313
109340.00000 0.670784
109350.00000 0.671257
109360.00000 0.671731
109370.00000 0.672205
109380.00000 0.67268
109390.00000 0.673154
109400.00000 0.67363
109410.00000 0.674105
109420.00000 0.674581
109430.00000 0.675058
109440.00000 0.675535
109450.00000 0.676012
109460.00000 0.676486
109470.00000 0.676958
109480.00000 0.677428
109490.00000 0.677898
109500.00000 0.678366
109510.00000 0.678831
109520.00000 0.679291
109530.00000 0.679747
109540.00000 0.680199
109550.00000 0.680647
109560.00000 0.681091
109570.00000 0.681531
109580.00000 0.681967
109590.00000 0.682397
109600.00000 0.682822
109610.00000 0.683242
109620.00000 0.683658
109630.00000 0.684069
109640.00000 0.684477
109650.00000 0.684882
109660.00000 0.685283
109670.00000 0.68568
109680.00000 0.686073
109690.00000 0.686464
109700.00000 0.686854
109710.00000 0.687244
109720.00000 0.687632
109730.00000 0.688019
109740.00000 0.688405
109750.00000 0.688789
109760.00000 0.689174
109770.00000 0.68956
109780.00000 0.689946
109790.00000 0.690331
109800.00000 0.690717
109810.00000 0.691103
109820.00000 0.691489
109830.00000 0.691874
109840.00000 0.692259
109850.00000 0.692644
109860.00000 0.69303
109870.00000 0.693414
109880.00000 0.693797
109890.00000 0.694178
109900.00000 0.694556
109910.00000 0.694934
109920.00000 0.69531
109930.00000 0.695684
109940.00000 0.696056
109950.00000 0.696426
109960.00000 0.696793
109970.00000 0.697158
109980.00000 0.697521
109990.00000 0.697883
110000.00000 0.698243
110010.00000 0.698602
110020.00000 0.698959
110030.00000 0.699315
110040.00000 0.699669
110050.00000 0.700022
110060.00000 0.700376
110070.00000 0.700729
110080.00000 0.701083
110090.00000 0.701437
110100.00000 0.701791
110110.00000 0.702145
110120.00000 0.702498
110130.00000 0.702851
110140.00000 0.703205
110150.00000 0.703559
110160.00000 0.703913
110170.00000 0.704267
110180.00000 0.704619
110190.00000 0.70497
110200.00000 0.705319
110210.00000 0.705667
110220.00000 0.706014
110230.00000 0.706359
110240.00000 0.706702
110250.00000 0.70704
110260.00000 0.707375
110270.00000 0.707707
110280.00000 0.708037
110290.00000 0.708363
110300.00000 0.708685
110310.00000 0.709003
110320.00000 0.709317
110330.00000 0.709626
110340.00000 0.709931
110350.00000 0.710233
110360.00000 0.710531
110370.00000 0.710826
110380.00000 0.711118
110390.00000 0.711405
110400.00000 0.711689
110410.00000 0.711969
110420.00000 0.712248
110430.00000 0.712525
110440.00000 0.712802
110450.00000 0.713076
110460.00000 0.713348
110470.00000 0.713618
110480.00000 0.713889
110490.00000 0.71416
110500.00000 0.714432
110510.00000 0.714705
110520.00000 0.714978
110530.00000 0.715252
110540.00000 0.715526
110550.00000 0.715803
110560.00000 0.716083
110570.00000 0.716364
110580.00000 0.716647
110590.00000 0.716932
110600.00000 0.717219
110610.00000 0.717509
110620.00000 0.7178
110630.00000 0.718094
110640.00000 0.71839
110650.00000 0.718688
110660.00000 0.718988
110670.00000 0.71929
110680.00000 0.719593
110690.00000 0.719898
110700.00000 0.720205
110710.00000 0.720514
110720.00000 0.720824
110730.00000 0.721135
110740.00000 0.721448
110750.00000 0.721763
110760.00000 0.722079
110770.00000 0.722396
110780.00000 0.722714
110790.00000 0.723035
110800.00000 0.723358
110810.00000 0.723682
110820.00000 0.724009
110830.00000 0.724336
110840.00000 0.724666
110850.00000 0.724999
110860.00000 0.725335
110870.00000 0.725673
110880.00000 0.726014
110890.00000 0.726358
110900.00000 0.726705
110910.00000 0.727054
110920.00000 0.727407
110930.00000 0.727763
110940.00000 0.728123
110950.00000 0.728487
110960.00000 0.728853
110970.00000 0.729222
110980.00000 0.729593
110990.00000 0.729965
111000.00000 0.730341
111010.00000 0.73072
111020.00000 0.7311
111030.00000 0.731482
111040.00000 0.731864
111050.00000 0.732244
111060.00000 0.732624
111070.00000 0.733005
111080.00000 0.733386
111090.00000 0.733766
111100.00000 0.734144
111110.00000 0.73452
111120.00000 0.734893
111130.00000 0.735264
111140.00000 0.735634
111150.00000 0.736002
111160.00000 0.736368
111170.00000 0.736734
111180.00000 0.737099
111190.00000 0.737461
111200.00000 0.737822
111210.00000 0.738182
111220.00000 0.738543
111230.00000 0.738904
111240.00000 0.739268
111250.00000 0.739632
111260.00000 0.739996
111270.00000 0.740362
111280.00000 0.740728
111290.00000 0.741096
111300.00000 0.741467
111310.00000 0.741839
111320.00000 0.742214
111330.00000 0.742589
111340.00000 0.742966
111350.00000 0.743343
111360.00000 0.743721
111370.00000 0.744099
111380.00000 0.744479
111390.00000 0.744859
111400.00000 0.745239
111410.00000 0.745619
111420.00000 0.745997
111430.00000 0.746375
111440.00000 0.746753
111450.00000 0.747129
111460.00000 0.747506
111470.00000 0.747882
111480.00000 0.748258
111490.00000 0.748633
111500.00000 0.749007
111510.00000 0.749381
111520.00000 0.749754
111530.00000 0.750128
111540.00000 0.750501
111550.00000 0.750875
111560.00000 0.751249
111570.00000 0.751623
111580.00000 0.751997
111590.00000 0.752371
111600.00000 0.752745
111610.00000 0.753118
111620.00000 0.753492
111630.00000 0.753866
111640.00000 0.75424
111650.00000 0.754613
111660.00000 0.754986
111670.00000 0.755356
111680.00000 0.755726
111690.00000 0.756095
111700.00000 0.756463
111710.00000 0.756829
111720.00000 0.757195
111730.00000 0.75756
111740.00000 0.757923
111750.00000 0.758285
111760.00000 0.758645
111770.00000 0.759005
111780.00000 0.759365
111790.00000 0.759725
111800.00000 0.760086
111810.00000 0.760446
111820.00000 0.760806
111830.00000 0.761166
111840.00000 0.761527
111850.00000 0.76189
111860.00000 0.762254
111870.00000 0.76262
111880.00000 0.762987
111890.00000 0.763355
111900.00000 0.763725
111910.00000 0.764095
111920.00000 0.764467
111930.00000 0.764839
111940.00000 0.765213
111950.00000 0.765588
111960.00000 0.765964
111970.00000 0.76634
111980.00000 0.766716
111990.00000 0.767091
112000.00000 0.767467
112010.00000 0.767844
112020.00000 0.76822
112030.00000 0.768596
112040.00000 0.76897
112050.00000 0.769344
112060.00000 0.769717
112070.00000 0.770089
112080.00000 0.77046
112090.00000 0.77083
112100.00000 0.771199
112110.00000 0.771566
112120.00000 0.771932
112130.00000 0.772297
112140.00000 0.77266
112150.00000 0.773022
112160.00000 0.773382
112170.00000 0.77374
112180.00000 0.774096
112190.00000 0.77445
112200.00000 0.774802
112210.00000 0.775152
112220.00000 0.775501
112230.00000 0.775848
112240.00000 0.776193
112250.00000 0.776536
112260.00000 0.776877
112270.00000 0.777217
112280.00000 0.777556
112290.00000 0.777894
112300.00000 0.778231
112310.00000 0.778568
112320.00000 0.778903
112330.00000 0.779238
112340.00000 0.779572
112350.00000 0.779906
112360.00000 0.78024
112370.00000 0.780575
112380.00000 0.780911
112390.00000 0.781246
112400.00000 0.781581
112410.00000 0.781915
112420.00000 0.782246
112430.00000 0.782577
112440.00000 0.782908
112450.00000 0.783238
112460.00000 0.783566
112470.00000 0.78389
112480.00000 0.78421
112490.00000 0.784523
112500.00000 0.784834
112510.00000 0.78514
112520.00000 0.785442
112530.00000 0.785739
112540.00000 0.78603
112550.00000 0.786314
112560.00000 0.78659
112570.00000 0.786859
112580.00000 0.787122
112590.00000 0.78738
112600.00000 0.787633
112610.00000 0.787884
112620.00000 0.788131
112630.00000 0.78837
112640.00000 0.788606
112650.00000 0.788838
112660.00000 0.78907
112670.00000 0.789303
112680.00000 0.78954
112690.00000 0.789776
112700.00000 0.790012
112710.00000 0.790248
112720.00000 0.790487
112730.00000 0.790729
112740.00000 0.790976
112750.00000 0.791228
112760.00000 0.791483
112770.00000 0.791741
112780.00000 0.792003
112790.00000 0.792266
112800.00000 0.792531
112810.00000 0.792799
112820.00000 0.793069
112830.00000 0.793343
112840.00000 0.793618
112850.00000 0.793893
112860.00000 0.794168
112870.00000 0.79444
112880.00000 0.794712
112890.00000 0.794984
112900.00000 0.795256
112910.00000 0.795527
112920.00000 0.795797
112930.00000 0.796065
112940.00000 0.796332
112950.00000 0.796597
112960.00000 0.796862
112970.00000 0.797125
112980.00000 0.797388
112990.00000 0.797651
113000.00000 0.797914
113010.00000 0.798178
113020.00000 0.798441
113030.00000 0.798704
113040.00000 0.798965
113050.00000 0.799225
113060.00000 0.799482
113070.00000 0.79974
113080.00000 0.799999
113090.00000 0.800256
113100.00000 0.800509
113110.00000 0.800757
113120.00000 0.800996
113130.00000 0.801228
113140.00000 0.801456
113150.00000 0.801679
113160.00000 0.801894
113170.00000 0.802101
113180.00000 0.802297
113190.00000 0.802482
113200.00000 0.802655
113210.00000 0.802819
113220.00000 0.802972
113230.00000 0.803118
113240.00000 0.803255
113250.00000 0.803384
113260.00000 0.803503
113270.00000 0.80361
113280.00000 0.803708
113290.00000 0.8038
113300.00000 0.80389
113310.00000 0.803981
113320.00000 0.804073
113330.00000 0.804161
113340.00000 0.804246
113350.00000 0.80433
113360.00000 0.804416
113370.00000 0.804508
113380.00000 0.804606
113390.00000 0.80471
113400.00000 0.804818
113410.00000 0.804929
113420.00000 0.805046
113430.00000 0.805168
113440.00000 0.805295
113450.00000 0.80543
113460.00000 0.805573
113470.00000 0.805721
113480.00000 0.805875
113490.00000 0.806031
113500.00000 0.806187
113510.00000 0.806343
113520.00000 0.806502
113530.00000 0.806664
113540.00000 0.806827
113550.00000 0.80699
113560.00000 0.807151
113570.00000 0.807308
113580.00000 0.807462
113590.00000 0.807615
113600.00000 0.807766
113610.00000 0.807914
113620.00000 0.808059
113630.00000 0.808199
113640.00000 0.808333
113650.00000 0.808463
113660.00000 0.808589
113670.00000 0.80871
113680.00000 0.808828
113690.00000 0.80894
113700.00000 0.809048
113710.00000 0.809152
113720.00000 0.809253
113730.00000 0.809349
113740.00000 0.80944
113750.00000 0.809525
113760.00000 0.809605
113770.00000 0.809677
113780.00000 0.809745
113790.00000 0.809806
113800.00000 0.809862
113810.00000 0.809912
113820.00000 0.809955
113830.00000 0.80999
113840.00000 0.810019
113850.00000 0.810041
113860.00000 0.810057
113870.00000 0.810066
113880.00000 0.810068
113890.00000 0.810063
113900.00000 0.810052
113910.00000 0.810032
113920.00000 0.810006
113930.00000 0.809972
113940.00000 0.809934
113950.00000 0.809892
113960.00000 0.809847
113970.00000 0.809798
113980.00000 0.809744
113990.00000 0.809685
114000.00000 0.809623
114010.00000 0.809559
114020.00000 0.809492
114030.00000 0.809424
114040.00000 0.809354
114050.00000 0.809282
114060.00000 0.809208
114070.00000 0.809131
114080.00000 0.80905
114090.00000 0.808967
114100.00000 0.808882
114110.00000 0.808795
114120.00000 0.808707
114130.00000 0.808613
114140.00000 0.808514
114150.00000 0.808406
114160.00000 0.80829
114170.00000 0.808169
114180.00000 0.808043
114190.00000 0.80791
114200.00000 0.807767
114210.00000 0.807612
114220.00000 0.807443
114230.00000 0.807262
114240.00000 0.807071
114250.00000 0.806868
114260.00000 0.806653
114270.00000 0.806426
114280.00000 0.806183
114290.00000 0.805926
114300.00000 0.805653
114310.00000 0.805366
114320.00000 0.805065
114330.00000 0.804752
114340.00000 0.804428
114350.00000 0.804093
114360.00000 0.803745
114370.00000 0.803383
114380.00000 0.803008
114390.00000 0.802623
114400.00000 0.802232
114410.00000 0.801835
114420.00000 0.801436
114430.00000 0.801028
114440.00000 0.800612
114450.00000 0.80019
114460.00000 0.799766
114470.00000 0.799341
114480.00000 0.79892
114490.00000 0.798502
114500.00000 0.798081
114510.00000 0.797661
114520.00000 0.797241
114530.00000 0.796824
114540.00000 0.796411
114550.00000 0.796004
114560.00000 0.795602
114570.00000 0.795204
114580.00000 0.794809
114590.00000 0.794417
114600.00000 0.794028
114610.00000 0.793641
114620.00000 0.793256
114630.00000 0.792876
114640.00000 0.792499
114650.00000 0.792123
114660.00000 0.791748
114670.00000 0.79137
114680.00000 0.79099
114690.00000 0.790608
114700.00000 0.790226
114710.00000 0.789842
114720.00000 0.789457
114730.00000 0.789069
114740.00000 0.788678
114750.00000 0.788283
114760.00000 0.787883
114770.00000 0.787479
114780.00000 0.787072
114790.00000 0.786665
114800.00000 0.786259
114810.00000 0.785854
114820.00000 0.785449
114830.00000 0.78504
114840.00000 0.78463
114850.00000 0.784224
114860.00000 0.783824
114870.00000 0.783435
114880.00000 0.783058
114890.00000 0.782686
114900.00000 0.782319
114910.00000 0.781961
114920.00000 0.781615
114930.00000 0.781286
114940.00000 0.780976
114950.00000 0.780686
114960.00000 0.78041
114970.00000 0.780149
114980.00000 0.779905
114990.00000 0.779682
115000.00000 0.77948
115010.00000 0.779301
115020.00000 0.779146
115030.00000 0.779012
115040.00000 0.778899
115050.00000 0.778807
115060.00000 0.778735
115070.00000 0.778682
115080.00000 0.778649
115090.00000 0.778639
115100.00000 0.778651
115110.00000 0.778682
115120.00000 0.778729
115130.00000 0.778791
115140.00000 0.778865
115150.00000 0.778954
115160.00000 0.779061
115170.00000 0.779185
115180.00000 0.779321
115190.00000 0.779466
115200.00000 0.779617
115210.00000 0.779772
115220.00000 0.779936
115230.00000 0.78011
115240.00000 0.780291
115250.00000 0.780478
115260.00000 0.780666
115270.00000 0.780855
115280.00000 0.781044
115290.00000 0.781236
115300.00000 0.781431
115310.00000 0.781628
115320.00000 0.781824
115330.00000 0.782019
115340.00000 0.78221
115350.00000 0.782399
115360.00000 0.782586
115370.00000 0.782772
115380.00000 0.782957
115390.00000 0.78314
115400.00000 0.78332
115410.00000 0.783499
115420.00000 0.783675
115430.00000 0.78385
115440.00000 0.784022
115450.00000 0.784193
115460.00000 0.784362
115470.00000 0.78453
115480.00000 0.784695
115490.00000 0.784859
115500.00000 0.78502
115510.00000 0.785181
115520.00000 0.785339
115530.00000 0.785498
115540.00000 0.785655
115550.00000 0.785813
115560.00000 0.78597
115570.00000 0.786126
115580.00000 0.786281
115590.00000 0.786435
115600.00000 0.786588
115610.00000 0.786741
115620.00000 0.786892
115630.00000 0.787041
115640.00000 0.78719
115650.00000 0.787339
115660.00000 0.787488
115670.00000 0.787639
115680.00000 0.787791
115690.00000 0.787941
115700.00000 0.788092
115710.00000 0.788244
115720.00000 0.788398
115730.00000 0.788557
115740.00000 0.788721
115750.00000 0.788888
115760.00000 0.789057
115770.00000 0.789229
115780.00000 0.789406
115790.00000 0.789591
115800.00000 0.789783
115810.00000 0.789987
115820.00000 0.790199
115830.00000 0.790417
115840.00000 0.790644
115850.00000 0.790879
115860.00000 0.791124
115870.00000 0.791379
115880.00000 0.791644
115890.00000 0.791921
115900.00000 0.792208
115910.00000 0.792504
115920.00000 0.792808
115930.00000 0.793118
115940.00000 0.793433
115950.00000 0.793756
115960.00000 0.794088
115970.00000 0.794428
115980.00000 0.794773
115990.00000 0.79512
116000.00000 0.795466
116010.00000 0.79581
116020.00000 0.796153
116030.00000 0.7965
116040.00000 0.796847
116050.00000 0.797193
116060.00000 0.797535
116070.00000 0.797872
116080.00000 0.798201
116090.00000 0.798525
116100.00000 0.798845
116110.00000 0.79916
116120.00000 0.799471
116130.00000 0.799777
116140.00000 0.800077
116150.00000 0.800372
116160.00000 0.80066
116170.00000 0.800942
116180.00000 0.80122
116190.00000 0.801494
116200.00000 0.801766
116210.00000 0.802037
116220.00000 0.802305
116230.00000 0.802571
116240.00000 0.802833
116250.00000 0.803094
116260.00000 0.803353
116270.00000 0.803611
116280.00000 0.80387
116290.00000 0.804129
116300.00000 0.804387
116310.00000 0.804645
116320.00000 0.804902
116330.00000 0.805157
116340.00000 0.805409
116350.00000 0.805659
116360.00000 0.805908
116370.00000 0.806156
116380.00000 0.806401
116390.00000 0.806644
116400.00000 0.806883
116410.00000 0.807117
116420.00000 0.807345
116430.00000 0.80757
116440.00000 0.80779
116450.00000 0.808006
116460.00000 0.808218
116470.00000 0.808425
116480.00000 0.808628
116490.00000 0.808825
116500.00000 0.809016
116510.00000 0.809203
116520.00000 0.809385
116530.00000 0.809564
116540.00000 0.809739
116550.00000 0.809912
116560.00000 0.810081
116570.00000 0.810247
116580.00000 0.81041
116590.00000 0.810569
116600.00000 0.810726
116610.00000 0.810879
116620.00000 0.81103
116630.00000 0.811179
116640.00000 0.811326
116650.00000 0.811471
116660.00000 0.811611
116670.00000 0.811747
116680.00000 0.811876
116690.00000 0.812
116700.00000 0.812119
116710.00000 0.812235
116720.00000 0.812345
116730.00000 0.812449
116740.00000 0.812543
116750.00000 0.812628
116760.00000 0.812702
116770.00000 0.812768
116780.00000 0.812826
116790.00000 0.812874
116800.00000 0.812913
116810.00000 0.812942
116820.00000 0.812959
116830.00000 0.812965
116840.00000 0.812958
116850.00000 0.812941
116860.00000 0.812914
116870.00000 0.812878
116880.00000 0.812833
116890.00000 0.812781
116900.00000 0.812721
116910.00000 0.81265
116920.00000 0.81257
116930.00000 0.812482
116940.00000 0.81239
116950.00000 0.812293
116960.00000 0.812194
116970.00000 0.81209
116980.00000 0.811979
116990.00000 0.811864
117000.00000 0.811746
117010.00000 0.811625
117020.00000 0.811504
117030.00000 0.811385
117040.00000 0.811264
117050.00000 0.811141
117060.00000 0.811018
117070.00000 0.810893
117080.00000 0.810769
117090.00000 0.810645
117100.00000 0.810522
117110.00000 0.810398
117120.00000 0.810275
117130.00000 0.810151
117140.00000 0.810028
117150.00000 0.809905
117160.00000 0.809783
117170.00000 0.809661
117180.00000 0.80954
117190.00000 0.809418
117200.00000 0.809298
117210.00000 0.809178
117220.00000 0.809058
117230.00000 0.808939
117240.00000 0.808821
117250.00000 0.808703
117260.00000 0.808584
117270.00000 0.808467
117280.00000 0.808351
117290.00000 0.808236
117300.00000 0.808124
117310.00000 0.808014
117320.00000 0.807905
117330.00000 0.807797
117340.00000 0.807691
117350.00000 0.807588
117360.00000 0.807487
117370.00000 0.807389
117380.00000 0.807295
117390.00000 0.807202
117400.00000 0.807113
117410.00000 0.807026
117420.00000 0.806942
117430.00000 0.806863
117440.00000 0.806788
117450.00000 0.806717
117460.00000 0.80665
117470.00000 0.806586
117480.00000 0.806527
117490.00000 0.806471
117500.00000 0.80642
117510.00000 0.806373
117520.00000 0.80633
117530.00000 0.806292
117540.00000 0.806258
117550.00000 0.806228
117560.00000 0.806201
117570.00000 0.806178
117580.00000 0.806159
117590.00000 0.806144
117600.00000 0.806133
117610.00000 0.806126
117620.00000 0.806122
117630.00000 0.806121
117640.00000 0.806122
117650.00000 0.806123
117660.00000 0.806128
117670.00000 0.806136
117680.00000 0.806146
117690.00000 0.806157
117700.00000 0.80617
117710.00000 0.806183
117720.00000 0.806197
117730.00000 0.806212
117740.00000 0.806228
117750.00000 0.806245
117760.00000 0.806263
117770.00000 0.806281
117780.00000 0.806298
117790.00000 0.806315
117800.00000 0.806333
117810.00000 0.80635
117820.00000 0.806367
117830.00000 0.806384
117840.00000 0.806401
117850.00000 0.806416
117860.00000 0.806431
117870.00000 0.806446
117880.00000 0.80646
117890.00000 0.806474
117900.00000 0.806486
117910.00000 0.806498
117920.00000 0.806507
117930.00000 0.806514
117940.00000 0.806519
117950.00000 0.806524
117960.00000 0.806527
117970.00000 0.806528
117980.00000 0.806526
117990.00000 0.806522
118000.00000 0.806514
118010.00000 0.806504
118020.00000 0.806492
118030.00000 0.806477
118040.00000 0.80646
118050.00000 0.80644
118060.00000 0.806418
118070.00000 0.806393
118080.00000 0.806365
118090.00000 0.806333
118100.00000 0.806299
118110.00000 0.806264
118120.00000 0.806228
118130.00000 0.806192
118140.00000 0.806156
118150.00000 0.806117
118160.00000 0.806077
118170.00000 0.806037
118180.00000 0.805998
118190.00000 0.805961
118200.00000 0.805929
118210.00000 0.805901
118220.00000 0.805873
118230.00000 0.805847
118240.00000 0.805824
118250.00000 0.805806
118260.00000 0.805793
118270.00000 0.805786
118280.00000 0.805787
118290.00000 0.805793
118300.00000 0.805805
118310.00000 0.805822
118320.00000 0.805844
118330.00000 0.805873
118340.00000 0.805907
118350.00000 0.805948
118360.00000 0.805997
118370.00000 0.806053
118380.00000 0.806113
118390.00000 0.806178
118400.00000 0.806246
118410.00000 0.806315
118420.00000 0.806386
118430.00000 0.806464
118440.00000 0.806546
118450.00000 0.806629
118460.00000 0.806713
118470.00000 0.806793
118480.00000 0.806868
118490.00000 0.806937
118500.00000 0.807008
118510.00000 0.807077
118520.00000 0.807142
118530.00000 0.807201
118540.00000 0.80725
118550.00000 0.807288
118560.00000 0.807313
118570.00000 0.807332
118580.00000 0.807343
118590.00000 0.807343
118600.00000 0.807333
118610.00000 0.807309
118620.00000 0.80727
118630.00000 0.807214
118640.00000 0.807146
118650.00000 0.807065
118660.00000 0.80697
118670.00000 0.806861
118680.00000 0.806737
118690.00000 0.806599
118700.00000 0.806445
118710.00000 0.806276
118720.00000 0.806092
118730.00000 0.805894
118740.00000 0.805682
118750.00000 0.805457
118760.00000 0.805219
118770.00000 0.804969
118780.00000 0.804704
118790.00000 0.804425
118800.00000 0.804133
118810.00000 0.80383
118820.00000 0.803517
118830.00000 0.803196
118840.00000 0.802866
118850.00000 0.802523
118860.00000 0.802169
118870.00000 0.801805
118880.00000 0.801434
118890.00000 0.801058
118900.00000 0.80068
118910.00000 0.8003
118920.00000 0.799912
118930.00000 0.799516
118940.00000 0.799115
118950.00000 0.798715
118960.00000 0.798316
118970.00000 0.797924
118980.00000 0.797539
118990.00000 0.797155
119000.00000 0.79677
119010.00000 0.796389
119020.00000 0.796014
119030.00000 0.795652
119040.00000 0.795304
119050.00000 0.794976
119060.00000 0.794659
119070.00000 0.794353
119080.00000 0.794058
119090.00000 0.793779
119100.00000 0.793519
119110.00000 0.793279
119120.00000 0.793064
119130.00000 0.792869
119140.00000 0.792694
119150.00000 0.792538
119160.00000 0.792402
119170.00000 0.792286
119180.00000 0.792191
119190.00000 0.792116
119200.00000 0.792064
119210.00000 0.792036
119220.00000 0.792028
119230.00000 0.79204
119240.00000 0.792067
119250.00000 0.792108
119260.00000 0.792161
119270.00000 0.792229
119280.00000 0.792317
119290.00000 0.79242
119300.00000 0.792537
119310.00000 0.792662
119320.00000 0.792794
119330.00000 0.792928
119340.00000 0.793067
119350.00000 0.793216
119360.00000 0.793373
119370.00000 0.793536
119380.00000 0.793702
119390.00000 0.793867
119400.00000 0.79403
119410.00000 0.79419
119420.00000 0.794352
119430.00000 0.794515
119440.00000 0.794678
119450.00000 0.794839
119460.00000 0.794997
119470.00000 0.79515
119480.00000 0.795297
119490.00000 0.795443
119500.00000 0.795585
119510.00000 0.795724
119520.00000 0.795859
119530.00000 0.795988
119540.00000 0.796112
119550.00000 0.796229
119560.00000 0.796341
119570.00000 0.796448
119580.00000 0.79655
119590.00000 0.796646
119600.00000 0.796735
119610.00000 0.796817
119620.00000 0.796892
119630.00000 0.79696
119640.00000 0.797021
119650.00000 0.797075
119660.00000 0.797123
119670.00000 0.797164
119680.00000 0.797198
119690.00000 0.797225
119700.00000 0.797245
119710.00000 0.797256
119720.00000 0.797261
119730.00000 0.79726
119740.00000 0.797253
119750.00000 0.797243
119760.00000 0.797229
119770.00000 0.79721
119780.00000 0.797185
119790.00000 0.797155
119800.00000 0.797122
119810.00000 0.797086
119820.00000 0.79705
119830.00000 0.797014
119840.00000 0.796979
119850.00000 0.796941
119860.00000 0.796902
119870.00000 0.796863
119880.00000 0.796824
119890.00000 0.796785
119900.00000 0.796748
119910.00000 0.796713
119920.00000 0.796679
119930.00000 0.796646
119940.00000 0.796614
119950.00000 0.796582
119960.00000 0.796551
119970.00000 0.796519
119980.00000 0.796486
119990.00000 0.796455
120000.00000 0.796423
120010.00000 0.796392
120020.00000 0.796361
120030.00000 0.796328
120040.00000 0.796294
120050.00000 0.796257
120060.00000 0.796219
120070.00000 0.796179
120080.00000 0.796138
120090.00000 0.796095
120100.00000 0.796052
120110.00000 0.796009
120120.00000 0.795967
120130.00000 0.795923
120140.00000 0.795877
120150.00000 0.795831
120160.00000 0.795785
120170.00000 0.795741
120180.00000 0.795699
120190.00000 0.795661
120200.00000 0.795626
120210.00000 0.795593
120220.00000 0.795562
120230.00000 0.795534
120240.00000 0.795508
120250.00000 0.795487
120260.00000 0.795469
120270.00000 0.795456
120280.00000 0.795449
120290.00000 0.795447
120300.00000 0.795448
120310.00000 0.795451
120320.00000 0.795455
120330.00000 0.79546
120340.00000 0.795465
120350.00000 0.795472
120360.00000 0.795483
120370.00000 0.795495
120380.00000 0.795506
120390.00000 0.795515
120400.00000 0.795519
120410.00000 0.795518
120420.00000 0.795513
120430.00000 0.795506
120440.00000 0.795495
120450.00000 0.795481
120460.00000 0.795462
120470.00000 0.795438
120480.00000 0.795406
120490.00000 0.795368
120500.00000 0.795322
120510.00000 0.795271
120520.00000 0.795214
120530.00000 0.795153
120540.00000 0.795089
120550.00000 0.795021
120560.00000 0.794951
120570.00000 0.794875
120580.00000 0.794794
120590.00000 0.79471
120600.00000 0.794624
120610.00000 0.794537
120620.00000 0.794453
120630.00000 0.794371
120640.00000 0.794288
120650.00000 0.794205
120660.00000 0.794121
120670.00000 0.794039
120680.00000 0.79396
120690.00000 0.793885
120700.00000 0.793814
120710.00000 0.793748
120720.00000 0.793686
120730.00000 0.793626
120740.00000 0.79357
120750.00000 0.793518
120760.00000 0.79347
120770.00000 0.793426
120780.00000 0.793387
120790.00000 0.793353
120800.00000 0.793323
120810.00000 0.793297
120820.00000 0.793274
120830.00000 0.793255
120840.00000 0.793239
120850.00000 0.793225
120860.00000 0.793215
120870.00000 0.793209
120880.00000 0.793206
120890.00000 0.793205
120900.00000 0.793207
120910.00000 0.793209
120920.00000 0.793211
120930.00000 0.793215
120940.00000 0.793221
120950.00000 0.793229
120960.00000 0.793237
120970.00000 0.793246
120980.00000 0.793255
120990.00000 0.793262
121000.00000 0.793269
121010.00000 0.793277
121020.00000 0.793284
121030.00000 0.793292
121040.00000 0.793298
121050.00000 0.793303
121060.00000 0.793307
121070.00000 0.793308
121080.00000 0.793308
121090.00000 0.793307
121100.00000 0.793305
121110.00000 0.793301
121120.00000 0.793295
121130.00000 0.793287
121140.00000 0.793276
121150.00000 0.793263
121160.00000 0.793248
121170.00000 0.793231
121180.00000 0.793211
121190.00000 0.793189
121200.00000 0.793165
121210.00000 0.793139
121220.00000 0.79311
121230.00000 0.793078
121240.00000 0.793044
121250.00000 0.793007
121260.00000 0.792969
121270.00000 0.792929
121280.00000 0.792889
121290.00000 0.792847
121300.00000 0.792804
121310.00000 0.792758
121320.00000 0.792711
121330.00000 0.792664
121340.00000 0.792615
121350.00000 0.792567
121360.00000 0.792519
121370.00000 0.792471
121380.00000 0.792423
121390.00000 0.792374
121400.00000 0.792325
121410.00000 0.792276
121420.00000 0.792227
121430.00000 0.792178
121440.00000 0.792129
121450.00000 0.792081
121460.00000 0.792033
121470.00000 0.791986
121480.00000 0.791937
121490.00000 0.791888
121500.00000 0.791837
121510.00000 0.791785
121520.00000 0.791732
121530.00000 0.791678
121540.00000 0.791624
121550.00000 0.791568
121560.00000 0.791511
121570.00000 0.79145
121580.00000 0.791387
121590.00000 0.791321
121600.00000 0.791252
121610.00000 0.791182
121620.00000 0.791108
121630.00000 0.791033
121640.00000 0.790955
121650.00000 0.790875
121660.00000 0.790792
121670.00000 0.790705
121680.00000 0.790615
121690.00000 0.790523
121700.00000 0.790429
121710.00000 0.790334
121720.00000 0.790239
121730.00000 0.790143
121740.00000 0.790046
121750.00000 0.789946
121760.00000 0.789846
121770.00000 0.789745
121780.00000 0.789644
121790.00000 0.789545
121800.00000 0.789449
121810.00000 0.789355
121820.00000 0.789261
121830.00000 0.789168
121840.00000 0.789076
121850.00000 0.788986
121860.00000 0.788899
121870.00000 0.788814
121880.00000 0.788733
121890.00000 0.788655
121900.00000 0.788579
121910.00000 0.788506
121920.00000 0.788436
121930.00000 0.788367
121940.00000 0.788301
121950.00000 0.788236
121960.00000 0.788173
121970.00000 0.788114
121980.00000 0.788057
121990.00000 0.788002
122000.00000 0.787948
122010.00000 0.787894
122020.00000 0.78784
122030.00000 0.787784
122040.00000 0.78773
122050.00000 0.787677
122060.00000 0.787624
122070.00000 0.78757
122080.00000 0.787516
122090.00000 0.787458
122100.00000 0.787397
122110.00000 0.787335
122120.00000 0.78727
122130.00000 0.787204
122140.00000 0.787136
122150.00000 0.787066
122160.00000 0.786992
122170.00000 0.786914
122180.00000 0.786832
122190.00000 0.786746
122200.00000 0.786658
122210.00000 0.786566
122220.00000 0.78647
122230.00000 0.786372
122240.00000 0.786272
122250.00000 0.786168
122260.00000 0.786061
122270.00000 0.785949
122280.00000 0.785835
122290.00000 0.785718
122300.00000 0.7856
122310.00000 0.78548
122320.00000 0.78536
122330.00000 0.78524
122340.00000 0.785117
122350.00000 0.784992
122360.00000 0.784866
122370.00000 0.784741
122380.00000 0.784616
122390.00000 0.784492
122400.00000 0.784372
122410.00000 0.784253
122420.00000 0.784135
122430.00000 0.784018
122440.00000 0.783903
122450.00000 0.783789
122460.00000 0.783678
122470.00000 0.78357
122480.00000 0.783465
122490.00000 0.783363
122500.00000 0.783263
122510.00000 0.783166
122520.00000 0.783071
122530.00000 0.782978
122540.00000 0.782887
122550.00000 0.782797
122560.00000 0.78271
122570.00000 0.782625
122580.00000 0.782543
122590.00000 0.782462
122600.00000 0.782382
122610.00000 0.782301
122620.00000 0.782219
122630.00000 0.782135
122640.00000 0.782053
122650.00000 0.78197
122660.00000 0.781887
122670.00000 0.781803
122680.00000 0.781717
122690.00000 0.781629
122700.00000 0.781538
122710.00000 0.781444
122720.00000 0.781349
122730.00000 0.781252
122740.00000 0.781152
122750.00000 0.781051
122760.00000 0.780945
122770.00000 0.780837
122780.00000 0.780725
122790.00000 0.78061
122800.00000 0.780493
122810.00000 0.780372
122820.00000 0.780248
122830.00000 0.780121
122840.00000 0.779991
122850.00000 0.779857
122860.00000 0.77972
122870.00000 0.779581
122880.00000 0.779438
122890.00000 0.779292
122900.00000 0.779142
122910.00000 0.778989
122920.00000 0.778831
122930.00000 0.778668
122940.00000 0.778501
122950.00000 0.778331
122960.00000 0.778157
122970.00000 0.777978
122980.00000 0.777795
122990.00000 0.777608
123000.00000 0.777415
123010.00000 0.777217
123020.00000 0.777015
123030.00000 0.776808
123040.00000 0.776596
123050.00000 0.77638
123060.00000 0.77616
123070.00000 0.775935
123080.00000 0.775706
123090.00000 0.775472
123100.00000 0.775232
123110.00000 0.774988
123120.00000 0.77474
123130.00000 0.774489
123140.00000 0.774236
123150.00000 0.773982
123160.00000 0.773726
123170.00000 0.773467
123180.00000 0.773205
123190.00000 0.77294
123200.00000 0.772675
123210.00000 0.772409
123220.00000 0.772145
123230.00000 0.771882
123240.00000 0.771619
123250.00000 0.771356
123260.00000 0.771093
123270.00000 0.77083
123280.00000 0.770569
123290.00000 0.77031
123300.00000 0.770054
123310.00000 0.769801
123320.00000 0.769551
123330.00000 0.769304
123340.00000 0.769059
123350.00000 0.768816
123360.00000 0.768574
123370.00000 0.768334
123380.00000 0.768094
123390.00000 0.767857
123400.00000 0.767623
123410.00000 0.767392
123420.00000 0.767161
123430.00000 0.76693
123440.00000 0.766697
123450.00000 0.766462
123460.00000 0.766223
123470.00000 0.765984
123480.00000 0.765746
123490.00000 0.765506
123500.00000 0.765263
123510.00000 0.765016
123520.00000 0.764762
123530.00000 0.764502
123540.00000 0.764233
123550.00000 0.763959
123560.00000 0.763681
123570.00000 0.763397
123580.00000 0.763106
123590.00000 0.762808
123600.00000 0.762503
123610.00000 0.76219
123620.00000 0.761868
123630.00000 0.761538
123640.00000 0.7612
123650.00000 0.760856
123660.00000 0.760506
123670.00000 0.76015
123680.00000 0.75979
123690.00000 0.759426
123700.00000 0.759054
123710.00000 0.758675
123720.00000 0.758291
123730.00000 0.757903
123740.00000 0.757512
123750.00000 0.757121
123760.00000 0.756732
123770.00000 0.756342
123780.00000 0.75595
123790.00000 0.755555
123800.00000 0.755159
123810.00000 0.754764
123820.00000 0.754371
123830.00000 0.753981
123840.00000 0.753595
123850.00000 0.753212
123860.00000 0.752831
123870.00000 0.752452
123880.00000 0.752075
123890.00000 0.751701
123900.00000 0.751331
123910.00000 0.750963
123920.00000 0.7506
123930.00000 0.750241
123940.00000 0.749886
123950.00000 0.749534
123960.00000 0.749185
123970.00000 0.748838
123980.00000 0.748492
123990.00000 0.748146
124000.00000 0.747802
124010.00000 0.747461
124020.00000 0.747123
124030.00000 0.746786
124040.00000 0.746449
124050.00000 0.74611
124060.00000 0.745771
124070.00000 0.745428
124080.00000 0.745084
124090.00000 0.744739
124100.00000 0.744395
124110.00000 0.744048
124120.00000 0.743699
124130.00000 0.743346
124140.00000 0.742989
124150.00000 0.742627
124160.00000 0.742262
124170.00000 0.741893
124180.00000 0.741521
124190.00000 0.741144
124200.00000 0.740765
124210.00000 0.740381
124220.00000 0.739992
124230.00000 0.739599
124240.00000 0.739201
124250.00000 0.738799
124260.00000 0.738392
124270.00000 0.737982
124280.00000 0.737569
124290.00000 0.737152
124300.00000 0.736733
124310.00000 0.736311
124320.00000 0.735885
124330.00000 0.735455
124340.00000 0.735022
124350.00000 0.734588
124360.00000 0.734151
124370.00000 0.733714
124380.00000 0.733277
124390.00000 0.732839
124400.00000 0.732398
124410.00000 0.731955
124420.00000 0.731512
124430.00000 0.731069
124440.00000 0.730626
124450.00000 0.730184
124460.00000 0.729744
124470.00000 0.729304
124480.00000 0.728864
124490.00000 0.728425
124500.00000 0.727986
124510.00000 0.727549
124520.00000 0.727114
124530.00000 0.726682
124540.00000 0.726253
124550.00000 0.725824
124560.00000 0.725398
124570.00000 0.724974
124580.00000 0.724552
124590.00000 0.724133
124600.00000 0.723717
124610.00000 0.723304
124620.00000 0.722895
124630.00000 0.722489
124640.00000 0.722086
124650.00000 0.721686
124660.00000 0.721288
124670.00000 0.720894
124680.00000 0.720502
124690.00000 0.720113
124700.00000 0.719728
124710.00000 0.719346
124720.00000 0.718968
124730.00000 0.718592
124740.00000 0.718217
124750.00000 0.717844
124760.00000 0.717471
124770.00000 0.717098
124780.00000 0.716729
124790.00000 0.716361
124800.00000 0.715995
124810.00000 0.715629
124820.00000 0.715262
124830.00000 0.714892
124840.00000 0.714519
124850.00000 0.714142
124860.00000 0.713765
124870.00000 0.713386
124880.00000 0.713006
124890.00000 0.712623
124900.00000 0.712234
124910.00000 0.711841
124920.00000 0.711441
124930.00000 0.711035
124940.00000 0.710624
124950.00000 0.710208
124960.00000 0.709787
124970.00000 0.709362
124980.00000 0.70893
124990.00000 0.708494
125000.00000 0.708051
125010.00000 0.707602
125020.00000 0.707147
125030.00000 0.706686
125040.00000 0.706219
125050.00000 0.705749
125060.00000 0.705274
125070.00000 0.704797
125080.00000 0.704318
125090.00000 0.703834
125100.00000 0.703345
125110.00000 0.702852
125120.00000 0.702356
125130.00000 0.701859
125140.00000 0.701362
125150.00000 0.700866
125160.00000 0.700372
125170.00000 0.699877
125180.00000 0.699381
125190.00000 0.698885
125200.00000 0.698389
125210.00000 0.697895
125220.00000 0.697404
125230.00000 0.696917
125240.00000 0.696435
125250.00000 0.695955
125260.00000 0.695477
125270.00000 0.695001
125280.00000 0.69453
125290.00000 0.694062
125300.00000 0.693598
125310.00000 0.69314
125320.00000 0.692687
125330.00000 0.692238
125340.00000 0.691795
125350.00000 0.691355
125360.00000 0.69092
125370.00000 0.690488
125380.00000 0.690061
125390.00000 0.689638
125400.00000 0.689219
125410.00000 0.688805
125420.00000 0.688395
125430.00000 0.687989
125440.00000 0.687587
125450.00000 0.687188
125460.00000 0.686792
125470.00000 0.686399
125480.00000 0.686009
125490.00000 0.685623
125500.00000 0.68524
125510.00000 0.684861
125520.00000 0.684484
125530.00000 0.684109
125540.00000 0.683737
125550.00000 0.683367
125560.00000 0.682998
125570.00000 0.682632
125580.00000 0.682269
125590.00000 0.681908
125600.00000 0.681549
125610.00000 0.681193
125620.00000 0.680839
125630.00000 0.680488
125640.00000 0.680139
125650.00000 0.679793
125660.00000 0.67945
125670.00000 0.679108
125680.00000 0.678769
125690.00000 0.678433
125700.00000 0.678098
125710.00000 0.677765
125720.00000 0.677435
125730.00000 0.677107
125740.00000 0.676782
125750.00000 0.676459
125760.00000 0.676137
125770.00000 0.675816
125780.00000 0.675497
125790.00000 0.675178
125800.00000 0.674861
125810.00000 0.674546
125820.00000 0.674232
125830.00000 0.67392
125840.00000 0.673607
125850.00000 0.673295
125860.00000 0.672982
125870.00000 0.672667
125880.00000 0.672353
125890.00000 0.672039
125900.00000 0.671724
125910.00000 0.67141
125920.00000 0.671095
125930.00000 0.67078
125940.00000 0.670465
125950.00000 0.670149
125960.00000 0.669832
125970.00000 0.669514
125980.00000 0.669196
125990.00000 0.668878
126000.00000 0.668561
126010.00000 0.668245
126020.00000 0.667931
126030.00000 0.667619
126040.00000 0.667307
126050.00000 0.666995
126060.00000 0.666683
126070.00000 0.666375
126080.00000 0.666069
126090.00000 0.665767
126100.00000 0.665471
126110.00000 0.665179
126120.00000 0.664891
126130.00000 0.664605
126140.00000 0.664324
126150.00000 0.664046
126160.00000 0.663775
126170.00000 0.663509
126180.00000 0.66325
126190.00000 0.662997
126200.00000 0.662751
126210.00000 0.662511
126220.00000 0.662276
126230.00000 0.662046
126240.00000 0.661823
126250.00000 0.661605
126260.00000 0.661393
126270.00000 0.661186
126280.00000 0.660987
126290.00000 0.660794
126300.00000 0.660606
126310.00000 0.660423
126320.00000 0.660244
126330.00000 0.660069
126340.00000 0.659896
126350.00000 0.659727
126360.00000 0.659562
126370.00000 0.659401
126380.00000 0.659245
126390.00000 0.659091
126400.00000 0.658939
126410.00000 0.658789
126420.00000 0.65864
126430.00000 0.658491
126440.00000 0.658345
126450.00000 0.658201
126460.00000 0.658058
126470.00000 0.657917
126480.00000 0.657778
126490.00000 0.65764
126500.00000 0.657503
126510.00000 0.657367
126520.00000 0.657233
126530.00000 0.6571
126540.00000 0.656968
126550.00000 0.656838
126560.00000 0.65671
126570.00000 0.656584
126580.00000 0.656461
126590.00000 0.65634
126600.00000 0.65622
126610.00000 0.656103
126620.00000 0.655988
126630.00000 0.655875
126640.00000 0.655764
126650.00000 0.655655
126660.00000 0.655549
126670.00000 0.655445
126680.00000 0.655344
126690.00000 0.655245
126700.00000 0.655148
126710.00000 0.655054
126720.00000 0.654961
126730.00000 0.654871
126740.00000 0.654782
126750.00000 0.654695
126760.00000 0.65461
126770.00000 0.654527
126780.00000 0.654446
126790.00000 0.654366
126800.00000 0.65429
126810.00000 0.654215
126820.00000 0.654143
126830.00000 0.654073
126840.00000 0.654005
126850.00000 0.653938
126860.00000 0.653874
126870.00000 0.653812
126880.00000 0.653753
126890.00000 0.653698
126900.00000 0.653647
126910.00000 0.6536
126920.00000 0.653556
126930.00000 0.653515
126940.00000 0.653477
126950.00000 0.653444
126960.00000 0.653413
126970.00000 0.653387
126980.00000 0.653365
126990.00000 0.653348
127000.00000 0.653335
127010.00000 0.653327
127020.00000 0.653322
127030.00000 0.653321
127040.00000 0.653324
127050.00000 0.65333
127060.00000 0.653339
127070.00000 0.653351
127080.00000 0.653368
127090.00000 0.65339
127100.00000 0.653415
127110.00000 0.653442
127120.00000 0.653472
127130.00000 0.653502
127140.00000 0.653533
127150.00000 0.653563
127160.00000 0.653596
127170.00000 0.653631
127180.00000 0.653667
127190.00000 0.653704
127200.00000 0.653741
127210.00000 0.653777
127220.00000 0.653811
127230.00000 0.653844
127240.00000 0.653877
127250.00000 0.653911
127260.00000 0.653943
127270.00000 0.653975
127280.00000 0.654005
127290.00000 0.654034
127300.00000 0.654059
127310.00000 0.654082
127320.00000 0.654103
127330.00000 0.654122
127340.00000 0.654138
127350.00000 0.654153
127360.00000 0.654165
127370.00000 0.654176
127380.00000 0.654185
127390.00000 0.654193
127400.00000 0.654199
127410.00000 0.654204
127420.00000 0.654207
127430.00000 0.654208
127440.00000 0.654207
127450.00000 0.654203
127460.00000 0.654196
127470.00000 0.654186
127480.00000 0.654174
127490.00000 0.654159
127500.00000 0.654141
127510.00000 0.654121
127520.00000 0.654098
127530.00000 0.654072
127540.00000 0.654041
127550.00000 0.654007
127560.00000 0.653971
127570.00000 0.653932
127580.00000 0.65389
127590.00000 0.653845
127600.00000 0.653796
127610.00000 0.653741
127620.00000 0.653681
127630.00000 0.653614
127640.00000 0.65354
127650.00000 0.653462
127660.00000 0.653378
127670.00000 0.653288
127680.00000 0.653193
127690.00000 0.653092
127700.00000 0.652985
127710.00000 0.652872
127720.00000 0.652753
127730.00000 0.652629
127740.00000 0.6525
127750.00000 0.652365
127760.00000 0.652223
127770.00000 0.652075
127780.00000 0.65192
127790.00000 0.651757
127800.00000 0.651587
127810.00000 0.65141
127820.00000 0.651226
127830.00000 0.651035
127840.00000 0.650837
127850.00000 0.650632
127860.00000 0.65042
127870.00000 0.6502
127880.00000 0.649972
127890.00000 0.649738
127900.00000 0.649499
127910.00000 0.649252
127920.00000 0.648997
127930.00000 0.648734
127940.00000 0.648462
127950.00000 0.648179
127960.00000 0.647884
127970.00000 0.64758
127980.00000 0.647268
127990.00000 0.646945
128000.00000 0.646613
128010.00000 0.646271
128020.00000 0.645918
128030.00000 0.645554
128040.00000 0.645178
128050.00000 0.644791
128060.00000 0.644394
128070.00000 0.643986
128080.00000 0.643568
128090.00000 0.643138
128100.00000 0.642696
128110.00000 0.642242
128120.00000 0.641776
128130.00000 0.641297
128140.00000 0.640806
128150.00000 0.640303
128160.00000 0.639787
128170.00000 0.63926
128180.00000 0.638722
128190.00000 0.638172
128200.00000 0.63761
128210.00000 0.637038
128220.00000 0.636455
128230.00000 0.635861
128240.00000 0.635255
128250.00000 0.634638
128260.00000 0.634009
128270.00000 0.633367
128280.00000 0.632714
128290.00000 0.632048
128300.00000 0.631371
128310.00000 0.630684
128320.00000 0.629984
128330.00000 0.629273
128340.00000 0.628548
128350.00000 0.627809
128360.00000 0.627056
128370.00000 0.626287
128380.00000 0.625505
128390.00000 0.624712
128400.00000 0.623905
128410.00000 0.623085
128420.00000 0.622248
128430.00000 0.621395
128440.00000 0.620523
128450.00000 0.619631
128460.00000 0.618721
128470.00000 0.617796
128480.00000 0.616854
128490.00000 0.615895
128500.00000 0.614916
128510.00000 0.613918
128520.00000 0.612898
128530.00000 0.611855
128540.00000 0.610789
128550.00000 0.609702
128560.00000 0.608595
128570.00000 0.607467
128580.00000 0.606318
128590.00000 0.605146
128600.00000 0.603952
128610.00000 0.602734
128620.00000 0.601493
128630.00000 0.600228
128640.00000 0.598941
128650.00000 0.597631
128660.00000 0.596298
128670.00000 0.594943
128680.00000 0.593566
128690.00000 0.592166
128700.00000 0.590744
128710.00000 0.589299
128720.00000 0.587831
128730.00000 0.58634
128740.00000 0.584827
128750.00000 0.583292
128760.00000 0.581736
128770.00000 0.580159
128780.00000 0.578562
128790.00000 0.576945
128800.00000 0.575307
128810.00000 0.573649
128820.00000 0.571969
128830.00000 0.570268
128840.00000 0.568546
128850.00000 0.566803
128860.00000 0.565038
128870.00000 0.563251
128880.00000 0.561443
128890.00000 0.559614
128900.00000 0.557763
128910.00000 0.555891
128920.00000 0.553998
128930.00000 0.552083
128940.00000 0.550147
128950.00000 0.548189
128960.00000 0.54621
128970.00000 0.544209
128980.00000 0.542187
128990.00000 0.540144
129000.00000 0.53808
129010.00000 0.535994
129020.00000 0.533887
129030.00000 0.53176
129040.00000 0.529611
129050.00000 0.527438
129060.00000 0.525244
129070.00000 0.523028
129080.00000 0.520793
129090.00000 0.518539
129100.00000 0.516267
129110.00000 0.513979
129120.00000 0.511675
129130.00000 0.509352
129140.00000 0.507009
129150.00000 0.504649
129160.00000 0.502271
129170.00000 0.499877
129180.00000 0.497469
129190.00000 0.495048
129200.00000 0.492615
129210.00000 0.490166
129220.00000 0.4877
129230.00000 0.485219
129240.00000 0.482724
129250.00000 0.480217
129260.00000 0.4777
129270.00000 0.475173
129280.00000 0.472639
129290.00000 0.470097
129300.00000 0.467544
129310.00000 0.46498
129320.00000 0.462406
129330.00000 0.459823
129340.00000 0.457232
129350.00000 0.454635
129360.00000 0.452032
129370.00000 0.449425
129380.00000 0.446809
129390.00000 0.444185
129400.00000 0.441554
129410.00000 0.438916
129420.00000 0.436274
129430.00000 0.433627
129440.00000 0.430977
129450.00000 0.428324
129460.00000 0.425668
129470.00000 0.423007
129480.00000 0.420342
129490.00000 0.417672
129500.00000 0.415
129510.00000 0.412323
129520.00000 0.409644
129530.00000 0.406963
129540.00000 0.404279
129550.00000 0.401591
129560.00000 0.398898
129570.00000 0.396203
129580.00000 0.393506
129590.00000 0.390806
129600.00000 0.388106
129610.00000 0.385405
129620.00000 0.382705
129630.00000 0.380003
129640.00000 0.377297
129650.00000 0.374591
129660.00000 0.371884
129670.00000 0.369177
129680.00000 0.366472
129690.00000 0.36377
129700.00000 0.361071
129710.00000 0.358375
129720.00000 0.355678
129730.00000 0.352981
129740.00000 0.350287
129750.00000 0.347596
129760.00000 0.34491
129770.00000 0.34223
129780.00000 0.339559
129790.00000 0.336897
129800.00000 0.334239
129810.00000 0.331586
129820.00000 0.328938
129830.00000 0.326298
129840.00000 0.323665
129850.00000 0.321042
129860.00000 0.31843
129870.00000 0.31583
129880.00000 0.31324
129890.00000 0.310659
129900.00000 0.308087
129910.00000 0.305525
129920.00000 0.302973
129930.00000 0.300432
129940.00000 0.297902
129950.00000 0.295383
129960.00000 0.292876
129970.00000 0.29038
129980.00000 0.287895
129990.00000 0.285421
130000.00000 0.282958
130010.00000 0.280506
130020.00000 0.278065
130030.00000 0.275636
130040.00000 0.273218
130050.00000 0.270811
130060.00000 0.268414
130070.00000 0.266029
130080.00000 0.263655
130090.00000 0.261292
130100.00000 0.258942
130110.00000 0.256603
130120.00000 0.254277
130130.00000 0.251964
130140.00000 0.24966
130150.00000 0.247367
130160.00000 0.245087
130170.00000 0.242819
130180.00000 0.240564
130190.00000 0.238325
130200.00000 0.236102
130210.00000 0.233896
130220.00000 0.231705
130230.00000 0.229526
130240.00000 0.227362
130250.00000 0.225214
130260.00000 0.223081
130270.00000 0.220966
130280.00000 0.218868
130290.00000 0.216789
130300.00000 0.214729
130310.00000 0.212685
130320.00000 0.210659
130330.00000 0.20865
130340.00000 0.206658
130350.00000 0.204684
130360.00000 0.202728
130370.00000 0.20079
130380.00000 0.198871
130390.00000 0.196971
130400.00000 0.19509
130410.00000 0.193227
130420.00000 0.191382
130430.00000 0.189554
130440.00000 0.187742
130450.00000 0.185945
130460.00000 0.184163
130470.00000 0.182396
130480.00000 0.180647
130490.00000 0.178914
130500.00000 0.177198
130510.00000 0.175496
130520.00000 0.173808
130530.00000 0.172134
130540.00000 0.170472
130550.00000 0.168821
130560.00000 0.167184
130570.00000 0.165561
130580.00000 0.163951
130590.00000 0.162354
130600.00000 0.16077
130610.00000 0.159198
130620.00000 0.157636
130630.00000 0.156086
130640.00000 0.154546
130650.00000 0.153018
130660.00000 0.151501
130670.00000 0.149996
130680.00000 0.148502
130690.00000 0.14702
130700.00000 0.145549
130710.00000 0.14409
130720.00000 0.142642
130730.00000 0.141206
130740.00000 0.139781
130750.00000 0.138366
130760.00000 0.136964
130770.00000 0.135573
130780.00000 0.134195
130790.00000 0.13283
130800.00000 0.131478
130810.00000 0.130139
130820.00000 0.128813
130830.00000 0.127499
130840.00000 0.126197
130850.00000 0.124908
130860.00000 0.123633
130870.00000 0.12237
130880.00000 0.121121
130890.00000 0.119886
130900.00000 0.118664
130910.00000 0.117455
130920.00000 0.11626
130930.00000 0.115078
130940.00000 0.113908
130950.00000 0.112753
130960.00000 0.11161
130970.00000 0.11048
130980.00000 0.109364
130990.00000 0.108262
131000.00000 0.107174
131010.00000 0.106099
131020.00000 0.105037
131030.00000 0.103987
131040.00000 0.102948
131050.00000 0.101921
131060.00000 0.100904
131070.00000 0.0998973
131080.00000 0.0989032
131090.00000 0.0979211
131100.00000 0.0969502
131110.00000 0.0959902
131120.00000 0.0950405
131130.00000 0.0941005
131140.00000 0.0931698
131150.00000 0.0922479
131160.00000 0.0913365
131170.00000 0.090436
131180.00000 0.0895457
131190.00000 0.088665
131200.00000 0.0877931
131210.00000 0.0869295
131220.00000 0.0860736
131230.00000 0.0852246
131240.00000 0.0843823
131250.00000 0.0835478
131260.00000 0.0827212
131270.00000 0.0819025
131280.00000 0.0810918
131290.00000 0.080289
131300.00000 0.0794943
131310.00000 0.0787076
131320.00000 0.0779291
131330.00000 0.0771588
131340.00000 0.0763968
131350.00000 0.0756431
131360.00000 0.0748973
131370.00000 0.0741592
131380.00000 0.0734289
131390.00000 0.0727059
131400.00000 0.0719902
131410.00000 0.0712817
131420.00000 0.0705803
131430.00000 0.0698862
131440.00000 0.0691996
131450.00000 0.0685205
131460.00000 0.067849
131470.00000 0.0671852
131480.00000 0.0665293
131490.00000 0.0658814
131500.00000 0.0652419
131510.00000 0.0646114
131520.00000 0.0639893
131530.00000 0.063375
131540.00000 0.062768
131550.00000 0.0621677
131560.00000 0.0615734
131570.00000 0.0609846
131580.00000 0.0604008
131590.00000 0.0598227
131600.00000 0.059251
131610.00000 0.0586856
131620.00000 0.0581261
131630.00000 0.0575725
131640.00000 0.0570244
131650.00000 0.0564817
131660.00000 0.0559441
131670.00000 0.0554117
131680.00000 0.0548856
131690.00000 0.0543657
131700.00000 0.0538515
131710.00000 0.0533424
131720.00000 0.0528379
131730.00000 0.0523374
131740.00000 0.0518406
131750.00000 0.0513468
131760.00000 0.0508558
131770.00000 0.0503685
131780.00000 0.0498848
131790.00000 0.0494051
131800.00000 0.0489293
131810.00000 0.0484578
131820.00000 0.0479906
131830.00000 0.0475278
131840.00000 0.0470697
131850.00000 0.0466164
131860.00000 0.0461678
131870.00000 0.0457236
131880.00000 0.0452838
131890.00000 0.044848
131900.00000 0.0444161
131910.00000 0.0439878
131920.00000 0.0435629
131930.00000 0.0431413
131940.00000 0.042723
131950.00000 0.0423082
131960.00000 0.0418971
131970.00000 0.0414896
131980.00000 0.0410861
131990.00000 0.0406864
132000.00000 0.0402909
132010.00000 0.0398995
132020.00000 0.0395125
132030.00000 0.0391302
132040.00000 0.0387521
132050.00000 0.0383782
132060.00000 0.038008
132070.00000 0.0376412
132080.00000 0.0372777
132090.00000 0.036917
132100.00000 0.0365589
132110.00000 0.0362036
132120.00000 0.0358513
132130.00000 0.0355021
132140.00000 0.035156
132150.00000 0.0348131
132160.00000 0.0344733
132170.00000 0.0341368
132180.00000 0.0338035
132190.00000 0.0334734
132200.00000 0.0331472
132210.00000 0.0328246
132220.00000 0.0325055
132230.00000 0.0321895
132240.00000 0.0318762
132250.00000 0.0315653
132260.00000 0.0312566
132270.00000 0.0309495
132280.00000 0.030644
132290.00000 0.030341
132300.00000 0.0300404
132310.00000 0.0297421
132320.00000 0.029446
132330.00000 0.0291517
132340.00000 0.0288592
132350.00000 0.0285683
132360.00000 0.0282788
132370.00000 0.0279908
132380.00000 0.0277051
132390.00000 0.0274214
132400.00000 0.0271393
132410.00000 0.0268588
132420.00000 0.0265795
132430.00000 0.0263012
132440.00000 0.0260236
132450.00000 0.0257464
132460.00000 0.0254696
132470.00000 0.0251932
132480.00000 0.0249174
132490.00000 0.0246427
132500.00000 0.0243691
132510.00000 0.024097
132520.00000 0.0238266
132530.00000 0.0235581
132540.00000 0.0232918
132550.00000 0.0230267
132560.00000 0.0227624
132570.00000 0.0224995
132580.00000 0.0222383
132590.00000 0.0219794
132600.00000 0.0217232
132610.00000 0.0214702
132620.00000 0.0212207
132630.00000 0.0209751
132640.00000 0.0207316
132650.00000 0.0204902
132660.00000 0.0202516
132670.00000 0.0200161
132680.00000 0.0197845
132690.00000 0.0195572
132700.00000 0.0193347
132710.00000 0.0191177
132720.00000 0.0189062
132730.00000 0.0186992
132740.00000 0.0184967
132750.00000 0.0182987
132760.00000 0.0181052
132770.00000 0.0179166
132780.00000 0.0177327
132790.00000 0.0175537
132800.00000 0.0173798
132810.00000 0.0172111
132820.00000 0.0170479
132830.00000 0.0168898
132840.00000 0.0167366
132850.00000 0.016588
132860.00000 0.0164437
132870.00000 0.0163034
132880.00000 0.0161668
132890.00000 0.0160337
132900.00000 0.0159048
132910.00000 0.015781
132920.00000 0.0156617
132930.00000 0.0155464
132940.00000 0.0154345
132950.00000 0.0153255
132960.00000 0.0152188
132970.00000 0.0151139
132980.00000 0.0150103
132990.00000 0.0149093
133000.00000 0.0148117
133010.00000 0.0147168
133020.00000 0.0146243
133030.00000 0.0145334
133040.00000 0.0144439
133050.00000 0.0143551
133060.00000 0.0142665
133070.00000 0.0141778
133080.00000 0.0140903
133090.00000 0.0140044
133100.00000 0.0139196
133110.00000 0.0138356
133120.00000 0.0137519
133130.00000 0.0136681
133140.00000 0.0135837
133150.00000 0.0134983
133160.00000 0.0134117
133170.00000 0.0133253
133180.00000 0.0132391
133190.00000 0.0131526
133200.00000 0.0130656
133210.00000 0.0129777
133220.00000 0.0128885
133230.00000 0.0127977
133240.00000 0.0127049
133250.00000 0.0126101
133260.00000 0.0125141
133270.00000 0.0124169
133280.00000 0.0123184
133290.00000 0.0122183
133300.00000 0.0121165
133310.00000 0.0120127
133320.00000 0.0119067
133330.00000 0.0117983
133340.00000 0.0116875
133350.00000 0.0115743
133360.00000 0.0114589
133370.00000 0.0113415
133380.00000 0.0112221
133390.00000 0.0111009
133400.00000 0.010978
133410.00000 0.0108535
133420.00000 0.0107275
133430.00000 0.0105996
133440.00000 0.0104688
133450.00000 0.0103357
133460.00000 0.0102008
133470.00000 0.0100646
133480.00000 0.0099279
133490.00000 0.0097911
133500.00000 0.0096549
133510.00000 0.0095198
133520.00000 0.0093848
133530.00000 0.0092482
133540.00000 0.0091107
133550.00000 0.0089731
133560.00000 0.0088364
133570.00000 0.0087013
133580.00000 0.0085687
133590.00000 0.0084394
133600.00000 0.0083142
133610.00000 0.008192
133620.00000 0.0080709
133630.00000 0.0079517
133640.00000 0.007835
133650.00000 0.0077214
133660.00000 0.0076118
133670.00000 0.0075068
133680.00000 0.007407
133690.00000 0.0073132
133700.00000 0.0072248
133710.00000 0.0071409
133720.00000 0.0070615
133730.00000 0.0069866
133740.00000 0.0069164
133750.00000 0.006851
133760.00000 0.0067902
133770.00000 0.0067344
133780.00000 0.0066833
133790.00000 0.006638
133800.00000 0.0065986
133810.00000 0.0065644
133820.00000 0.0065349
133830.00000 0.0065096
133840.00000 0.0064877
133850.00000 0.0064688
133860.00000 0.0064523
133870.00000 0.0064375
133880.00000 0.0064268
133890.00000 0.0064211
133900.00000 0.0064192
133910.00000 0.0064202
133920.00000 0.0064229
133930.00000 0.0064265
133940.00000 0.0064299
133950.00000 0.006432
133960.00000 0.0064319
133970.00000 0.006432
133980.00000 0.0064336
133990.00000 0.0064357
134000.00000 0.0064376
134010.00000 0.0064385
134020.00000 0.0064376
134030.00000 0.0064341
134040.00000 0.0064271
134050.00000 0.006416
134060.00000 0.006402
134070.00000 0.0063861
134080.00000 0.0063678
134090.00000 0.006347
134100.00000 0.0063235
134110.00000 0.006297
134120.00000 0.0062672
134130.00000 0.0062338
134140.00000 0.0061968
134150.00000 0.0061555
134160.00000 0.0061101
134170.00000 0.0060612
134180.00000 0.0060092
134190.00000 0.0059545
134200.00000 0.0058976
134210.00000 0.005839
134220.00000 0.0057791
134230.00000 0.0057183
134240.00000 0.0056549
134250.00000 0.0055885
134260.00000 0.0055196
134270.00000 0.005449
134280.00000 0.0053774
134290.00000 0.0053056
134300.00000 0.0052342
134310.00000 0.0051639
134320.00000 0.0050954
134330.00000 0.0050269
134340.00000 0.0049576
134350.00000 0.0048881
134360.00000 0.004819
134370.00000 0.0047509
134380.00000 0.0046844
134390.00000 0.0046199
134400.00000 0.0045582
134410.00000 0.0044998
134420.00000 0.0044438
134430.00000 0.0043897
134440.00000 0.0043376
134450.00000 0.0042874
134460.00000 0.0042395
134470.00000 0.0041938
134480.00000 0.0041504
134490.00000 0.0041095
134500.00000 0.004071
134510.00000 0.0040355
134520.00000 0.0040029
134530.00000 0.0039729
134540.00000 0.0039451
134550.00000 0.0039194
134560.00000 0.0038954
134570.00000 0.0038727
134580.00000 0.0038513
134590.00000 0.0038306
134600.00000 0.0038119
134610.00000 0.0037957
134620.00000 0.0037815
134630.00000 0.0037687
134640.00000 0.0037568
134650.00000 0.0037451
134660.00000 0.0037332
134670.00000 0.0037204
134680.00000 0.0037062
134690.00000 0.0036917
134700.00000 0.0036781
134710.00000 0.0036648
134720.00000 0.0036513
134730.00000 0.0036369
134740.00000 0.0036211
134750.00000 0.0036033
134760.00000 0.003583
134770.00000 0.0035595
134780.00000 0.0035334
134790.00000 0.0035061
134800.00000 0.0034772
134810.00000 0.0034462
134820.00000 0.003413
134830.00000 0.003377
134840.00000 0.0033379
134850.00000 0.0032954
134860.00000 0.0032492
134870.00000 0.003199
134880.00000 0.0031453
134890.00000 0.0030882
134900.00000 0.003028
134910.00000 0.0029648
134920.00000 0.0028989
134930.00000 0.0028303
134940.00000 0.0027594
134950.00000 0.0026863
134960.00000 0.0026105
134970.00000 0.0025305
134980.00000 0.0024469
134990.00000 0.0023605
135000.00000 0.0022722
135010.00000 0.0021826
135020.00000 0.0020926
135030.00000 0.0020029
135040.00000 0.0019144
135050.00000 0.0018267
135060.00000 0.0017369
135070.00000 0.0016454
135080.00000 0.0015533
135090.00000 0.0014617
135100.00000 0.0013714
135110.00000 0.0012836
135120.00000 0.0011992
135130.00000 0.0011191
135140.00000 0.0010439
135150.00000 0.0009707
135160.00000 0.0008994
135170.00000 0.0008307
135180.00000 0.0007652
135190.00000 0.0007033
135200.00000 0.0006456
135210.00000 0.0005928
135220.00000 0.0005453
135230.00000 0.0005037
135240.00000 0.0004674
135250.00000 0.0004359
135260.00000 0.0004091
135270.00000 0.0003869
135280.00000 0.000369
135290.00000 0.0003552
135300.00000 0.0003455
135310.00000 0.0003397
135320.00000 0.0003375
135330.00000 0.0003404
135340.00000 0.0003485
135350.00000 0.0003613
135360.00000 0.000378
135370.00000 0.000398
135380.00000 0.0004206
135390.00000 0.0004453
135400.00000 0.0004712
135410.00000 0.0004979
135420.00000 0.0005267
135430.00000 0.0005587
135440.00000 0.0005933
135450.00000 0.0006301
135460.00000 0.0006683
135470.00000 0.0007073
135480.00000 0.0007466
135490.00000 0.0007856
135500.00000 0.0008237
135510.00000 0.0008612
135520.00000 0.0008995
135530.00000 0.0009383
135540.00000 0.0009773
135550.00000 0.0010164
135560.00000 0.0010552
135570.00000 0.0010936
135580.00000 0.0011313
135590.00000 0.0011681
135600.00000 0.0012039
135610.00000 0.0012393
135620.00000 0.0012742
135630.00000 0.0013087
135640.00000 0.0013426
135650.00000 0.0013759
135660.00000 0.0014085
135670.00000 0.0014403
135680.00000 0.0014714
135690.00000 0.0015017
135700.00000 0.0015315
135710.00000 0.0015609
135720.00000 0.0015896
135730.00000 0.0016176
135740.00000 0.0016446
135750.00000 0.0016706
135760.00000 0.0016955
135770.00000 0.0017191
135780.00000 0.0017413
135790.00000 0.0017627
135800.00000 0.0017834
135810.00000 0.0018032
135820.00000 0.0018218
135830.00000 0.0018391
135840.00000 0.0018547
135850.00000 0.0018684
135860.00000 0.0018799
135870.00000 0.0018891
135880.00000 0.0018963
135890.00000 0.0019018
135900.00000 0.0019056
135910.00000 0.0019075
135920.00000 0.0019075
135930.00000 0.0019054
135940.00000 0.0019011
135950.00000 0.0018946
135960.00000 0.0018857
135970.00000 0.0018743
135980.00000 0.0018602
135990.00000 0.0018437
136000.00000 0.0018249
136010.00000 0.0018041
136020.00000 0.0017816
136030.00000 0.0017575
136040.00000 0.001732
136050.00000 0.0017055
136060.00000 0.0016778
136070.00000 0.0016477
136080.00000 0.0016156
136090.00000 0.0015817
136100.00000 0.0015465
136110.00000 0.0015106
136120.00000 0.0014742
136130.00000 0.0014378
136140.00000 0.0014019
136150.00000 0.0013667
136160.00000 0.001331
136170.00000 0.0012945
136180.00000 0.0012576
136190.00000 0.0012205
136200.00000 0.0011838
136210.00000 0.0011477
136220.00000 0.0011126
136230.00000 0.0010789
136240.00000 0.0010469
136250.00000 0.0010162
136260.00000 0.0009861
136270.00000 0.0009568
136280.00000 0.0009285
136290.00000 0.0009012
136300.00000 0.0008752
136310.00000 0.0008506
136320.00000 0.0008275
136330.00000 0.000806
136340.00000 0.0007863
136350.00000 0.0007681
136360.00000 0.0007513
136370.00000 0.000736
136380.00000 0.0007221
136390.00000 0.0007094
136400.00000 0.000698
136410.00000 0.0006877
136420.00000 0.0006785
136430.00000 0.0006704
136440.00000 0.0006636
136450.00000 0.0006581
136460.00000 0.0006538
136470.00000 0.0006508
136480.00000 0.0006488
136490.00000 0.0006478
136500.00000 0.0006477
136510.00000 0.0006484
136520.00000 0.0006499
136530.00000 0.0006523
136540.00000 0.0006556
136550.00000 0.0006599
136560.00000 0.0006651
136570.00000 0.0006712
136580.00000 0.0006782
136590.00000 0.0006861
136600.00000 0.0006949
136610.00000 0.0007046
136620.00000 0.0007151
136630.00000 0.0007265
136640.00000 0.0007388
136650.00000 0.000752
136660.00000 0.000766
136670.00000 0.000781
136680.00000 0.0007969
136690.00000 0.0008138
136700.00000 0.0008316
136710.00000 0.0008504
136720.00000 0.0008705
136730.00000 0.0008918
136740.00000 0.0009142
136750.00000 0.0009374
136760.00000 0.0009613
136770.00000 0.0009859
136780.00000 0.0010108
136790.00000 0.001036
136800.00000 0.0010614
136810.00000 0.0010876
136820.00000 0.001115
136830.00000 0.0011433
136840.00000 0.001172
136850.00000 0.0012008
136860.00000 0.0012294
136870.00000 0.0012573
136880.00000 0.0012841
136890.00000 0.0013096
136900.00000 0.001334
136910.00000 0.0013587
136920.00000 0.0013832
136930.00000 0.0014072
136940.00000 0.0014303
136950.00000 0.0014519
136960.00000 0.0014718
136970.00000 0.0014894
136980.00000 0.0015044
136990.00000 0.0015165
137000.00000 0.0015268
137010.00000 0.0015355
137020.00000 0.0015424
137030.00000 0.0015473
137040.00000 0.0015498
137050.00000 0.0015498
137060.00000 0.0015469
137070.00000 0.0015409
137080.00000 0.0015316
137090.00000 0.001519
137100.00000 0.0015035
137110.00000 0.0014851
137120.00000 0.0014639
137130.00000 0.00144
137140.00000 0.0014133
137150.00000 0.0013841
137160.00000 0.0013522
137170.00000 0.0013179
137180.00000 0.0012809
137190.00000 0.0012405
137200.00000 0.0011969
137210.00000 0.0011505
137220.00000 0.0011016
137230.00000 0.0010507
137240.00000 0.0009981
137250.00000 0.0009441
137260.00000 0.0008892
137270.00000 0.0008336
137280.00000 0.000776
137290.00000 0.000716
137300.00000 0.0006539
137310.00000 0.0005904
137320.00000 0.000526
137330.00000 0.0004613
137340.00000 0.0003968
137350.00000 0.000333
137360.00000 0.0002706
137370.00000 0.0002091
137380.00000 0.0001467
137390.00000 8.39e-05
151129.00000 0.0
