# %ECSV 0.9
# ---
# datatype:
# - {name: wavelength, unit: Angstrom, datatype: float32}
# - {name: response, datatype: float32}
# meta: !!omap
# - {band_name: J}
# - {group_name: Flamingos2}
wavelength response
10381.50000 0.0
11535.00000 0.004
11540.00000 0.0042
11545.00000 0.0044
11550.00000 0.0047
11555.00000 0.0049
11560.00000 0.0053
11565.00000 0.0058
11570.00000 0.0064
11575.00000 0.0072
11580.00000 0.0081
11585.00000 0.0093
11590.00000 0.0106
11595.00000 0.0124
11600.00000 0.0145
11605.00000 0.0172
11610.00000 0.0208
11615.00000 0.0247
11620.00000 0.0294
11625.00000 0.0351
11630.00000 0.0421
11635.00000 0.0503
11640.00000 0.0591
11645.00000 0.0692
11650.00000 0.079
11655.00000 0.0888
11660.00000 0.0986
11665.00000 0.1083
11670.00000 0.1174
11675.00000 0.1251
11680.00000 0.1324
11685.00000 0.1392
11690.00000 0.1464
11695.00000 0.154
11700.00000 0.163
11705.00000 0.1731
11710.00000 0.184
11715.00000 0.1979
11720.00000 0.2128
11725.00000 0.2299
11730.00000 0.2528
11735.00000 0.2763
11740.00000 0.3021
11745.00000 0.3287
11750.00000 0.3574
11755.00000 0.3852
11760.00000 0.4145
11765.00000 0.4458
11770.00000 0.4699
11775.00000 0.4922
11780.00000 0.5098
11785.00000 0.5242
11790.00000 0.5342
11795.00000 0.5408
11800.00000 0.5443
11805.00000 0.5454
11810.00000 0.5455
11815.00000 0.5449
11820.00000 0.5441
11825.00000 0.5438
11830.00000 0.5442
11835.00000 0.5453
11840.00000 0.547
11845.00000 0.5489
11850.00000 0.5513
11855.00000 0.5543
11860.00000 0.5567
11865.00000 0.5585
11870.00000 0.56
11875.00000 0.562
11880.00000 0.5632
11885.00000 0.5635
11890.00000 0.5625
11895.00000 0.5592
11900.00000 0.5553
11905.00000 0.5508
11910.00000 0.5463
11915.00000 0.5414
11920.00000 0.5361
11925.00000 0.5312
11930.00000 0.5269
11935.00000 0.5236
11940.00000 0.521
11945.00000 0.5189
11950.00000 0.5176
11955.00000 0.517
11960.00000 0.5171
11965.00000 0.5178
11970.00000 0.5192
11975.00000 0.5196
11980.00000 0.5205
11985.00000 0.5216
11990.00000 0.5235
11995.00000 0.5279
12000.00000 0.5326
12005.00000 0.537
12010.00000 0.5412
12015.00000 0.5458
12020.00000 0.5498
12025.00000 0.5537
12030.00000 0.5569
12035.00000 0.5569
12040.00000 0.5565
12045.00000 0.5558
12050.00000 0.5549
12055.00000 0.5548
12060.00000 0.5547
12065.00000 0.5543
12070.00000 0.5539
12075.00000 0.5544
12080.00000 0.5549
12085.00000 0.5555
12090.00000 0.5562
12095.00000 0.5574
12100.00000 0.5589
12105.00000 0.5604
12110.00000 0.562
12115.00000 0.5635
12120.00000 0.565
12125.00000 0.5666
12130.00000 0.5683
12135.00000 0.5688
12140.00000 0.5693
12145.00000 0.5701
12150.00000 0.5707
12155.00000 0.5727
12160.00000 0.5748
12165.00000 0.5769
12170.00000 0.579
12175.00000 0.5798
12180.00000 0.5808
12185.00000 0.5817
12190.00000 0.5824
12195.00000 0.581
12200.00000 0.5798
12205.00000 0.5785
12210.00000 0.5772
12215.00000 0.5761
12220.00000 0.5748
12225.00000 0.5738
12230.00000 0.5727
12235.00000 0.5748
12240.00000 0.5772
12245.00000 0.5793
12250.00000 0.5815
12255.00000 0.5827
12260.00000 0.5838
12265.00000 0.5851
12270.00000 0.5862
12275.00000 0.5866
12280.00000 0.587
12285.00000 0.5872
12290.00000 0.5872
12295.00000 0.5889
12300.00000 0.5905
12305.00000 0.5919
12310.00000 0.5932
12315.00000 0.595
12320.00000 0.5967
12325.00000 0.5983
12330.00000 0.5998
12335.00000 0.6005
12340.00000 0.6012
12345.00000 0.6018
12350.00000 0.6024
12355.00000 0.6015
12360.00000 0.6006
12365.00000 0.5997
12370.00000 0.5987
12375.00000 0.5981
12380.00000 0.5974
12385.00000 0.5968
12390.00000 0.5964
12395.00000 0.5965
12400.00000 0.5968
12405.00000 0.5975
12410.00000 0.598
12415.00000 0.5987
12420.00000 0.5996
12425.00000 0.6004
12430.00000 0.6015
12435.00000 0.6008
12440.00000 0.6
12445.00000 0.5995
12450.00000 0.5989
12455.00000 0.6001
12460.00000 0.6013
12465.00000 0.6026
12470.00000 0.6037
12475.00000 0.6057
12480.00000 0.6075
12485.00000 0.6094
12490.00000 0.6111
12495.00000 0.6106
12500.00000 0.6101
12505.00000 0.6094
12510.00000 0.6086
12515.00000 0.6072
12520.00000 0.6056
12525.00000 0.604
12530.00000 0.6023
12535.00000 0.6014
12540.00000 0.6004
12545.00000 0.5994
12550.00000 0.5983
12555.00000 0.5976
12560.00000 0.5968
12565.00000 0.5961
12570.00000 0.5956
12575.00000 0.5953
12580.00000 0.595
12585.00000 0.595
12590.00000 0.5952
12595.00000 0.5946
12600.00000 0.5943
12605.00000 0.594
12610.00000 0.5941
12615.00000 0.5942
12620.00000 0.5945
12625.00000 0.595
12630.00000 0.5956
12635.00000 0.5975
12640.00000 0.5995
12645.00000 0.6016
12650.00000 0.604
12655.00000 0.6059
12660.00000 0.6075
12665.00000 0.6095
12670.00000 0.6112
12675.00000 0.6128
12680.00000 0.6145
12685.00000 0.616
12690.00000 0.6173
12695.00000 0.619
12700.00000 0.6204
12705.00000 0.6218
12710.00000 0.6228
12715.00000 0.6244
12720.00000 0.6257
12725.00000 0.6268
12730.00000 0.6277
12735.00000 0.6277
12740.00000 0.6275
12745.00000 0.6272
12750.00000 0.6267
12755.00000 0.6254
12760.00000 0.624
12765.00000 0.6225
12770.00000 0.6209
12775.00000 0.6202
12780.00000 0.6194
12785.00000 0.6185
12790.00000 0.6182
12795.00000 0.6181
12800.00000 0.6184
12805.00000 0.6186
12810.00000 0.619
12815.00000 0.6189
12820.00000 0.6187
12825.00000 0.6187
12830.00000 0.6191
12835.00000 0.619
12840.00000 0.6191
12845.00000 0.6195
12850.00000 0.6197
12855.00000 0.621
12860.00000 0.6222
12865.00000 0.6235
12870.00000 0.6251
12875.00000 0.6273
12880.00000 0.6294
12885.00000 0.6314
12890.00000 0.6333
12895.00000 0.634
12900.00000 0.6349
12905.00000 0.6355
12910.00000 0.6358
12915.00000 0.6359
12920.00000 0.6357
12925.00000 0.6355
12930.00000 0.6349
12935.00000 0.6345
12940.00000 0.6342
12945.00000 0.6336
12950.00000 0.6329
12955.00000 0.6322
12960.00000 0.6313
12965.00000 0.6303
12970.00000 0.6295
12975.00000 0.6284
12980.00000 0.6276
12985.00000 0.6268
12990.00000 0.626
12995.00000 0.6256
13000.00000 0.6249
13005.00000 0.6245
13010.00000 0.6243
13015.00000 0.6234
13020.00000 0.6226
13025.00000 0.6218
13030.00000 0.621
13035.00000 0.6216
13040.00000 0.6221
13045.00000 0.6225
13050.00000 0.623
13055.00000 0.6232
13060.00000 0.6231
13065.00000 0.6232
13070.00000 0.6229
13075.00000 0.6225
13080.00000 0.6219
13085.00000 0.621
13090.00000 0.6202
13095.00000 0.6192
13100.00000 0.6186
13105.00000 0.618
13110.00000 0.6173
13115.00000 0.617
13120.00000 0.6169
13125.00000 0.6168
13130.00000 0.6171
13135.00000 0.6182
13140.00000 0.6195
13145.00000 0.6212
13150.00000 0.6229
13155.00000 0.6242
13160.00000 0.6256
13165.00000 0.6271
13170.00000 0.6287
13175.00000 0.6296
13180.00000 0.6303
13185.00000 0.6311
13190.00000 0.6316
13195.00000 0.6316
13200.00000 0.6313
13205.00000 0.6302
13210.00000 0.6284
13215.00000 0.6254
13220.00000 0.6213
13225.00000 0.6161
13230.00000 0.6102
13235.00000 0.603
13240.00000 0.5954
13245.00000 0.5863
13250.00000 0.5753
13255.00000 0.565
13260.00000 0.5537
13265.00000 0.5419
13270.00000 0.5295
13275.00000 0.5157
13280.00000 0.5012
13285.00000 0.4845
13290.00000 0.4692
13295.00000 0.4526
13300.00000 0.4366
13305.00000 0.4188
13310.00000 0.4005
13315.00000 0.3828
13320.00000 0.3629
13325.00000 0.345
13330.00000 0.3262
13335.00000 0.3075
13340.00000 0.2876
13345.00000 0.2667
13350.00000 0.2477
13355.00000 0.2277
13360.00000 0.2094
13365.00000 0.192
13370.00000 0.1738
13375.00000 0.1564
13380.00000 0.1398
13385.00000 0.1253
13390.00000 0.1117
13395.00000 0.1001
13400.00000 0.0888
13405.00000 0.0781
13410.00000 0.0684
13415.00000 0.0601
13420.00000 0.053
13425.00000 0.0468
13430.00000 0.0413
13435.00000 0.0363
13440.00000 0.0315
13445.00000 0.0277
13450.00000 0.0243
13455.00000 0.0215
13460.00000 0.019
13465.00000 0.0168
13470.00000 0.015
13475.00000 0.0131
13480.00000 0.0117
13485.00000 0.0105
13490.00000 0.0094
13495.00000 0.0085
13500.00000 0.0076
13505.00000 0.0068
13510.00000 0.0062
13515.00000 0.0056
13520.00000 0.0051
13525.00000 0.0046
13530.00000 0.0042
14883.00000 0.0
