# %ECSV 0.9
# ---
# datatype:
# - {name: wavelength, unit: Angstrom, datatype: float32}
# - {name: response, datatype: float32}
# meta: !!omap
# - {band_name: H}
# - {group_name: GSAOI}
wavelength response
12730.50000 0.0
14145.00000 1.5e-05
14150.00000 3.1e-05
14155.00000 3.7e-05
14160.00000 2.8e-05
14165.00000 3e-05
14170.00000 1.4e-05
14175.00000 1.7e-05
14180.00000 3.3e-05
14185.00000 7.2e-05
14190.00000 3.2e-05
14195.00000 6.2e-05
14200.00000 5e-05
14205.00000 2.4e-05
14210.00000 4.8e-05
14215.00000 5.6e-05
14220.00000 5.3e-05
14225.00000 2.2e-05
14230.00000 3.4e-05
14235.00000 5.2e-05
14240.00000 1.3e-05
14245.00000 3.9e-05
14250.00000 2.4e-05
14255.00000 5e-05
14260.00000 5.7e-05
14265.00000 6.6e-05
14270.00000 9.6e-05
14275.00000 8.5e-05
14280.00000 6.2e-05
14285.00000 5.6e-05
14290.00000 9e-05
14295.00000 8.3e-05
14300.00000 9.2e-05
14305.00000 9.8e-05
14310.00000 0.000107
14315.00000 0.000124
14320.00000 0.000122
14325.00000 0.000134
14330.00000 9.2e-05
14335.00000 0.000119
14340.00000 0.000138
14345.00000 0.000139
14350.00000 0.000146
14355.00000 0.000142
14360.00000 0.000162
14365.00000 0.000136
14370.00000 0.000148
14375.00000 0.000109
14380.00000 0.000162
14385.00000 0.000126
14390.00000 0.000184
14395.00000 0.000167
14400.00000 0.000147
14405.00000 0.00016
14410.00000 0.000188
14415.00000 0.00017
14420.00000 0.000183
14425.00000 0.000193
14430.00000 0.00021
14435.00000 0.000208
14440.00000 0.00021
14445.00000 0.000254
14450.00000 0.000235
14455.00000 0.000283
14460.00000 0.000291
14465.00000 0.000237
14470.00000 0.00028
14475.00000 0.000319
14480.00000 0.000316
14485.00000 0.000317
14490.00000 0.000394
14495.00000 0.000414
14500.00000 0.000419
14505.00000 0.000471
14510.00000 0.000488
14515.00000 0.000503
14520.00000 0.000537
14525.00000 0.000607
14530.00000 0.000653
14535.00000 0.000748
14540.00000 0.000781
14545.00000 0.000846
14550.00000 0.000954
14555.00000 0.00102
14560.00000 0.001133
14565.00000 0.001245
14570.00000 0.001303
14575.00000 0.001464
14580.00000 0.001655
14585.00000 0.001817
14590.00000 0.001982
14595.00000 0.002221
14600.00000 0.002433
14605.00000 0.002708
14610.00000 0.003051
14615.00000 0.003366
14620.00000 0.003703
14625.00000 0.004092
14630.00000 0.004499
14635.00000 0.004942
14640.00000 0.00546
14645.00000 0.006085
14650.00000 0.006622
14655.00000 0.00718
14660.00000 0.007789
14665.00000 0.00845
14670.00000 0.009161
14675.00000 0.009913
14680.00000 0.010704
14685.00000 0.011394
14690.00000 0.012037
14695.00000 0.012876
14700.00000 0.013694
14705.00000 0.014632
14710.00000 0.015504
14715.00000 0.016365
14720.00000 0.017206
14725.00000 0.018091
14730.00000 0.019114
14735.00000 0.020311
14740.00000 0.021524
14745.00000 0.022723
14750.00000 0.024023
14755.00000 0.025478
14760.00000 0.02698
14765.00000 0.028886
14770.00000 0.031068
14775.00000 0.033235
14780.00000 0.035613
14785.00000 0.038144
14790.00000 0.04091
14795.00000 0.044469
14800.00000 0.048599
14805.00000 0.053013
14810.00000 0.057772
14815.00000 0.062964
14820.00000 0.068767
14825.00000 0.075598
14830.00000 0.084389
14835.00000 0.093854
14840.00000 0.104038
14845.00000 0.11528
14850.00000 0.127814
14855.00000 0.142232
14860.00000 0.161366
14865.00000 0.181974
14870.00000 0.204121
14875.00000 0.228392
14880.00000 0.25393
14885.00000 0.282381
14890.00000 0.317512
14895.00000 0.355034
14900.00000 0.392217
14905.00000 0.430719
14910.00000 0.470264
14915.00000 0.509714
14920.00000 0.551434
14925.00000 0.591253
14930.00000 0.62701
14935.00000 0.660225
14940.00000 0.688144
14945.00000 0.712138
14950.00000 0.733043
14955.00000 0.750701
14960.00000 0.763121
14965.00000 0.772767
14970.00000 0.779617
14975.00000 0.784062
14980.00000 0.787403
14985.00000 0.789323
14990.00000 0.791081
14995.00000 0.792125
15000.00000 0.793328
15005.00000 0.794753
15010.00000 0.796346
15015.00000 0.798399
15020.00000 0.800789
15025.00000 0.803993
15030.00000 0.807036
15035.00000 0.810532
15040.00000 0.814613
15045.00000 0.818992
15050.00000 0.824025
15055.00000 0.828576
15060.00000 0.832963
15065.00000 0.83753
15070.00000 0.841759
15075.00000 0.846102
15080.00000 0.84988
15085.00000 0.853718
15090.00000 0.856387
15095.00000 0.859288
15100.00000 0.861499
15105.00000 0.863285
15110.00000 0.86516
15115.00000 0.866546
15120.00000 0.867917
15125.00000 0.868541
15130.00000 0.869201
15135.00000 0.869758
15140.00000 0.869746
15145.00000 0.870315
15150.00000 0.87037
15155.00000 0.870632
15160.00000 0.871155
15165.00000 0.871932
15170.00000 0.87239
15175.00000 0.872883
15180.00000 0.874269
15185.00000 0.875636
15190.00000 0.876856
15195.00000 0.878511
15200.00000 0.880143
15205.00000 0.881856
15210.00000 0.88399
15215.00000 0.886591
15220.00000 0.889115
15225.00000 0.891606
15230.00000 0.89406
15235.00000 0.896696
15240.00000 0.899715
15245.00000 0.902456
15250.00000 0.90521
15255.00000 0.907715
15260.00000 0.909915
15265.00000 0.912209
15270.00000 0.914321
15275.00000 0.916601
15280.00000 0.918804
15285.00000 0.92065
15290.00000 0.921918
15295.00000 0.923017
15300.00000 0.92392
15305.00000 0.924956
15310.00000 0.925921
15315.00000 0.926071
15320.00000 0.926073
15325.00000 0.926177
15330.00000 0.925746
15335.00000 0.925173
15340.00000 0.924411
15345.00000 0.923725
15350.00000 0.922661
15355.00000 0.921665
15360.00000 0.920608
15365.00000 0.918738
15370.00000 0.916854
15375.00000 0.915237
15380.00000 0.913979
15385.00000 0.912528
15390.00000 0.910648
15395.00000 0.908839
15400.00000 0.906493
15405.00000 0.904506
15410.00000 0.902497
15415.00000 0.900531
15420.00000 0.898883
15425.00000 0.896734
15430.00000 0.894404
15435.00000 0.892169
15440.00000 0.889919
15445.00000 0.887817
15450.00000 0.88637
15455.00000 0.884266
15460.00000 0.882006
15465.00000 0.879554
15470.00000 0.877843
15475.00000 0.87566
15480.00000 0.873594
15485.00000 0.871854
15490.00000 0.869969
15495.00000 0.868101
15500.00000 0.866373
15505.00000 0.864719
15510.00000 0.863185
15515.00000 0.861577
15520.00000 0.860393
15525.00000 0.859085
15530.00000 0.857559
15535.00000 0.856191
15540.00000 0.855682
15545.00000 0.854919
15550.00000 0.854495
15555.00000 0.853801
15560.00000 0.853606
15565.00000 0.853612
15570.00000 0.853693
15575.00000 0.854294
15580.00000 0.854549
15585.00000 0.855295
15590.00000 0.855931
15595.00000 0.856777
15600.00000 0.857876
15605.00000 0.859441
15610.00000 0.861153
15615.00000 0.862894
15620.00000 0.864561
15625.00000 0.866569
15630.00000 0.86881
15635.00000 0.871228
15640.00000 0.873494
15645.00000 0.875739
15650.00000 0.878407
15655.00000 0.880963
15660.00000 0.883812
15665.00000 0.886643
15670.00000 0.889151
15675.00000 0.891614
15680.00000 0.894807
15685.00000 0.897766
15690.00000 0.900515
15695.00000 0.903049
15700.00000 0.905491
15705.00000 0.907689
15710.00000 0.909856
15715.00000 0.912454
15720.00000 0.91448
15725.00000 0.916671
15730.00000 0.918529
15735.00000 0.920172
15740.00000 0.921916
15745.00000 0.923445
15750.00000 0.924516
15755.00000 0.925532
15760.00000 0.926533
15765.00000 0.926863
15770.00000 0.927601
15775.00000 0.928235
15780.00000 0.928427
15785.00000 0.928465
15790.00000 0.928621
15795.00000 0.928667
15800.00000 0.928837
15805.00000 0.928523
15810.00000 0.928428
15815.00000 0.927755
15820.00000 0.927125
15825.00000 0.926355
15830.00000 0.926162
15835.00000 0.925793
15840.00000 0.925383
15845.00000 0.924865
15850.00000 0.92393
15855.00000 0.923646
15860.00000 0.92296
15865.00000 0.922545
15870.00000 0.922117
15875.00000 0.921647
15880.00000 0.920809
15885.00000 0.920563
15890.00000 0.920122
15895.00000 0.919924
15900.00000 0.919955
15905.00000 0.919859
15910.00000 0.919514
15915.00000 0.919276
15920.00000 0.918958
15925.00000 0.918869
15930.00000 0.918562
15935.00000 0.91826
15940.00000 0.918282
15945.00000 0.918175
15950.00000 0.91793
15955.00000 0.917391
15960.00000 0.917155
15965.00000 0.917155
15970.00000 0.91668
15975.00000 0.916446
15980.00000 0.916109
15985.00000 0.915574
15990.00000 0.914839
15995.00000 0.914241
16000.00000 0.913519
16005.00000 0.913011
16010.00000 0.912504
16015.00000 0.911594
16020.00000 0.910881
16025.00000 0.910163
16030.00000 0.909143
16035.00000 0.908379
16040.00000 0.907273
16045.00000 0.90603
16050.00000 0.904894
16055.00000 0.90415
16060.00000 0.903296
16065.00000 0.902265
16070.00000 0.901244
16075.00000 0.900255
16080.00000 0.899483
16085.00000 0.898689
16090.00000 0.897885
16095.00000 0.897269
16100.00000 0.896078
16105.00000 0.895459
16110.00000 0.894993
16115.00000 0.894324
16120.00000 0.894232
16125.00000 0.893954
16130.00000 0.893619
16135.00000 0.89365
16140.00000 0.893455
16145.00000 0.89349
16150.00000 0.893605
16155.00000 0.893641
16160.00000 0.894231
16165.00000 0.894724
16170.00000 0.895329
16175.00000 0.896001
16180.00000 0.896841
16185.00000 0.89764
16190.00000 0.898359
16195.00000 0.899668
16200.00000 0.900962
16205.00000 0.902013
16210.00000 0.902657
16215.00000 0.904134
16220.00000 0.905331
16225.00000 0.907066
16230.00000 0.908686
16235.00000 0.909646
16240.00000 0.911124
16245.00000 0.912466
16250.00000 0.9139
16255.00000 0.91523
16260.00000 0.916899
16265.00000 0.917986
16270.00000 0.918981
16275.00000 0.920172
16280.00000 0.921385
16285.00000 0.922925
16290.00000 0.923957
16295.00000 0.92471
16300.00000 0.925666
16305.00000 0.926374
16310.00000 0.927139
16315.00000 0.927636
16320.00000 0.928576
16325.00000 0.92881
16330.00000 0.929046
16335.00000 0.929292
16340.00000 0.929601
16345.00000 0.929535
16350.00000 0.929239
16355.00000 0.929529
16360.00000 0.92935
16365.00000 0.92922
16370.00000 0.928296
16375.00000 0.92776
16380.00000 0.927387
16385.00000 0.926369
16390.00000 0.926
16395.00000 0.925619
16400.00000 0.924506
16405.00000 0.923725
16410.00000 0.922589
16415.00000 0.921346
16420.00000 0.920582
16425.00000 0.919841
16430.00000 0.918589
16435.00000 0.917829
16440.00000 0.916131
16445.00000 0.914776
16450.00000 0.913778
16455.00000 0.912823
16460.00000 0.912094
16465.00000 0.911346
16470.00000 0.910189
16475.00000 0.908958
16480.00000 0.907798
16485.00000 0.906657
16490.00000 0.905989
16495.00000 0.904797
16500.00000 0.904103
16505.00000 0.903198
16510.00000 0.902235
16515.00000 0.901463
16520.00000 0.900486
16525.00000 0.900172
16530.00000 0.899648
16535.00000 0.899009
16540.00000 0.898224
16545.00000 0.89777
16550.00000 0.897247
16555.00000 0.896802
16560.00000 0.896381
16565.00000 0.896388
16570.00000 0.896298
16575.00000 0.89603
16580.00000 0.896173
16585.00000 0.896086
16590.00000 0.895845
16595.00000 0.896092
16600.00000 0.896145
16605.00000 0.896094
16610.00000 0.896033
16615.00000 0.896207
16620.00000 0.896873
16625.00000 0.897489
16630.00000 0.897648
16635.00000 0.8982
16640.00000 0.898854
16645.00000 0.899349
16650.00000 0.900039
16655.00000 0.900788
16660.00000 0.901371
16665.00000 0.901919
16670.00000 0.902521
16675.00000 0.903252
16680.00000 0.90428
16685.00000 0.904892
16690.00000 0.906365
16695.00000 0.907437
16700.00000 0.907871
16705.00000 0.908886
16710.00000 0.909753
16715.00000 0.91036
16720.00000 0.911243
16725.00000 0.912285
16730.00000 0.913068
16735.00000 0.914319
16740.00000 0.915098
16745.00000 0.915348
16750.00000 0.91633
16755.00000 0.916955
16760.00000 0.917921
16765.00000 0.918881
16770.00000 0.919214
16775.00000 0.919223
16780.00000 0.919956
16785.00000 0.920535
16790.00000 0.921287
16795.00000 0.921755
16800.00000 0.921923
16805.00000 0.922137
16810.00000 0.922525
16815.00000 0.922481
16820.00000 0.922549
16825.00000 0.922488
16830.00000 0.922261
16835.00000 0.922501
16840.00000 0.922572
16845.00000 0.921971
16850.00000 0.922158
16855.00000 0.922071
16860.00000 0.921473
16865.00000 0.921635
16870.00000 0.921174
16875.00000 0.920709
16880.00000 0.920425
16885.00000 0.920075
16890.00000 0.919455
16895.00000 0.919132
16900.00000 0.918992
16905.00000 0.918606
16910.00000 0.918499
16915.00000 0.917861
16920.00000 0.917228
16925.00000 0.917093
16930.00000 0.916934
16935.00000 0.916415
16940.00000 0.916118
16945.00000 0.915851
16950.00000 0.915506
16955.00000 0.915483
16960.00000 0.915503
16965.00000 0.915039
16970.00000 0.915063
16975.00000 0.914783
16980.00000 0.91466
16985.00000 0.91469
16990.00000 0.914375
16995.00000 0.913823
17000.00000 0.914249
17005.00000 0.914084
17010.00000 0.913486
17015.00000 0.913803
17020.00000 0.914097
17025.00000 0.913929
17030.00000 0.913846
17035.00000 0.913719
17040.00000 0.913676
17045.00000 0.913185
17050.00000 0.913006
17055.00000 0.912757
17060.00000 0.912481
17065.00000 0.912682
17070.00000 0.91247
17075.00000 0.912367
17080.00000 0.912138
17085.00000 0.911272
17090.00000 0.91111
17095.00000 0.911097
17100.00000 0.910628
17105.00000 0.909891
17110.00000 0.909358
17115.00000 0.908638
17120.00000 0.908288
17125.00000 0.90802
17130.00000 0.907754
17135.00000 0.907311
17140.00000 0.906907
17145.00000 0.905973
17150.00000 0.905394
17155.00000 0.904651
17160.00000 0.904126
17165.00000 0.903582
17170.00000 0.903172
17175.00000 0.902502
17180.00000 0.9019
17185.00000 0.90177
17190.00000 0.901379
17195.00000 0.90109
17200.00000 0.901198
17205.00000 0.900877
17210.00000 0.900442
17215.00000 0.90061
17220.00000 0.900338
17225.00000 0.899755
17230.00000 0.899769
17235.00000 0.900284
17240.00000 0.900534
17245.00000 0.901
17250.00000 0.901051
17255.00000 0.901583
17260.00000 0.902325
17265.00000 0.902955
17270.00000 0.903584
17275.00000 0.904206
17280.00000 0.904908
17285.00000 0.905361
17290.00000 0.906308
17295.00000 0.907466
17300.00000 0.908607
17305.00000 0.909833
17310.00000 0.91119
17315.00000 0.912182
17320.00000 0.912925
17325.00000 0.914295
17330.00000 0.915575
17335.00000 0.916626
17340.00000 0.917777
17345.00000 0.918926
17350.00000 0.920076
17355.00000 0.921386
17360.00000 0.922731
17365.00000 0.924142
17370.00000 0.924995
17375.00000 0.926021
17380.00000 0.927069
17385.00000 0.927925
17390.00000 0.92875
17395.00000 0.929333
17400.00000 0.930122
17405.00000 0.930929
17410.00000 0.931494
17415.00000 0.931848
17420.00000 0.932314
17425.00000 0.932548
17430.00000 0.932953
17435.00000 0.933426
17440.00000 0.933407
17445.00000 0.933051
17450.00000 0.93277
17455.00000 0.932776
17460.00000 0.932712
17465.00000 0.93228
17470.00000 0.931874
17475.00000 0.931509
17480.00000 0.93054
17485.00000 0.929557
17490.00000 0.928862
17495.00000 0.927847
17500.00000 0.927157
17505.00000 0.926044
17510.00000 0.924888
17515.00000 0.923726
17520.00000 0.922153
17525.00000 0.920914
17530.00000 0.919807
17535.00000 0.918158
17540.00000 0.916466
17545.00000 0.915069
17550.00000 0.913308
17555.00000 0.910766
17560.00000 0.908722
17565.00000 0.906693
17570.00000 0.904822
17575.00000 0.902651
17580.00000 0.900064
17585.00000 0.897439
17590.00000 0.894049
17595.00000 0.891207
17600.00000 0.887927
17605.00000 0.883913
17610.00000 0.8801
17615.00000 0.875631
17620.00000 0.870964
17625.00000 0.8663
17630.00000 0.861358
17635.00000 0.855629
17640.00000 0.849539
17645.00000 0.842606
17650.00000 0.834716
17655.00000 0.826528
17660.00000 0.818365
17665.00000 0.808905
17670.00000 0.798685
17675.00000 0.787608
17680.00000 0.776479
17685.00000 0.76335
17690.00000 0.75092
17695.00000 0.737474
17700.00000 0.721971
17705.00000 0.706044
17710.00000 0.689441
17715.00000 0.671257
17720.00000 0.65293
17725.00000 0.634704
17730.00000 0.615953
17735.00000 0.59549
17740.00000 0.574177
17745.00000 0.552818
17750.00000 0.531087
17755.00000 0.509734
17760.00000 0.488986
17765.00000 0.46825
17770.00000 0.444955
17775.00000 0.422405
17780.00000 0.400976
17785.00000 0.379494
17790.00000 0.360156
17795.00000 0.340722
17800.00000 0.321758
17805.00000 0.301018
17810.00000 0.282635
17815.00000 0.265195
17820.00000 0.249077
17825.00000 0.23459
17830.00000 0.21987
17835.00000 0.204321
17840.00000 0.190121
17845.00000 0.177254
17850.00000 0.16544
17855.00000 0.154937
17860.00000 0.144607
17865.00000 0.133711
17870.00000 0.123631
17875.00000 0.115098
17880.00000 0.107024
17885.00000 0.100073
17890.00000 0.093339
17895.00000 0.086758
17900.00000 0.080022
17905.00000 0.074064
17910.00000 0.068965
17915.00000 0.064494
17920.00000 0.060168
17925.00000 0.056031
17930.00000 0.051826
17935.00000 0.047972
17940.00000 0.044611
17945.00000 0.041659
17950.00000 0.03891
17955.00000 0.036373
17960.00000 0.033694
17965.00000 0.031244
17970.00000 0.029095
17975.00000 0.027271
17980.00000 0.025587
17985.00000 0.023947
17990.00000 0.022432
17995.00000 0.020782
18000.00000 0.019371
18005.00000 0.01818
18010.00000 0.016986
18015.00000 0.015894
18020.00000 0.014848
18025.00000 0.013878
18030.00000 0.01287
18035.00000 0.012129
18040.00000 0.011466
18045.00000 0.010804
18050.00000 0.010159
18055.00000 0.009481
18060.00000 0.008773
18065.00000 0.008219
18070.00000 0.00776
18075.00000 0.007337
18080.00000 0.00692
18085.00000 0.006489
18090.00000 0.006123
18095.00000 0.005739
18100.00000 0.005392
18105.00000 0.005096
18110.00000 0.00479
18115.00000 0.004524
18120.00000 0.004216
18125.00000 0.00396
18130.00000 0.003748
18135.00000 0.003538
18140.00000 0.003352
18145.00000 0.003179
18150.00000 0.002987
18155.00000 0.002819
18160.00000 0.002652
18165.00000 0.002496
18170.00000 0.002344
18175.00000 0.00227
18180.00000 0.002131
18185.00000 0.002009
18190.00000 0.001948
18195.00000 0.001864
18200.00000 0.001714
18205.00000 0.0016
18210.00000 0.001547
18215.00000 0.001435
18220.00000 0.001331
18225.00000 0.001304
18230.00000 0.001238
18235.00000 0.001189
18240.00000 0.001106
18245.00000 0.00106
18250.00000 0.001011
18255.00000 0.000971
18260.00000 0.000909
18265.00000 0.000883
18270.00000 0.000833
18275.00000 0.000767
18280.00000 0.000715
18285.00000 0.000719
18290.00000 0.000694
18295.00000 0.000661
18300.00000 0.000599
18305.00000 0.000572
18310.00000 0.000566
18315.00000 0.000484
18320.00000 0.000462
18325.00000 0.000465
18330.00000 0.000478
18335.00000 0.000427
18340.00000 0.000449
18345.00000 0.000412
18350.00000 0.000361
18355.00000 0.000376
18360.00000 0.000313
18365.00000 0.000376
18370.00000 0.000307
18375.00000 0.0003
18380.00000 0.000283
18385.00000 0.000272
18390.00000 0.000252
18395.00000 0.000236
18400.00000 0.000303
18405.00000 0.000222
18410.00000 0.000211
18415.00000 0.000177
18420.00000 0.000203
18425.00000 0.000169
18430.00000 0.000179
18435.00000 0.000153
18440.00000 0.000177
18445.00000 0.000149
18450.00000 0.000177
18455.00000 0.00011
18460.00000 0.000132
18465.00000 0.000139
18470.00000 0.00014
18475.00000 0.000111
18480.00000 0.000131
18485.00000 0.000113
18490.00000 0.00014
18495.00000 0.000117
18500.00000 9.9e-05
18505.00000 8.2e-05
18510.00000 0.0001
18515.00000 0.000109
18520.00000 9.7e-05
18525.00000 9.1e-05
18530.00000 0.000106
18535.00000 7.5e-05
18540.00000 9.9e-05
18545.00000 5.8e-05
18550.00000 3.2e-05
18555.00000 4.8e-05
18560.00000 7.5e-05
18565.00000 3.3e-05
18570.00000 6.3e-05
18575.00000 4.8e-05
18580.00000 3.5e-05
18585.00000 2.6e-05
18590.00000 5e-05
18595.00000 2.1e-05
18600.00000 7e-05
18605.00000 7.1e-05
18610.00000 3.7e-05
18615.00000 3.8e-05
18620.00000 2.2e-05
18625.00000 1.8e-05
18630.00000 3.6e-05
18635.00000 7e-06
18640.00000 8.9e-05
20504.00000 0.0
