# %ECSV 0.9
# ---
# datatype:
# - {name: wavelength, unit: Angstrom, datatype: float32}
# - {name: response, datatype: float32}
# meta: !!omap
# - {band_name: Kprime}
# - {group_name: GSAOI}
wavelength response
16776.00000 0.0
18640.00000 0.000131
18642.50000 0.000125
18645.00000 3.7e-05
18647.50000 1.2e-05
18650.00000 0.000187
18652.50000 0.000115
18655.00000 0.00015
18657.50000 0.000131
18660.00000 0.000119
18662.50000 9.3e-05
18665.00000 0.000185
18667.50000 8e-05
18670.00000 9.5e-05
18672.50000 9.4e-05
18675.00000 7e-05
18677.50000 0.000132
18680.00000 0.000162
18682.50000 5.4e-05
18685.00000 0.000113
18687.50000 9e-05
18690.00000 0.000169
18692.50000 8e-05
18695.00000 9.2e-05
18697.50000 0.00023
18700.00000 0.000222
18702.50000 4.8e-05
18705.00000 0.000149
18707.50000 0.000243
18710.00000 0.00023
18712.50000 0.000292
18715.00000 6.2e-05
18717.50000 0.000111
18720.00000 0.000207
18722.50000 0.000211
18725.00000 0.000133
18727.50000 0.00016
18730.00000 0.000186
18732.50000 0.000228
18735.00000 0.000353
18737.50000 7.1e-05
18740.00000 0.000203
18742.50000 9.7e-05
18745.00000 0.000142
18747.50000 0.000165
18750.00000 0.000224
18752.50000 0.000198
18755.00000 0.00022
18757.50000 0.00017
18760.00000 0.00011
18762.50000 0.000204
18765.00000 0.000183
18767.50000 0.00026
18770.00000 0.000221
18772.50000 0.000342
18775.00000 0.00025
18777.50000 0.000221
18780.00000 0.000226
18782.50000 0.000229
18785.00000 0.000209
18787.50000 0.000333
18790.00000 0.000313
18792.50000 0.000305
18795.00000 0.0003
18797.50000 0.000269
18800.00000 0.00023
18802.50000 0.000225
18805.00000 0.000349
18807.50000 0.000345
18810.00000 0.000286
18812.50000 0.00031
18815.00000 0.000374
18817.50000 0.000406
18820.00000 0.000419
18822.50000 0.000295
18825.00000 0.00031
18827.50000 0.000566
18830.00000 0.0004
18832.50000 0.000564
18835.00000 0.000477
18837.50000 0.00045
18840.00000 0.000565
18842.50000 0.000556
18845.00000 0.000478
18847.50000 0.00057
18850.00000 0.000539
18852.50000 0.000563
18855.00000 0.000555
18857.50000 0.000557
18860.00000 0.000634
18862.50000 0.000524
18865.00000 0.000617
18867.50000 0.000631
18870.00000 0.000669
18872.50000 0.000697
18875.00000 0.000732
18877.50000 0.000656
18880.00000 0.000751
18882.50000 0.000752
18885.00000 0.000842
18887.50000 0.000803
18890.00000 0.000806
18892.50000 0.000843
18895.00000 0.000942
18897.50000 0.000921
18900.00000 0.000951
18902.50000 0.000897
18905.00000 0.000998
18907.50000 0.00111
18910.00000 0.000993
18912.50000 0.001005
18915.00000 0.001079
18917.50000 0.001141
18920.00000 0.001153
18922.50000 0.001241
18925.00000 0.001309
18927.50000 0.001221
18930.00000 0.001314
18932.50000 0.001303
18935.00000 0.00142
18937.50000 0.001352
18940.00000 0.001434
18942.50000 0.001468
18945.00000 0.001455
18947.50000 0.001514
18950.00000 0.001492
18952.50000 0.001634
18955.00000 0.001659
18957.50000 0.001687
18960.00000 0.00175
18962.50000 0.001706
18965.00000 0.001807
18967.50000 0.001907
18970.00000 0.001879
18972.50000 0.001875
18975.00000 0.00189
18977.50000 0.002054
18980.00000 0.002103
18982.50000 0.002194
18985.00000 0.002149
18987.50000 0.002237
18990.00000 0.00227
18992.50000 0.002415
18995.00000 0.002474
18997.50000 0.002486
19000.00000 0.002571
19002.50000 0.002596
19005.00000 0.002793
19007.50000 0.002709
19010.00000 0.002767
19012.50000 0.002864
19015.00000 0.002945
19017.50000 0.002896
19020.00000 0.002957
19022.50000 0.003087
19025.00000 0.003223
19027.50000 0.003254
19030.00000 0.003282
19032.50000 0.003371
19035.00000 0.003449
19037.50000 0.003482
19040.00000 0.003648
19042.50000 0.003706
19045.00000 0.003825
19047.50000 0.003761
19050.00000 0.003958
19052.50000 0.004091
19055.00000 0.004178
19057.50000 0.004219
19060.00000 0.004371
19062.50000 0.004513
19065.00000 0.004725
19067.50000 0.004658
19070.00000 0.004696
19072.50000 0.004854
19075.00000 0.004982
19077.50000 0.005073
19080.00000 0.005169
19082.50000 0.0054
19085.00000 0.005377
19087.50000 0.005667
19090.00000 0.005696
19092.50000 0.005836
19095.00000 0.005965
19097.50000 0.006133
19100.00000 0.006266
19102.50000 0.00642
19105.00000 0.006604
19107.50000 0.006748
19110.00000 0.006942
19112.50000 0.006926
19115.00000 0.007203
19117.50000 0.007389
19120.00000 0.007638
19122.50000 0.007916
19125.00000 0.008029
19127.50000 0.008249
19130.00000 0.008621
19132.50000 0.008522
19135.00000 0.008851
19137.50000 0.009391
19140.00000 0.0095
19142.50000 0.009707
19145.00000 0.010009
19147.50000 0.010159
19150.00000 0.010463
19152.50000 0.010901
19155.00000 0.011141
19157.50000 0.011546
19160.00000 0.011699
19162.50000 0.012164
19165.00000 0.012466
19167.50000 0.012852
19170.00000 0.013283
19172.50000 0.013521
19175.00000 0.013925
19177.50000 0.014487
19180.00000 0.014679
19182.50000 0.015371
19185.00000 0.015799
19187.50000 0.016273
19190.00000 0.016796
19192.50000 0.017345
19195.00000 0.018002
19197.50000 0.018555
19200.00000 0.019476
19202.50000 0.019761
19205.00000 0.02064
19207.50000 0.021109
19210.00000 0.022195
19212.50000 0.022878
19215.00000 0.0236
19217.50000 0.024479
19220.00000 0.025164
19222.50000 0.026231
19225.00000 0.027016
19227.50000 0.028048
19230.00000 0.029225
19232.50000 0.029983
19235.00000 0.031229
19237.50000 0.03237
19240.00000 0.033598
19242.50000 0.03509
19245.00000 0.036166
19247.50000 0.037681
19250.00000 0.039023
19252.50000 0.04065
19255.00000 0.042202
19257.50000 0.043832
19260.00000 0.045704
19262.50000 0.047255
19265.00000 0.049353
19267.50000 0.051179
19270.00000 0.053499
19272.50000 0.055786
19275.00000 0.058032
19277.50000 0.060807
19280.00000 0.062952
19282.50000 0.06605
19285.00000 0.068712
19287.50000 0.071664
19290.00000 0.075023
19292.50000 0.077775
19295.00000 0.081624
19297.50000 0.084786
19300.00000 0.088749
19302.50000 0.092631
19305.00000 0.096593
19307.50000 0.100862
19310.00000 0.104619
19312.50000 0.109925
19315.00000 0.114337
19317.50000 0.119266
19320.00000 0.124762
19322.50000 0.129839
19325.00000 0.136221
19327.50000 0.141226
19330.00000 0.148131
19332.50000 0.154537
19335.00000 0.160927
19337.50000 0.16864
19340.00000 0.174743
19342.50000 0.1831
19345.00000 0.189846
19347.50000 0.198539
19350.00000 0.207452
19352.50000 0.21578
19355.00000 0.225616
19357.50000 0.23318
19360.00000 0.243386
19362.50000 0.252546
19365.00000 0.263262
19367.50000 0.274319
19370.00000 0.284235
19372.50000 0.296252
19375.00000 0.306117
19377.50000 0.318492
19380.00000 0.330211
19382.50000 0.341903
19385.00000 0.355764
19387.50000 0.367098
19390.00000 0.380554
19392.50000 0.391068
19395.00000 0.405752
19397.50000 0.419786
19400.00000 0.432172
19402.50000 0.446724
19405.00000 0.458739
19407.50000 0.473497
19410.00000 0.48528
19412.50000 0.499576
19415.00000 0.51439
19417.50000 0.526218
19420.00000 0.540314
19422.50000 0.551931
19425.00000 0.566442
19427.50000 0.578519
19430.00000 0.591673
19432.50000 0.6062
19435.00000 0.617081
19437.50000 0.630964
19440.00000 0.641816
19442.50000 0.654422
19445.00000 0.666621
19447.50000 0.677791
19450.00000 0.690467
19452.50000 0.699864
19455.00000 0.712201
19457.50000 0.721835
19460.00000 0.731806
19462.50000 0.742403
19465.00000 0.751243
19467.50000 0.761936
19470.00000 0.76964
19472.50000 0.779815
19475.00000 0.787829
19477.50000 0.795596
19480.00000 0.804335
19482.50000 0.811372
19485.00000 0.819771
19487.50000 0.82633
19490.00000 0.83377
19492.50000 0.840553
19495.00000 0.846756
19497.50000 0.853558
19500.00000 0.85851
19502.50000 0.865266
19505.00000 0.870338
19507.50000 0.875818
19510.00000 0.881285
19512.50000 0.885721
19515.00000 0.891059
19517.50000 0.894698
19520.00000 0.899723
19522.50000 0.903701
19525.00000 0.907478
19527.50000 0.911697
19530.00000 0.914769
19532.50000 0.918464
19535.00000 0.921661
19537.50000 0.924885
19540.00000 0.928182
19542.50000 0.930592
19545.00000 0.933507
19547.50000 0.935729
19550.00000 0.938119
19552.50000 0.940323
19555.00000 0.942327
19557.50000 0.944649
19560.00000 0.946196
19562.50000 0.947687
19565.00000 0.94897
19567.50000 0.950311
19570.00000 0.951598
19572.50000 0.952802
19575.00000 0.953698
19577.50000 0.954704
19580.00000 0.955345
19582.50000 0.955844
19585.00000 0.95651
19587.50000 0.95676
19590.00000 0.957259
19592.50000 0.95752
19595.00000 0.957749
19597.50000 0.957504
19600.00000 0.957666
19602.50000 0.957435
19605.00000 0.957134
19607.50000 0.956913
19610.00000 0.95684
19612.50000 0.956156
19615.00000 0.955592
19617.50000 0.955141
19620.00000 0.954734
19622.50000 0.953892
19625.00000 0.953338
19627.50000 0.952403
19630.00000 0.951587
19632.50000 0.951119
19635.00000 0.950164
19637.50000 0.949356
19640.00000 0.948291
19642.50000 0.947496
19645.00000 0.946539
19647.50000 0.945576
19650.00000 0.94461
19652.50000 0.943665
19655.00000 0.942855
19657.50000 0.941639
19660.00000 0.940845
19662.50000 0.940029
19665.00000 0.938932
19667.50000 0.937973
19670.00000 0.937196
19672.50000 0.936333
19675.00000 0.935374
19677.50000 0.93446
19680.00000 0.933504
19682.50000 0.932785
19685.00000 0.93211
19687.50000 0.931148
19690.00000 0.930357
19692.50000 0.929655
19695.00000 0.929182
19697.50000 0.928445
19700.00000 0.927893
19702.50000 0.92739
19705.00000 0.926777
19707.50000 0.926597
19710.00000 0.925832
19712.50000 0.925503
19715.00000 0.925212
19717.50000 0.924791
19720.00000 0.924637
19722.50000 0.924425
19725.00000 0.924019
19727.50000 0.923857
19730.00000 0.923823
19732.50000 0.923706
19735.00000 0.923573
19737.50000 0.923428
19740.00000 0.923638
19742.50000 0.923457
19745.00000 0.923697
19747.50000 0.923917
19750.00000 0.923899
19752.50000 0.924219
19755.00000 0.92429
19757.50000 0.92453
19760.00000 0.925068
19762.50000 0.925289
19765.00000 0.925717
19767.50000 0.92597
19770.00000 0.926478
19772.50000 0.926659
19775.00000 0.927134
19777.50000 0.927573
19780.00000 0.928152
19782.50000 0.928872
19785.00000 0.928994
19787.50000 0.929801
19790.00000 0.930247
19792.50000 0.930797
19795.00000 0.931391
19797.50000 0.931834
19800.00000 0.932733
19802.50000 0.933169
19805.00000 0.933938
19807.50000 0.934526
19810.00000 0.935287
19812.50000 0.936023
19815.00000 0.93654
19817.50000 0.937114
19820.00000 0.937642
19822.50000 0.938527
19825.00000 0.939018
19827.50000 0.939935
19830.00000 0.940429
19832.50000 0.940994
19835.00000 0.941938
19837.50000 0.942259
19840.00000 0.942772
19842.50000 0.943492
19845.00000 0.944251
19847.50000 0.944697
19850.00000 0.945329
19852.50000 0.945972
19855.00000 0.946566
19857.50000 0.947181
19860.00000 0.947656
19862.50000 0.948182
19865.00000 0.948867
19867.50000 0.949458
19870.00000 0.949833
19872.50000 0.950303
19875.00000 0.950648
19877.50000 0.951355
19880.00000 0.951745
19882.50000 0.952251
19885.00000 0.952802
19887.50000 0.952986
19890.00000 0.953431
19892.50000 0.954027
19895.00000 0.954273
19897.50000 0.954691
19900.00000 0.95503
19902.50000 0.955342
19905.00000 0.955618
19907.50000 0.955978
19910.00000 0.956359
19912.50000 0.956763
19915.00000 0.956986
19917.50000 0.957319
19920.00000 0.957685
19922.50000 0.957704
19925.00000 0.958142
19927.50000 0.958239
19930.00000 0.958424
19932.50000 0.958893
19935.00000 0.958872
19937.50000 0.959261
19940.00000 0.959455
19942.50000 0.959618
19945.00000 0.959697
19947.50000 0.959934
19950.00000 0.960121
19952.50000 0.960223
19955.00000 0.960725
19957.50000 0.960687
19960.00000 0.960774
19962.50000 0.960889
19965.00000 0.960843
19967.50000 0.961307
19970.00000 0.961312
19972.50000 0.961575
19975.00000 0.961576
19977.50000 0.961723
19980.00000 0.961997
19982.50000 0.962178
19985.00000 0.962108
19987.50000 0.962372
19990.00000 0.962167
19992.50000 0.962371
19995.00000 0.962525
19997.50000 0.962658
20000.00000 0.962564
20002.50000 0.962848
20005.00000 0.962836
20007.50000 0.96297
20010.00000 0.963074
20012.50000 0.963098
20015.00000 0.963436
20017.50000 0.963398
20020.00000 0.963564
20022.50000 0.963557
20025.00000 0.963741
20027.50000 0.96375
20030.00000 0.963877
20032.50000 0.963957
20035.00000 0.964041
20037.50000 0.964274
20040.00000 0.964301
20042.50000 0.964385
20045.00000 0.964287
20047.50000 0.964402
20050.00000 0.964552
20052.50000 0.964602
20055.00000 0.964583
20057.50000 0.964586
20060.00000 0.964824
20062.50000 0.964825
20065.00000 0.964938
20067.50000 0.964944
20070.00000 0.965024
20072.50000 0.965184
20075.00000 0.965116
20077.50000 0.965256
20080.00000 0.96534
20082.50000 0.965315
20085.00000 0.965326
20087.50000 0.965505
20090.00000 0.965551
20092.50000 0.965484
20095.00000 0.965569
20097.50000 0.965768
20100.00000 0.965702
20102.50000 0.965756
20105.00000 0.965741
20107.50000 0.965626
20110.00000 0.965848
20112.50000 0.965883
20115.00000 0.965867
20117.50000 0.965748
20120.00000 0.965776
20122.50000 0.965573
20125.00000 0.965743
20127.50000 0.965822
20130.00000 0.96559
20132.50000 0.965779
20135.00000 0.965576
20137.50000 0.96586
20140.00000 0.965638
20142.50000 0.965596
20145.00000 0.965456
20147.50000 0.965532
20150.00000 0.965365
20152.50000 0.96542
20155.00000 0.965328
20157.50000 0.965313
20160.00000 0.965269
20162.50000 0.965184
20165.00000 0.965077
20167.50000 0.96497
20170.00000 0.964968
20172.50000 0.964818
20175.00000 0.96479
20177.50000 0.964588
20180.00000 0.964709
20182.50000 0.964389
20185.00000 0.964196
20187.50000 0.964153
20190.00000 0.963953
20192.50000 0.963934
20195.00000 0.963495
20197.50000 0.963617
20200.00000 0.963615
20202.50000 0.963266
20205.00000 0.963105
20207.50000 0.962964
20210.00000 0.962707
20212.50000 0.962726
20215.00000 0.962191
20217.50000 0.962147
20220.00000 0.961945
20222.50000 0.961695
20225.00000 0.961493
20227.50000 0.961241
20230.00000 0.961049
20232.50000 0.960757
20235.00000 0.960667
20237.50000 0.960309
20240.00000 0.960173
20242.50000 0.959927
20245.00000 0.95961
20247.50000 0.959356
20250.00000 0.959008
20252.50000 0.958795
20255.00000 0.958502
20257.50000 0.95813
20260.00000 0.957804
20262.50000 0.957617
20265.00000 0.95716
20267.50000 0.956817
20270.00000 0.956611
20272.50000 0.95626
20275.00000 0.955709
20277.50000 0.955407
20280.00000 0.955268
20282.50000 0.95467
20285.00000 0.954399
20287.50000 0.954159
20290.00000 0.953633
20292.50000 0.953165
20295.00000 0.952818
20297.50000 0.952379
20300.00000 0.95212
20302.50000 0.951591
20305.00000 0.95112
20307.50000 0.950789
20310.00000 0.950286
20312.50000 0.949871
20315.00000 0.94945
20317.50000 0.948852
20320.00000 0.948359
20322.50000 0.947968
20325.00000 0.947777
20327.50000 0.947078
20330.00000 0.946784
20332.50000 0.946076
20335.00000 0.945683
20337.50000 0.945372
20340.00000 0.944409
20342.50000 0.944248
20345.00000 0.943507
20347.50000 0.943024
20350.00000 0.942755
20352.50000 0.942011
20355.00000 0.941612
20357.50000 0.941034
20360.00000 0.940824
20362.50000 0.939992
20365.00000 0.93952
20367.50000 0.939027
20370.00000 0.938485
20372.50000 0.937987
20375.00000 0.937372
20377.50000 0.936855
20380.00000 0.936184
20382.50000 0.935667
20385.00000 0.93514
20387.50000 0.934682
20390.00000 0.933851
20392.50000 0.933788
20395.00000 0.932925
20397.50000 0.932479
20400.00000 0.931935
20402.50000 0.931668
20405.00000 0.930944
20407.50000 0.930535
20410.00000 0.929951
20412.50000 0.929743
20415.00000 0.929075
20417.50000 0.928517
20420.00000 0.928102
20422.50000 0.927678
20425.00000 0.9273
20427.50000 0.926929
20430.00000 0.926383
20432.50000 0.926015
20435.00000 0.925556
20437.50000 0.924964
20440.00000 0.924695
20442.50000 0.924284
20445.00000 0.923882
20447.50000 0.923507
20450.00000 0.923219
20452.50000 0.922817
20455.00000 0.922666
20457.50000 0.922282
20460.00000 0.921928
20462.50000 0.92169
20465.00000 0.921427
20467.50000 0.92116
20470.00000 0.92088
20472.50000 0.920668
20475.00000 0.920507
20477.50000 0.920293
20480.00000 0.920077
20482.50000 0.920003
20485.00000 0.919698
20487.50000 0.919617
20490.00000 0.919481
20492.50000 0.919578
20495.00000 0.919454
20497.50000 0.919284
20500.00000 0.919262
20502.50000 0.919263
20505.00000 0.919176
20507.50000 0.919103
20510.00000 0.919264
20512.50000 0.919285
20515.00000 0.919353
20517.50000 0.919561
20520.00000 0.919671
20522.50000 0.919877
20525.00000 0.919992
20527.50000 0.920107
20530.00000 0.920261
20532.50000 0.920368
20535.00000 0.92081
20537.50000 0.920803
20540.00000 0.921226
20542.50000 0.921561
20545.00000 0.921713
20547.50000 0.922188
20550.00000 0.922461
20552.50000 0.922912
20555.00000 0.923361
20557.50000 0.923658
20560.00000 0.924051
20562.50000 0.924333
20565.00000 0.924929
20567.50000 0.925301
20570.00000 0.925724
20572.50000 0.926248
20575.00000 0.926822
20577.50000 0.927367
20580.00000 0.927845
20582.50000 0.928436
20585.00000 0.928956
20587.50000 0.929369
20590.00000 0.930184
20592.50000 0.930662
20595.00000 0.931577
20597.50000 0.932028
20600.00000 0.932565
20602.50000 0.933213
20605.00000 0.93361
20607.50000 0.934374
20610.00000 0.934981
20612.50000 0.935767
20615.00000 0.936503
20617.50000 0.937172
20620.00000 0.937836
20622.50000 0.938478
20625.00000 0.939109
20627.50000 0.93974
20630.00000 0.940439
20632.50000 0.941051
20635.00000 0.941942
20637.50000 0.942264
20640.00000 0.943178
20642.50000 0.943744
20645.00000 0.944917
20647.50000 0.945095
20650.00000 0.94606
20652.50000 0.94656
20655.00000 0.947494
20657.50000 0.94816
20660.00000 0.948896
20662.50000 0.949465
20665.00000 0.950471
20667.50000 0.951096
20670.00000 0.951508
20672.50000 0.952237
20675.00000 0.953147
20677.50000 0.953527
20680.00000 0.95434
20682.50000 0.954812
20685.00000 0.955714
20687.50000 0.956206
20690.00000 0.956929
20692.50000 0.957423
20695.00000 0.958072
20697.50000 0.958707
20700.00000 0.95939
20702.50000 0.959808
20705.00000 0.960478
20707.50000 0.960557
20710.00000 0.96136
20712.50000 0.961868
20715.00000 0.962549
20717.50000 0.962761
20720.00000 0.963114
20722.50000 0.963736
20725.00000 0.963928
20727.50000 0.964545
20730.00000 0.9651
20732.50000 0.965364
20735.00000 0.965699
20737.50000 0.966439
20740.00000 0.966536
20742.50000 0.966862
20745.00000 0.967309
20747.50000 0.967403
20750.00000 0.967835
20752.50000 0.968211
20755.00000 0.968415
20757.50000 0.968651
20760.00000 0.968974
20762.50000 0.969149
20765.00000 0.969328
20767.50000 0.969863
20770.00000 0.969935
20772.50000 0.970255
20775.00000 0.97036
20777.50000 0.970534
20780.00000 0.970651
20782.50000 0.970842
20785.00000 0.970879
20787.50000 0.971149
20790.00000 0.971199
20792.50000 0.971227
20795.00000 0.971291
20797.50000 0.97161
20800.00000 0.971625
20802.50000 0.971694
20805.00000 0.971432
20807.50000 0.971643
20810.00000 0.971797
20812.50000 0.971761
20815.00000 0.971814
20817.50000 0.971747
20820.00000 0.971974
20822.50000 0.971791
20825.00000 0.971651
20827.50000 0.97174
20830.00000 0.97185
20832.50000 0.97176
20835.00000 0.971628
20837.50000 0.971684
20840.00000 0.971538
20842.50000 0.971642
20845.00000 0.971517
20847.50000 0.971356
20850.00000 0.971221
20852.50000 0.971302
20855.00000 0.971275
20857.50000 0.971086
20860.00000 0.971067
20862.50000 0.970933
20865.00000 0.971073
20867.50000 0.970741
20870.00000 0.970533
20872.50000 0.97071
20875.00000 0.970528
20877.50000 0.970399
20880.00000 0.970506
20882.50000 0.970313
20885.00000 0.970194
20887.50000 0.969829
20890.00000 0.970112
20892.50000 0.969926
20895.00000 0.970006
20897.50000 0.969536
20900.00000 0.969431
20902.50000 0.969557
20905.00000 0.96929
20907.50000 0.969245
20910.00000 0.969113
20912.50000 0.968981
20915.00000 0.968722
20917.50000 0.968831
20920.00000 0.968821
20922.50000 0.968644
20925.00000 0.968699
20927.50000 0.968426
20930.00000 0.968305
20932.50000 0.968057
20935.00000 0.968119
20937.50000 0.967979
20940.00000 0.968018
20942.50000 0.967743
20945.00000 0.967744
20947.50000 0.96758
20950.00000 0.967487
20952.50000 0.967256
20955.00000 0.967087
20957.50000 0.967053
20960.00000 0.967037
20962.50000 0.966745
20965.00000 0.966835
20967.50000 0.96654
20970.00000 0.966319
20972.50000 0.966455
20975.00000 0.96611
20977.50000 0.965957
20980.00000 0.966023
20982.50000 0.965694
20985.00000 0.965519
20987.50000 0.965474
20990.00000 0.965225
20992.50000 0.965154
20995.00000 0.964965
20997.50000 0.964762
21000.00000 0.964592
21002.50000 0.9646
21005.00000 0.964155
21007.50000 0.964058
21010.00000 0.964217
21012.50000 0.963752
21015.00000 0.963394
21017.50000 0.963109
21020.00000 0.963069
21022.50000 0.96282
21025.00000 0.962535
21027.50000 0.962189
21030.00000 0.962092
21032.50000 0.961899
21035.00000 0.961744
21037.50000 0.961243
21040.00000 0.961312
21042.50000 0.96111
21045.00000 0.960963
21047.50000 0.960529
21050.00000 0.960062
21052.50000 0.959905
21055.00000 0.959737
21057.50000 0.959412
21060.00000 0.959274
21062.50000 0.958974
21065.00000 0.958711
21067.50000 0.95826
21070.00000 0.957901
21072.50000 0.957777
21075.00000 0.95736
21077.50000 0.957043
21080.00000 0.956764
21082.50000 0.956332
21085.00000 0.95619
21087.50000 0.955635
21090.00000 0.955553
21092.50000 0.955132
21095.00000 0.95474
21097.50000 0.954456
21100.00000 0.954016
21102.50000 0.953668
21105.00000 0.953404
21107.50000 0.952978
21110.00000 0.952685
21112.50000 0.952299
21115.00000 0.951945
21117.50000 0.95148
21120.00000 0.951181
21122.50000 0.950845
21125.00000 0.950456
21127.50000 0.950138
21130.00000 0.949893
21132.50000 0.949595
21135.00000 0.949217
21137.50000 0.948779
21140.00000 0.948289
21142.50000 0.948149
21145.00000 0.947985
21147.50000 0.947558
21150.00000 0.947082
21152.50000 0.94697
21155.00000 0.946417
21157.50000 0.946406
21160.00000 0.945974
21162.50000 0.945693
21165.00000 0.945349
21167.50000 0.945325
21170.00000 0.944775
21172.50000 0.944445
21175.00000 0.944364
21177.50000 0.943952
21180.00000 0.94393
21182.50000 0.943503
21185.00000 0.943312
21187.50000 0.943315
21190.00000 0.942874
21192.50000 0.942595
21195.00000 0.942552
21197.50000 0.942321
21200.00000 0.942235
21202.50000 0.942004
21205.00000 0.941894
21207.50000 0.941813
21210.00000 0.941806
21212.50000 0.941538
21215.00000 0.941511
21217.50000 0.941538
21220.00000 0.941321
21222.50000 0.941338
21225.00000 0.941434
21227.50000 0.941312
21230.00000 0.941264
21232.50000 0.941355
21235.00000 0.941334
21237.50000 0.941234
21240.00000 0.941384
21242.50000 0.941464
21245.00000 0.941677
21247.50000 0.941516
21250.00000 0.941668
21252.50000 0.941814
21255.00000 0.941882
21257.50000 0.941938
21260.00000 0.941978
21262.50000 0.942407
21265.00000 0.942723
21267.50000 0.942544
21270.00000 0.942758
21272.50000 0.942922
21275.00000 0.943259
21277.50000 0.943515
21280.00000 0.943703
21282.50000 0.944126
21285.00000 0.944323
21287.50000 0.94463
21290.00000 0.945057
21292.50000 0.945284
21295.00000 0.945548
21297.50000 0.945992
21300.00000 0.946285
21302.50000 0.946815
21305.00000 0.946921
21307.50000 0.947377
21310.00000 0.94782
21312.50000 0.948088
21315.00000 0.948593
21317.50000 0.948927
21320.00000 0.949433
21322.50000 0.949913
21325.00000 0.950236
21327.50000 0.950797
21330.00000 0.951303
21332.50000 0.951623
21335.00000 0.952176
21337.50000 0.952769
21340.00000 0.953149
21342.50000 0.953641
21345.00000 0.954247
21347.50000 0.954698
21350.00000 0.955106
21352.50000 0.955731
21355.00000 0.956229
21357.50000 0.956691
21360.00000 0.957082
21362.50000 0.957986
21365.00000 0.9582
21367.50000 0.958913
21370.00000 0.959323
21372.50000 0.959965
21375.00000 0.960408
21377.50000 0.96088
21380.00000 0.961342
21382.50000 0.962038
21385.00000 0.962489
21387.50000 0.963052
21390.00000 0.963281
21392.50000 0.963965
21395.00000 0.964482
21397.50000 0.964982
21400.00000 0.965414
21402.50000 0.965882
21405.00000 0.966601
21407.50000 0.966898
21410.00000 0.967283
21412.50000 0.96773
21415.00000 0.968379
21417.50000 0.9684
21420.00000 0.969224
21422.50000 0.969425
21425.00000 0.969931
21427.50000 0.970151
21430.00000 0.970564
21432.50000 0.971157
21435.00000 0.9713
21437.50000 0.971855
21440.00000 0.972095
21442.50000 0.972452
21445.00000 0.972841
21447.50000 0.973157
21450.00000 0.97349
21452.50000 0.97387
21455.00000 0.974262
21457.50000 0.974252
21460.00000 0.97472
21462.50000 0.974972
21465.00000 0.975114
21467.50000 0.975302
21470.00000 0.97554
21472.50000 0.975721
21475.00000 0.975923
21477.50000 0.976049
21480.00000 0.976208
21482.50000 0.976583
21485.00000 0.976505
21487.50000 0.97644
21490.00000 0.976504
21492.50000 0.976902
21495.00000 0.976783
21497.50000 0.977194
21500.00000 0.977004
21502.50000 0.977161
21505.00000 0.976818
21507.50000 0.976941
21510.00000 0.976848
21512.50000 0.977125
21515.00000 0.976986
21517.50000 0.977014
21520.00000 0.976927
21522.50000 0.976908
21525.00000 0.976718
21527.50000 0.976816
21530.00000 0.976517
21532.50000 0.976447
21535.00000 0.976415
21537.50000 0.976272
21540.00000 0.97621
21542.50000 0.975971
21545.00000 0.975954
21547.50000 0.975604
21550.00000 0.975567
21552.50000 0.975235
21555.00000 0.975237
21557.50000 0.974814
21560.00000 0.97475
21562.50000 0.974488
21565.00000 0.974346
21567.50000 0.974168
21570.00000 0.973899
21572.50000 0.973445
21575.00000 0.973307
21577.50000 0.973186
21580.00000 0.972937
21582.50000 0.972581
21585.00000 0.972399
21587.50000 0.972192
21590.00000 0.971885
21592.50000 0.971659
21595.00000 0.971401
21597.50000 0.971135
21600.00000 0.970773
21602.50000 0.970559
21605.00000 0.970406
21607.50000 0.970203
21610.00000 0.969759
21612.50000 0.969638
21615.00000 0.969234
21617.50000 0.969036
21620.00000 0.968669
21622.50000 0.968293
21625.00000 0.968178
21627.50000 0.96797
21630.00000 0.967599
21632.50000 0.967321
21635.00000 0.967018
21637.50000 0.966927
21640.00000 0.966784
21642.50000 0.966379
21645.00000 0.965999
21647.50000 0.966078
21650.00000 0.965715
21652.50000 0.96561
21655.00000 0.965275
21657.50000 0.965012
21660.00000 0.964948
21662.50000 0.964707
21665.00000 0.964478
21667.50000 0.964333
21670.00000 0.964036
21672.50000 0.96399
21675.00000 0.96368
21677.50000 0.963494
21680.00000 0.963334
21682.50000 0.963236
21685.00000 0.963038
21687.50000 0.962911
21690.00000 0.962885
21692.50000 0.962649
21695.00000 0.962435
21697.50000 0.962257
21700.00000 0.962136
21702.50000 0.962174
21705.00000 0.962124
21707.50000 0.961834
21710.00000 0.961907
21712.50000 0.961749
21715.00000 0.961711
21717.50000 0.961684
21720.00000 0.961597
21722.50000 0.961517
21725.00000 0.961533
21727.50000 0.96158
21730.00000 0.96147
21732.50000 0.96149
21735.00000 0.96147
21737.50000 0.961462
21740.00000 0.961375
21742.50000 0.961319
21745.00000 0.961388
21747.50000 0.961371
21750.00000 0.961472
21752.50000 0.961228
21755.00000 0.961309
21757.50000 0.961406
21760.00000 0.961431
21762.50000 0.961248
21765.00000 0.961469
21767.50000 0.961513
21770.00000 0.961398
21772.50000 0.961601
21775.00000 0.961599
21777.50000 0.961803
21780.00000 0.961718
21782.50000 0.961855
21785.00000 0.961836
21787.50000 0.961727
21790.00000 0.96191
21792.50000 0.961985
21795.00000 0.962189
21797.50000 0.962393
21800.00000 0.962359
21802.50000 0.962483
21805.00000 0.96263
21807.50000 0.962626
21810.00000 0.962644
21812.50000 0.962798
21815.00000 0.962865
21817.50000 0.962813
21820.00000 0.962874
21822.50000 0.962942
21825.00000 0.963122
21827.50000 0.96337
21830.00000 0.963405
21832.50000 0.963501
21835.00000 0.963468
21837.50000 0.963719
21840.00000 0.963643
21842.50000 0.963951
21845.00000 0.96384
21847.50000 0.963852
21850.00000 0.964266
21852.50000 0.964163
21855.00000 0.964218
21857.50000 0.964548
21860.00000 0.964386
21862.50000 0.964485
21865.00000 0.964574
21867.50000 0.964856
21870.00000 0.964765
21872.50000 0.964796
21875.00000 0.964919
21877.50000 0.965166
21880.00000 0.965073
21882.50000 0.965227
21885.00000 0.965315
21887.50000 0.965351
21890.00000 0.965379
21892.50000 0.965583
21895.00000 0.965546
21897.50000 0.965625
21900.00000 0.965552
21902.50000 0.96549
21905.00000 0.96573
21907.50000 0.966205
21910.00000 0.965851
21912.50000 0.966012
21915.00000 0.96594
21917.50000 0.966147
21920.00000 0.966256
21922.50000 0.966155
21925.00000 0.966376
21927.50000 0.966399
21930.00000 0.966313
21932.50000 0.966233
21935.00000 0.966553
21937.50000 0.966649
21940.00000 0.966395
21942.50000 0.96662
21945.00000 0.966509
21947.50000 0.966654
21950.00000 0.966818
21952.50000 0.966766
21955.00000 0.966865
21957.50000 0.966733
21960.00000 0.966804
21962.50000 0.967
21965.00000 0.966936
21967.50000 0.966887
21970.00000 0.96688
21972.50000 0.966969
21975.00000 0.967215
21977.50000 0.967124
21980.00000 0.967192
21982.50000 0.967393
21985.00000 0.967258
21987.50000 0.967279
21990.00000 0.967435
21992.50000 0.967281
21995.00000 0.967389
21997.50000 0.967267
22000.00000 0.967356
22002.50000 0.967539
22005.00000 0.967422
22007.50000 0.967564
22010.00000 0.967526
22012.50000 0.967473
22015.00000 0.967395
22017.50000 0.967619
22020.00000 0.967692
22022.50000 0.96751
22025.00000 0.967535
22027.50000 0.967401
22030.00000 0.967618
22032.50000 0.967683
22035.00000 0.9675
22037.50000 0.967715
22040.00000 0.967635
22042.50000 0.967807
22045.00000 0.967683
22047.50000 0.967865
22050.00000 0.967886
22052.50000 0.967743
22055.00000 0.967762
22057.50000 0.967611
22060.00000 0.967699
22062.50000 0.967711
22065.00000 0.967888
22067.50000 0.967699
22070.00000 0.967868
22072.50000 0.967557
22075.00000 0.967586
22077.50000 0.967612
22080.00000 0.967628
22082.50000 0.967604
22085.00000 0.967571
22087.50000 0.967522
22090.00000 0.967723
22092.50000 0.967511
22095.00000 0.967556
22097.50000 0.967572
22100.00000 0.967453
22102.50000 0.96728
22105.00000 0.967244
22107.50000 0.96724
22110.00000 0.967285
22112.50000 0.967028
22115.00000 0.966997
22117.50000 0.966996
22120.00000 0.96689
22122.50000 0.966799
22125.00000 0.96658
22127.50000 0.966741
22130.00000 0.966614
22132.50000 0.966361
22135.00000 0.966342
22137.50000 0.96631
22140.00000 0.966078
22142.50000 0.966082
22145.00000 0.965814
22147.50000 0.965831
22150.00000 0.96545
22152.50000 0.965378
22155.00000 0.964892
22157.50000 0.964948
22160.00000 0.965085
22162.50000 0.964817
22165.00000 0.964442
22167.50000 0.964458
22170.00000 0.964427
22172.50000 0.964091
22175.00000 0.963892
22177.50000 0.963975
22180.00000 0.963559
22182.50000 0.963382
22185.00000 0.963196
22187.50000 0.963102
22190.00000 0.962853
22192.50000 0.962607
22195.00000 0.962363
22197.50000 0.962006
22200.00000 0.962078
22202.50000 0.961707
22205.00000 0.961407
22207.50000 0.961298
22210.00000 0.961218
22212.50000 0.960873
22215.00000 0.96052
22217.50000 0.960442
22220.00000 0.960348
22222.50000 0.959993
22225.00000 0.959622
22227.50000 0.959234
22230.00000 0.959407
22232.50000 0.959067
22235.00000 0.95887
22237.50000 0.958603
22240.00000 0.958562
22242.50000 0.958396
22245.00000 0.958094
22247.50000 0.95804
22250.00000 0.957719
22252.50000 0.957387
22255.00000 0.957335
22257.50000 0.9571
22260.00000 0.956868
22262.50000 0.956591
22265.00000 0.956501
22267.50000 0.956438
22270.00000 0.956077
22272.50000 0.956
22275.00000 0.955874
22277.50000 0.955717
22280.00000 0.955614
22282.50000 0.955505
22285.00000 0.955276
22287.50000 0.955154
22290.00000 0.955128
22292.50000 0.95494
22295.00000 0.954888
22297.50000 0.954677
22300.00000 0.954649
22302.50000 0.95474
22305.00000 0.954524
22307.50000 0.954498
22310.00000 0.954434
22312.50000 0.954357
22315.00000 0.954461
22317.50000 0.954237
22320.00000 0.954132
22322.50000 0.954447
22325.00000 0.95452
22327.50000 0.954461
22330.00000 0.954505
22332.50000 0.95458
22335.00000 0.954374
22337.50000 0.954579
22340.00000 0.954711
22342.50000 0.954901
22345.00000 0.954806
22347.50000 0.954952
22350.00000 0.955301
22352.50000 0.955246
22355.00000 0.955445
22357.50000 0.955646
22360.00000 0.955872
22362.50000 0.95596
22365.00000 0.956188
22367.50000 0.956219
22370.00000 0.956513
22372.50000 0.956815
22375.00000 0.956941
22377.50000 0.95724
22380.00000 0.957285
22382.50000 0.957714
22385.00000 0.957732
22387.50000 0.958057
22390.00000 0.958565
22392.50000 0.958849
22395.00000 0.958817
22397.50000 0.959291
22400.00000 0.959656
22402.50000 0.959942
22405.00000 0.960235
22407.50000 0.960786
22410.00000 0.960808
22412.50000 0.961233
22415.00000 0.961269
22417.50000 0.961857
22420.00000 0.962172
22422.50000 0.962506
22425.00000 0.962694
22427.50000 0.963202
22430.00000 0.963829
22432.50000 0.963666
22435.00000 0.964056
22437.50000 0.964372
22440.00000 0.96479
22442.50000 0.965131
22445.00000 0.965512
22447.50000 0.965632
22450.00000 0.966077
22452.50000 0.966283
22455.00000 0.966432
22457.50000 0.966813
22460.00000 0.967151
22462.50000 0.96736
22465.00000 0.96777
22467.50000 0.967814
22470.00000 0.968141
22472.50000 0.968339
22475.00000 0.968588
22477.50000 0.969102
22480.00000 0.96907
22482.50000 0.969347
22485.00000 0.969343
22487.50000 0.969847
22490.00000 0.969977
22492.50000 0.970031
22495.00000 0.970374
22497.50000 0.970366
22500.00000 0.970596
22502.50000 0.970532
22505.00000 0.97087
22507.50000 0.970842
22510.00000 0.97099
22512.50000 0.970979
22515.00000 0.971193
22517.50000 0.971186
22520.00000 0.971118
22522.50000 0.971438
22525.00000 0.971034
22527.50000 0.971256
22530.00000 0.971015
22532.50000 0.971349
22535.00000 0.97107
22537.50000 0.971135
22540.00000 0.97109
22542.50000 0.971078
22545.00000 0.970903
22547.50000 0.971096
22550.00000 0.97074
22552.50000 0.970821
22555.00000 0.970747
22557.50000 0.97068
22560.00000 0.970428
22562.50000 0.970556
22565.00000 0.970256
22567.50000 0.970216
22570.00000 0.969989
22572.50000 0.970039
22575.00000 0.969886
22577.50000 0.969805
22580.00000 0.969654
22582.50000 0.969082
22585.00000 0.969203
22587.50000 0.969112
22590.00000 0.968876
22592.50000 0.968791
22595.00000 0.968293
22597.50000 0.968234
22600.00000 0.968133
22602.50000 0.967789
22605.00000 0.967433
22607.50000 0.967335
22610.00000 0.967063
22612.50000 0.966986
22615.00000 0.966612
22617.50000 0.966211
22620.00000 0.965811
22622.50000 0.965312
22625.00000 0.965092
22627.50000 0.964609
22630.00000 0.964392
22632.50000 0.963916
22635.00000 0.963305
22637.50000 0.962671
22640.00000 0.962123
22642.50000 0.961383
22645.00000 0.960639
22647.50000 0.960125
22650.00000 0.959
22652.50000 0.958292
22655.00000 0.957354
22657.50000 0.956038
22660.00000 0.955159
22662.50000 0.953882
22665.00000 0.952684
22667.50000 0.95101
22670.00000 0.949586
22672.50000 0.948104
22675.00000 0.946412
22677.50000 0.944418
22680.00000 0.942082
22682.50000 0.940494
22685.00000 0.937845
22687.50000 0.935525
22690.00000 0.933007
22692.50000 0.929906
22695.00000 0.92732
22697.50000 0.923686
22700.00000 0.92064
22702.50000 0.917059
22705.00000 0.912948
22707.50000 0.909434
22710.00000 0.904887
22712.50000 0.9013
22715.00000 0.895568
22717.50000 0.89092
22720.00000 0.885726
22722.50000 0.879699
22725.00000 0.874899
22727.50000 0.86793
22730.00000 0.862687
22732.50000 0.855379
22735.00000 0.848171
22737.50000 0.840988
22740.00000 0.832962
22742.50000 0.826453
22745.00000 0.817215
22747.50000 0.809901
22750.00000 0.800463
22752.50000 0.791099
22755.00000 0.782814
22757.50000 0.772003
22760.00000 0.763628
22762.50000 0.752239
22765.00000 0.742412
22767.50000 0.731388
22770.00000 0.719428
22772.50000 0.709641
22775.00000 0.697332
22777.50000 0.687415
22780.00000 0.674658
22782.50000 0.662366
22785.00000 0.650576
22787.50000 0.637156
22790.00000 0.626026
22792.50000 0.612564
22795.00000 0.601473
22797.50000 0.58803
22800.00000 0.574326
22802.50000 0.562549
22805.00000 0.548543
22807.50000 0.537155
22810.00000 0.523249
22812.50000 0.511688
22815.00000 0.498669
22817.50000 0.485084
22820.00000 0.473636
22822.50000 0.460061
22825.00000 0.449409
22827.50000 0.436308
22830.00000 0.424753
22832.50000 0.412849
22835.00000 0.400032
22837.50000 0.38986
22840.00000 0.377525
22842.50000 0.367501
22845.00000 0.35592
22847.50000 0.345123
22850.00000 0.334984
22852.50000 0.323728
22855.00000 0.315069
22857.50000 0.304419
22860.00000 0.295009
22862.50000 0.286088
22865.00000 0.276373
22867.50000 0.268124
22870.00000 0.258513
22872.50000 0.251046
22875.00000 0.242467
22877.50000 0.234482
22880.00000 0.227236
22882.50000 0.219357
22885.00000 0.212542
22887.50000 0.204757
22890.00000 0.198708
22892.50000 0.191712
22895.00000 0.185186
22897.50000 0.179241
22900.00000 0.173056
22902.50000 0.167722
22905.00000 0.161653
22907.50000 0.156525
22910.00000 0.151092
22912.50000 0.1459
22915.00000 0.141411
22917.50000 0.136439
22920.00000 0.132233
22922.50000 0.127605
22925.00000 0.123295
22927.50000 0.119121
22930.00000 0.115026
22932.50000 0.111773
22935.00000 0.107702
22937.50000 0.104487
22940.00000 0.100806
22942.50000 0.097296
22945.00000 0.094025
22947.50000 0.091053
22950.00000 0.088659
22952.50000 0.085415
22955.00000 0.082699
22957.50000 0.07991
22960.00000 0.077116
22962.50000 0.074873
22965.00000 0.072299
22967.50000 0.070321
22970.00000 0.067924
22972.50000 0.065745
22975.00000 0.063697
22977.50000 0.061597
22980.00000 0.059867
22982.50000 0.057859
22985.00000 0.056194
22987.50000 0.054382
22990.00000 0.052603
22992.50000 0.05094
22995.00000 0.049292
22997.50000 0.048108
23000.00000 0.046403
23002.50000 0.045136
23005.00000 0.043766
23007.50000 0.042364
23010.00000 0.041151
23012.50000 0.039893
23015.00000 0.038711
23017.50000 0.037529
23020.00000 0.036452
23022.50000 0.035387
23025.00000 0.03417
23027.50000 0.033416
23030.00000 0.032348
23032.50000 0.031401
23035.00000 0.030488
23037.50000 0.029541
23040.00000 0.028716
23042.50000 0.028067
23045.00000 0.02705
23047.50000 0.02663
23050.00000 0.025711
23052.50000 0.025085
23055.00000 0.024288
23057.50000 0.023485
23060.00000 0.022797
23062.50000 0.022377
23065.00000 0.02168
23067.50000 0.020905
23070.00000 0.020572
23072.50000 0.019814
23075.00000 0.01943
23077.50000 0.018828
23080.00000 0.018374
23082.50000 0.017811
23085.00000 0.017265
23087.50000 0.016984
23090.00000 0.016432
23092.50000 0.01609
23095.00000 0.015578
23097.50000 0.015187
23100.00000 0.014852
23102.50000 0.01442
23105.00000 0.014062
23107.50000 0.013577
23110.00000 0.013334
23112.50000 0.012961
23115.00000 0.012635
23117.50000 0.012313
23120.00000 0.012059
23122.50000 0.011703
23125.00000 0.011406
23127.50000 0.011132
23130.00000 0.01086
23132.50000 0.010525
23135.00000 0.010314
23137.50000 0.009999
23140.00000 0.009741
23142.50000 0.00956
23145.00000 0.009275
23147.50000 0.009112
23150.00000 0.00875
23152.50000 0.008601
23155.00000 0.008339
23157.50000 0.008219
23160.00000 0.008042
23162.50000 0.007738
23165.00000 0.007611
23167.50000 0.007356
23170.00000 0.007182
23172.50000 0.007058
23175.00000 0.006861
23177.50000 0.006798
23180.00000 0.006679
23182.50000 0.006486
23185.00000 0.006181
23187.50000 0.006073
23190.00000 0.005942
23192.50000 0.005802
23195.00000 0.005609
23197.50000 0.005552
23200.00000 0.005444
23202.50000 0.00523
23205.00000 0.00514
23207.50000 0.005054
23210.00000 0.004927
23212.50000 0.004833
23215.00000 0.004677
23217.50000 0.004545
23220.00000 0.004495
23222.50000 0.004401
23225.00000 0.004191
23227.50000 0.00406
23230.00000 0.00406
23232.50000 0.004024
23235.00000 0.003907
23237.50000 0.003695
23240.00000 0.003665
23242.50000 0.003701
23245.00000 0.003492
23247.50000 0.003453
23250.00000 0.003326
23252.50000 0.003334
23255.00000 0.003159
23257.50000 0.003045
23260.00000 0.003149
23262.50000 0.003012
23265.00000 0.002894
23267.50000 0.002869
23270.00000 0.002771
23272.50000 0.002733
23275.00000 0.002642
23277.50000 0.002631
23280.00000 0.002594
23282.50000 0.002544
23285.00000 0.002426
23287.50000 0.002266
23290.00000 0.002338
23292.50000 0.002235
23295.00000 0.002267
23297.50000 0.002252
23300.00000 0.002107
23302.50000 0.002058
23305.00000 0.001964
23307.50000 0.001915
23310.00000 0.00196
23312.50000 0.001991
23315.00000 0.001866
23317.50000 0.001789
23320.00000 0.001829
23322.50000 0.001698
23325.00000 0.001677
23327.50000 0.001652
23330.00000 0.001659
23332.50000 0.001562
23335.00000 0.001593
23337.50000 0.001527
23340.00000 0.00142
23342.50000 0.001335
23345.00000 0.001368
23347.50000 0.001407
23350.00000 0.001401
23352.50000 0.001369
23355.00000 0.001338
23357.50000 0.001194
23360.00000 0.001238
23362.50000 0.00126
23365.00000 0.00118
23367.50000 0.001198
23370.00000 0.00114
23372.50000 0.001007
23375.00000 0.001118
23377.50000 0.001044
23380.00000 0.001125
23382.50000 0.00099
23385.00000 0.001018
23387.50000 0.000991
23390.00000 0.000893
23392.50000 0.000946
23395.00000 0.000936
23397.50000 0.000909
23400.00000 0.000938
23402.50000 0.000859
23405.00000 0.000789
23407.50000 0.000865
23410.00000 0.000732
23412.50000 0.000773
23415.00000 0.000862
23417.50000 0.000801
23420.00000 0.000748
23422.50000 0.000686
23425.00000 0.000857
23427.50000 0.000549
23430.00000 0.000716
23432.50000 0.000639
23435.00000 0.000602
23437.50000 0.000696
23440.00000 0.000555
23442.50000 0.000704
23445.00000 0.000666
23447.50000 0.000602
23450.00000 0.000536
23452.50000 0.000534
23455.00000 0.000604
23457.50000 0.000555
23460.00000 0.000482
23462.50000 0.000573
23465.00000 0.00043
23467.50000 0.000658
23470.00000 0.000419
23472.50000 0.000492
23475.00000 0.000523
23477.50000 0.000472
23480.00000 0.000423
23482.50000 0.000428
23485.00000 0.000466
23487.50000 0.000549
23490.00000 0.000436
23492.50000 0.000468
23495.00000 0.00034
23497.50000 0.000441
23500.00000 0.000418
23502.50000 0.000408
23505.00000 0.000323
23507.50000 0.000323
23510.00000 0.000392
23512.50000 0.000413
23515.00000 0.000318
23517.50000 0.000314
23520.00000 0.000335
23522.50000 0.000384
23525.00000 0.000338
23527.50000 0.000296
23530.00000 0.000384
23532.50000 0.000171
23535.00000 0.000296
23537.50000 0.000349
23540.00000 0.000361
23542.50000 0.000283
23545.00000 0.000235
23547.50000 0.000374
23550.00000 0.000334
23552.50000 0.00013
23555.00000 0.000338
23557.50000 0.000194
23560.00000 0.000267
23562.50000 0.000254
23565.00000 0.000249
23567.50000 0.000332
23570.00000 0.000297
23572.50000 0.000278
23575.00000 0.000227
23577.50000 0.000249
23580.00000 0.000174
23582.50000 0.0002
23585.00000 0.000212
23587.50000 0.000253
23590.00000 0.000316
23592.50000 0.000201
23595.00000 0.000213
23597.50000 0.000201
23600.00000 0.000231
23602.50000 0.000183
23605.00000 0.000174
23607.50000 0.000179
23610.00000 0.000227
23612.50000 0.000218
23615.00000 0.000194
23617.50000 0.000173
23620.00000 0.000188
23622.50000 0.000255
23625.00000 0.000194
23627.50000 0.000177
23630.00000 0.000197
23632.50000 2.7e-05
23635.00000 7.9e-05
23637.50000 0.000213
23640.00000 9.5e-05
23642.50000 7e-05
23645.00000 0.000161
23647.50000 0.000166
23650.00000 0.000217
23652.50000 0.000144
23655.00000 0.000131
23657.50000 3.5e-05
23660.00000 0.00027
23662.50000 0.000183
23665.00000 0.000139
23667.50000 0.000178
23670.00000 0.000143
23672.50000 9.1e-05
23675.00000 5.7e-05
23677.50000 0.000123
23680.00000 0.000151
23682.50000 9.1e-05
23685.00000 0.000175
23687.50000 7.4e-05
23690.00000 0.000222
23692.50000 0.0001
23695.00000 6.9e-05
23697.50000 5.3e-05
23700.00000 9.6e-05
23702.50000 7e-05
26072.75000 0.0
