# %ECSV 0.9
# ---
# datatype:
# - {name: wavelength, unit: Angstrom, datatype: float32}
# - {name: response, datatype: float32}
# meta: !!omap
# - {band_name: Lprime_G0207w}
# - {group_name: NIRI}
wavelength response
29727.00000 0.0
33030.00000 0.004
33040.00000 0.0043
33050.00000 0.0046
33060.00000 0.0049
33070.00000 0.0052
33080.00000 0.0055
33090.00000 0.0058
33100.00000 0.0061
33110.00000 0.0064
33120.00000 0.0067
33130.00000 0.007
33140.00000 0.0073
33150.00000 0.0077
33160.00000 0.008
33170.00000 0.0083
33180.00000 0.0086
33190.00000 0.009
33200.00000 0.0093
33210.00000 0.0097
33220.00000 0.01
33230.00000 0.0104
33240.00000 0.0108
33250.00000 0.0112
33260.00000 0.0116
33270.00000 0.012
33280.00000 0.0124
33290.00000 0.0128
33300.00000 0.0133
33310.00000 0.0137
33320.00000 0.0141
33330.00000 0.0146
33340.00000 0.015
33350.00000 0.0155
33360.00000 0.0159
33370.00000 0.0163
33380.00000 0.0167
33390.00000 0.0172
33400.00000 0.0175
33410.00000 0.0179
33420.00000 0.0183
33430.00000 0.0186
33440.00000 0.019
33450.00000 0.0193
33460.00000 0.0196
33470.00000 0.0198
33480.00000 0.0201
33490.00000 0.0204
33500.00000 0.0207
33510.00000 0.0209
33520.00000 0.0213
33530.00000 0.0216
33540.00000 0.022
33550.00000 0.0224
33560.00000 0.0229
33570.00000 0.0235
33580.00000 0.0241
33590.00000 0.0248
33600.00000 0.0256
33610.00000 0.0265
33620.00000 0.0274
33630.00000 0.0285
33640.00000 0.0296
33650.00000 0.0307
33660.00000 0.0319
33670.00000 0.0331
33680.00000 0.0343
33690.00000 0.0354
33700.00000 0.0366
33710.00000 0.0376
33720.00000 0.0386
33730.00000 0.0396
33740.00000 0.0404
33750.00000 0.0412
33760.00000 0.042
33770.00000 0.0429
33780.00000 0.0439
33790.00000 0.045
33800.00000 0.0465
33810.00000 0.0482
33820.00000 0.0504
33830.00000 0.0529
33840.00000 0.0559
33850.00000 0.0595
33860.00000 0.0636
33870.00000 0.0679
33880.00000 0.0723
33890.00000 0.0766
33900.00000 0.0806
33910.00000 0.0843
33920.00000 0.0877
33930.00000 0.0911
33940.00000 0.0945
33950.00000 0.0982
33960.00000 0.1022
33970.00000 0.1069
33980.00000 0.1123
33990.00000 0.1188
34000.00000 0.1265
34010.00000 0.1353
34020.00000 0.1446
34030.00000 0.1538
34040.00000 0.1626
34050.00000 0.1712
34060.00000 0.1804
34070.00000 0.1904
34080.00000 0.2016
34090.00000 0.2135
34100.00000 0.2255
34110.00000 0.2374
34120.00000 0.2502
34130.00000 0.2652
34140.00000 0.282
34150.00000 0.298
34160.00000 0.3133
34170.00000 0.3305
34180.00000 0.3487
34190.00000 0.3657
34200.00000 0.3827
34210.00000 0.4013
34220.00000 0.4221
34230.00000 0.4449
34240.00000 0.4689
34250.00000 0.4926
34260.00000 0.5137
34270.00000 0.5316
34280.00000 0.549
34290.00000 0.5692
34300.00000 0.5937
34310.00000 0.6176
34320.00000 0.6365
34330.00000 0.6537
34340.00000 0.6745
34350.00000 0.699
34360.00000 0.7197
34370.00000 0.7337
34380.00000 0.7452
34390.00000 0.7593
34400.00000 0.7786
34410.00000 0.7994
34420.00000 0.817
34430.00000 0.8297
34440.00000 0.8391
34450.00000 0.8471
34460.00000 0.8552
34470.00000 0.8638
34480.00000 0.8721
34490.00000 0.8793
34500.00000 0.885
34510.00000 0.8896
34520.00000 0.8932
34530.00000 0.8961
34540.00000 0.8986
34550.00000 0.9008
34560.00000 0.9027
34570.00000 0.9044
34580.00000 0.9059
34590.00000 0.9072
34600.00000 0.9083
34610.00000 0.9092
34620.00000 0.91
34630.00000 0.9107
34640.00000 0.9113
34650.00000 0.9117
34660.00000 0.9121
34670.00000 0.9124
34680.00000 0.9126
34690.00000 0.9128
34700.00000 0.913
34710.00000 0.9131
34720.00000 0.9132
34730.00000 0.9133
34740.00000 0.9134
34750.00000 0.9136
34760.00000 0.9138
34770.00000 0.9141
34780.00000 0.9144
34790.00000 0.9148
34800.00000 0.9153
34810.00000 0.9159
34820.00000 0.9166
34830.00000 0.9174
34840.00000 0.9184
34850.00000 0.9195
34860.00000 0.9208
34870.00000 0.922
34880.00000 0.9233
34890.00000 0.9245
34900.00000 0.9256
34910.00000 0.9266
34920.00000 0.9273
34930.00000 0.9278
34940.00000 0.9281
34950.00000 0.9279
34960.00000 0.9274
34970.00000 0.9265
34980.00000 0.9253
34990.00000 0.9238
35000.00000 0.9221
35010.00000 0.9204
35020.00000 0.9186
35030.00000 0.9169
35040.00000 0.9154
35050.00000 0.9139
35060.00000 0.9126
35070.00000 0.9114
35080.00000 0.9103
35090.00000 0.9091
35100.00000 0.908
35110.00000 0.9069
35120.00000 0.9058
35130.00000 0.9046
35140.00000 0.9034
35150.00000 0.9021
35160.00000 0.9008
35170.00000 0.8995
35180.00000 0.8982
35190.00000 0.8968
35200.00000 0.8954
35210.00000 0.894
35220.00000 0.8926
35230.00000 0.8912
35240.00000 0.8898
35250.00000 0.8885
35260.00000 0.8873
35270.00000 0.8861
35280.00000 0.8849
35290.00000 0.8839
35300.00000 0.8828
35310.00000 0.8819
35320.00000 0.8809
35330.00000 0.88
35340.00000 0.8791
35350.00000 0.8782
35360.00000 0.8772
35370.00000 0.8763
35380.00000 0.8754
35390.00000 0.8745
35400.00000 0.8736
35410.00000 0.8728
35420.00000 0.8721
35430.00000 0.8714
35440.00000 0.8709
35450.00000 0.8705
35460.00000 0.8702
35470.00000 0.8701
35480.00000 0.8701
35490.00000 0.8701
35500.00000 0.8703
35510.00000 0.8706
35520.00000 0.8709
35530.00000 0.8714
35540.00000 0.8718
35550.00000 0.8724
35560.00000 0.873
35570.00000 0.8736
35580.00000 0.8743
35590.00000 0.875
35600.00000 0.8758
35610.00000 0.8765
35620.00000 0.8774
35630.00000 0.8782
35640.00000 0.8791
35650.00000 0.8801
35660.00000 0.8811
35670.00000 0.8821
35680.00000 0.8832
35690.00000 0.8843
35700.00000 0.8854
35710.00000 0.8865
35720.00000 0.8876
35730.00000 0.8888
35740.00000 0.8899
35750.00000 0.8911
35760.00000 0.8922
35770.00000 0.8933
35780.00000 0.8944
35790.00000 0.8955
35800.00000 0.8966
35810.00000 0.8976
35820.00000 0.8985
35830.00000 0.8994
35840.00000 0.9003
35850.00000 0.9011
35860.00000 0.9018
35870.00000 0.9025
35880.00000 0.9032
35890.00000 0.9038
35900.00000 0.9045
35910.00000 0.9051
35920.00000 0.9059
35930.00000 0.9066
35940.00000 0.9075
35950.00000 0.9084
35960.00000 0.9094
35970.00000 0.9105
35980.00000 0.9117
35990.00000 0.9129
36000.00000 0.9141
36010.00000 0.9152
36020.00000 0.9164
36030.00000 0.9174
36040.00000 0.9184
36050.00000 0.9192
36060.00000 0.92
36070.00000 0.9208
36080.00000 0.9214
36090.00000 0.922
36100.00000 0.9224
36110.00000 0.9228
36120.00000 0.9232
36130.00000 0.9234
36140.00000 0.9237
36150.00000 0.9238
36160.00000 0.924
36170.00000 0.9242
36180.00000 0.9243
36190.00000 0.9245
36200.00000 0.9248
36210.00000 0.925
36220.00000 0.9254
36230.00000 0.9258
36240.00000 0.9262
36250.00000 0.9268
36260.00000 0.9275
36270.00000 0.9282
36280.00000 0.9289
36290.00000 0.9297
36300.00000 0.9305
36310.00000 0.9313
36320.00000 0.9321
36330.00000 0.9328
36340.00000 0.9335
36350.00000 0.9341
36360.00000 0.9347
36370.00000 0.9353
36380.00000 0.9357
36390.00000 0.9362
36400.00000 0.9366
36410.00000 0.9369
36420.00000 0.9373
36430.00000 0.9376
36440.00000 0.9379
36450.00000 0.9382
36460.00000 0.9386
36470.00000 0.9389
36480.00000 0.9392
36490.00000 0.9395
36500.00000 0.9399
36510.00000 0.9402
36520.00000 0.9405
36530.00000 0.9409
36540.00000 0.9412
36550.00000 0.9414
36560.00000 0.9417
36570.00000 0.9419
36580.00000 0.9421
36590.00000 0.9422
36600.00000 0.9423
36610.00000 0.9423
36620.00000 0.9423
36630.00000 0.9423
36640.00000 0.9422
36650.00000 0.942
36660.00000 0.9419
36670.00000 0.9417
36680.00000 0.9414
36690.00000 0.9411
36700.00000 0.9408
36710.00000 0.9405
36720.00000 0.9401
36730.00000 0.9397
36740.00000 0.9393
36750.00000 0.9388
36760.00000 0.9384
36770.00000 0.9379
36780.00000 0.9375
36790.00000 0.937
36800.00000 0.9366
36810.00000 0.9362
36820.00000 0.9358
36830.00000 0.9354
36840.00000 0.935
36850.00000 0.9347
36860.00000 0.9343
36870.00000 0.9339
36880.00000 0.9334
36890.00000 0.933
36900.00000 0.9325
36910.00000 0.9319
36920.00000 0.9314
36930.00000 0.9307
36940.00000 0.9301
36950.00000 0.9295
36960.00000 0.9289
36970.00000 0.9284
36980.00000 0.9279
36990.00000 0.9275
37000.00000 0.9272
37010.00000 0.927
37020.00000 0.9269
37030.00000 0.9268
37040.00000 0.9269
37050.00000 0.9269
37060.00000 0.927
37070.00000 0.9271
37080.00000 0.927
37090.00000 0.9269
37100.00000 0.9267
37110.00000 0.9263
37120.00000 0.9258
37130.00000 0.925
37140.00000 0.9241
37150.00000 0.923
37160.00000 0.9217
37170.00000 0.9204
37180.00000 0.9189
37190.00000 0.9175
37200.00000 0.9161
37210.00000 0.9148
37220.00000 0.9136
37230.00000 0.9124
37240.00000 0.9114
37250.00000 0.9105
37260.00000 0.9096
37270.00000 0.9089
37280.00000 0.9082
37290.00000 0.9076
37300.00000 0.907
37310.00000 0.9065
37320.00000 0.9061
37330.00000 0.9057
37340.00000 0.9053
37350.00000 0.905
37360.00000 0.9047
37370.00000 0.9045
37380.00000 0.9044
37390.00000 0.9042
37400.00000 0.9041
37410.00000 0.9041
37420.00000 0.9041
37430.00000 0.9041
37440.00000 0.9042
37450.00000 0.9043
37460.00000 0.9044
37470.00000 0.9045
37480.00000 0.9046
37490.00000 0.9047
37500.00000 0.9048
37510.00000 0.9049
37520.00000 0.9049
37530.00000 0.9049
37540.00000 0.9049
37550.00000 0.9048
37560.00000 0.9048
37570.00000 0.9048
37580.00000 0.9048
37590.00000 0.9049
37600.00000 0.9051
37610.00000 0.9055
37620.00000 0.9059
37630.00000 0.9066
37640.00000 0.9075
37650.00000 0.9086
37660.00000 0.9098
37670.00000 0.9112
37680.00000 0.9126
37690.00000 0.914
37700.00000 0.9153
37710.00000 0.9165
37720.00000 0.9175
37730.00000 0.9183
37740.00000 0.9189
37750.00000 0.9193
37760.00000 0.9195
37770.00000 0.9195
37780.00000 0.9195
37790.00000 0.9194
37800.00000 0.9192
37810.00000 0.919
37820.00000 0.9188
37830.00000 0.9186
37840.00000 0.9186
37850.00000 0.9185
37860.00000 0.9186
37870.00000 0.9187
37880.00000 0.9188
37890.00000 0.9189
37900.00000 0.9191
37910.00000 0.9192
37920.00000 0.9193
37930.00000 0.9194
37940.00000 0.9195
37950.00000 0.9194
37960.00000 0.9193
37970.00000 0.9192
37980.00000 0.9191
37990.00000 0.9189
38000.00000 0.9188
38010.00000 0.9187
38020.00000 0.9187
38030.00000 0.9187
38040.00000 0.9187
38050.00000 0.9189
38060.00000 0.9192
38070.00000 0.9196
38080.00000 0.9201
38090.00000 0.9208
38100.00000 0.9216
38110.00000 0.9224
38120.00000 0.9234
38130.00000 0.9244
38140.00000 0.9255
38150.00000 0.9267
38160.00000 0.9278
38170.00000 0.929
38180.00000 0.9303
38190.00000 0.9314
38200.00000 0.9326
38210.00000 0.9336
38220.00000 0.9345
38230.00000 0.9353
38240.00000 0.9359
38250.00000 0.9363
38260.00000 0.9365
38270.00000 0.9365
38280.00000 0.9361
38290.00000 0.9356
38300.00000 0.9349
38310.00000 0.934
38320.00000 0.933
38330.00000 0.9319
38340.00000 0.9308
38350.00000 0.9298
38360.00000 0.9288
38370.00000 0.9278
38380.00000 0.9271
38390.00000 0.9264
38400.00000 0.9258
38410.00000 0.9254
38420.00000 0.925
38430.00000 0.9248
38440.00000 0.9246
38450.00000 0.9245
38460.00000 0.9244
38470.00000 0.9245
38480.00000 0.9245
38490.00000 0.9247
38500.00000 0.9248
38510.00000 0.925
38520.00000 0.9253
38530.00000 0.9255
38540.00000 0.9258
38550.00000 0.9261
38560.00000 0.9264
38570.00000 0.9268
38580.00000 0.9271
38590.00000 0.9275
38600.00000 0.9278
38610.00000 0.9282
38620.00000 0.9285
38630.00000 0.9289
38640.00000 0.9292
38650.00000 0.9295
38660.00000 0.9298
38670.00000 0.93
38680.00000 0.9303
38690.00000 0.9304
38700.00000 0.9306
38710.00000 0.9306
38720.00000 0.9307
38730.00000 0.9306
38740.00000 0.9305
38750.00000 0.9304
38760.00000 0.9301
38770.00000 0.9299
38780.00000 0.9297
38790.00000 0.9294
38800.00000 0.9292
38810.00000 0.929
38820.00000 0.9289
38830.00000 0.9288
38840.00000 0.9287
38850.00000 0.9288
38860.00000 0.929
38870.00000 0.9293
38880.00000 0.9296
38890.00000 0.9301
38900.00000 0.9306
38910.00000 0.9311
38920.00000 0.9317
38930.00000 0.9323
38940.00000 0.9329
38950.00000 0.9335
38960.00000 0.9341
38970.00000 0.9346
38980.00000 0.935
38990.00000 0.9354
39000.00000 0.9357
39010.00000 0.936
39020.00000 0.9363
39030.00000 0.9366
39040.00000 0.9368
39050.00000 0.9371
39060.00000 0.9374
39070.00000 0.9377
39080.00000 0.9382
39090.00000 0.9386
39100.00000 0.9392
39110.00000 0.9398
39120.00000 0.9405
39130.00000 0.9411
39140.00000 0.9418
39150.00000 0.9424
39160.00000 0.9431
39170.00000 0.9436
39180.00000 0.9441
39190.00000 0.9446
39200.00000 0.9449
39210.00000 0.9451
39220.00000 0.9453
39230.00000 0.9452
39240.00000 0.9452
39250.00000 0.945
39260.00000 0.9447
39270.00000 0.9444
39280.00000 0.9441
39290.00000 0.9437
39300.00000 0.9434
39310.00000 0.943
39320.00000 0.9426
39330.00000 0.9423
39340.00000 0.942
39350.00000 0.9417
39360.00000 0.9414
39370.00000 0.9412
39380.00000 0.9409
39390.00000 0.9406
39400.00000 0.9402
39410.00000 0.9398
39420.00000 0.9394
39430.00000 0.9389
39440.00000 0.9384
39450.00000 0.9377
39460.00000 0.937
39470.00000 0.9363
39480.00000 0.9355
39490.00000 0.9347
39500.00000 0.9339
39510.00000 0.9331
39520.00000 0.9322
39530.00000 0.9314
39540.00000 0.9307
39550.00000 0.93
39560.00000 0.9293
39570.00000 0.9288
39580.00000 0.9283
39590.00000 0.9278
39600.00000 0.9274
39610.00000 0.927
39620.00000 0.9266
39630.00000 0.9262
39640.00000 0.9258
39650.00000 0.9253
39660.00000 0.9247
39670.00000 0.924
39680.00000 0.9232
39690.00000 0.9223
39700.00000 0.9212
39710.00000 0.92
39720.00000 0.9188
39730.00000 0.9174
39740.00000 0.916
39750.00000 0.9146
39760.00000 0.9132
39770.00000 0.9119
39780.00000 0.9107
39790.00000 0.9096
39800.00000 0.9086
39810.00000 0.9077
39820.00000 0.907
39830.00000 0.9063
39840.00000 0.9057
39850.00000 0.9052
39860.00000 0.9047
39870.00000 0.9042
39880.00000 0.9036
39890.00000 0.9031
39900.00000 0.9025
39910.00000 0.9019
39920.00000 0.9012
39930.00000 0.9005
39940.00000 0.8997
39950.00000 0.899
39960.00000 0.8983
39970.00000 0.8976
39980.00000 0.8969
39990.00000 0.8963
40000.00000 0.8958
40010.00000 0.8953
40020.00000 0.8949
40030.00000 0.8946
40040.00000 0.8944
40050.00000 0.8943
40060.00000 0.8942
40070.00000 0.8942
40080.00000 0.8942
40090.00000 0.8942
40100.00000 0.8942
40110.00000 0.8943
40120.00000 0.8943
40130.00000 0.8942
40140.00000 0.8942
40150.00000 0.8941
40160.00000 0.894
40170.00000 0.8939
40180.00000 0.8939
40190.00000 0.8941
40200.00000 0.8943
40210.00000 0.8947
40220.00000 0.8953
40230.00000 0.8962
40240.00000 0.8973
40250.00000 0.8988
40260.00000 0.9005
40270.00000 0.9024
40280.00000 0.9045
40290.00000 0.9065
40300.00000 0.9084
40310.00000 0.9102
40320.00000 0.9116
40330.00000 0.9126
40340.00000 0.9133
40350.00000 0.9137
40360.00000 0.914
40370.00000 0.9141
40380.00000 0.9141
40390.00000 0.9141
40400.00000 0.9141
40410.00000 0.9143
40420.00000 0.9145
40430.00000 0.915
40440.00000 0.9158
40450.00000 0.9168
40460.00000 0.9181
40470.00000 0.9196
40480.00000 0.9212
40490.00000 0.9229
40500.00000 0.9246
40510.00000 0.9262
40520.00000 0.9278
40530.00000 0.9292
40540.00000 0.9306
40550.00000 0.9318
40560.00000 0.9331
40570.00000 0.9343
40580.00000 0.9354
40590.00000 0.9366
40600.00000 0.9377
40610.00000 0.9389
40620.00000 0.9401
40630.00000 0.9413
40640.00000 0.9425
40650.00000 0.9438
40660.00000 0.9451
40670.00000 0.9463
40680.00000 0.9476
40690.00000 0.9489
40700.00000 0.9502
40710.00000 0.9514
40720.00000 0.9525
40730.00000 0.9535
40740.00000 0.9543
40750.00000 0.9548
40760.00000 0.9551
40770.00000 0.955
40780.00000 0.9546
40790.00000 0.9537
40800.00000 0.9524
40810.00000 0.9507
40820.00000 0.9487
40830.00000 0.9464
40840.00000 0.944
40850.00000 0.9415
40860.00000 0.9389
40870.00000 0.9362
40880.00000 0.9332
40890.00000 0.93
40900.00000 0.9264
40910.00000 0.9224
40920.00000 0.918
40930.00000 0.9132
40940.00000 0.9079
40950.00000 0.9022
40960.00000 0.8963
40970.00000 0.8903
40980.00000 0.8842
40990.00000 0.8771
41000.00000 0.8684
41010.00000 0.8571
41020.00000 0.8434
41030.00000 0.8288
41040.00000 0.8148
41050.00000 0.8027
41060.00000 0.792
41070.00000 0.7815
41080.00000 0.7701
41090.00000 0.7565
41100.00000 0.7397
41110.00000 0.721
41120.00000 0.7023
41130.00000 0.6851
41140.00000 0.6699
41150.00000 0.6568
41160.00000 0.6459
41170.00000 0.6362
41180.00000 0.6245
41190.00000 0.6076
41200.00000 0.5826
41210.00000 0.5549
41220.00000 0.5338
41230.00000 0.518
41240.00000 0.5022
41250.00000 0.4823
41260.00000 0.4599
41270.00000 0.4392
41280.00000 0.4213
41290.00000 0.4048
41300.00000 0.388
41310.00000 0.3695
41320.00000 0.3504
41330.00000 0.3324
41340.00000 0.3174
41350.00000 0.3061
41360.00000 0.2973
41370.00000 0.2895
41380.00000 0.2813
41390.00000 0.2712
41400.00000 0.2589
41410.00000 0.2452
41420.00000 0.2311
41430.00000 0.2175
41440.00000 0.2052
41450.00000 0.194
41460.00000 0.1839
41470.00000 0.1746
41480.00000 0.1658
41490.00000 0.1577
41500.00000 0.1499
41510.00000 0.1426
41520.00000 0.1357
41530.00000 0.129
41540.00000 0.1226
41550.00000 0.1163
41560.00000 0.1103
41570.00000 0.1045
41580.00000 0.0989
41590.00000 0.0936
41600.00000 0.0886
41610.00000 0.0839
41620.00000 0.0796
41630.00000 0.0756
41640.00000 0.072
41650.00000 0.0686
41660.00000 0.0655
41670.00000 0.0626
41680.00000 0.0599
41690.00000 0.0573
41700.00000 0.0548
41710.00000 0.0525
41720.00000 0.0503
41730.00000 0.0482
41740.00000 0.0462
41750.00000 0.0444
41760.00000 0.0426
41770.00000 0.041
41780.00000 0.0394
41790.00000 0.038
41800.00000 0.0366
41810.00000 0.0352
41820.00000 0.0339
41830.00000 0.0327
41840.00000 0.0315
41850.00000 0.0304
41860.00000 0.0292
41870.00000 0.0281
41880.00000 0.027
41890.00000 0.0259
41900.00000 0.0249
41910.00000 0.0238
41920.00000 0.0228
41930.00000 0.0218
41940.00000 0.0208
41950.00000 0.0198
41960.00000 0.0189
41970.00000 0.0179
41980.00000 0.017
41990.00000 0.0161
42000.00000 0.0152
42010.00000 0.0144
42020.00000 0.0137
42030.00000 0.013
42040.00000 0.0123
42050.00000 0.0118
42060.00000 0.0113
42070.00000 0.0109
42080.00000 0.0106
42090.00000 0.0104
42100.00000 0.0102
42110.00000 0.0102
42120.00000 0.0101
42130.00000 0.0101
42140.00000 0.0101
42150.00000 0.0102
42160.00000 0.0102
42170.00000 0.0102
42180.00000 0.0102
42190.00000 0.0102
42200.00000 0.0101
42210.00000 0.01
42220.00000 0.0098
42230.00000 0.0096
42240.00000 0.0093
42250.00000 0.009
42260.00000 0.0086
42270.00000 0.0082
42280.00000 0.0078
42290.00000 0.0073
42300.00000 0.0068
42310.00000 0.0062
42320.00000 0.0057
42330.00000 0.0051
42340.00000 0.0046
42350.00000 0.004
46585.00000 0.0
