# %ECSV 0.9
# ---
# datatype:
# - {name: wavelength, unit: Angstrom, datatype: float32}
# - {name: response, datatype: float32}
# meta: !!omap
# - {band_name: Y_G0241w}
# - {group_name: NIRI}
wavelength response
8606.25000 0.0
9562.50000 0.004195
9565.00000 0.004433
9567.50000 0.00467
9570.00000 0.005005
9572.50000 0.005264
9575.00000 0.005559
9577.50000 0.005913
9580.00000 0.006294
9582.50000 0.00664
9585.00000 0.007003
9587.50000 0.007521
9590.00000 0.007926
9592.50000 0.008343
9595.00000 0.008916
9597.50000 0.009449
9600.00000 0.010107
9602.50000 0.010664
9605.00000 0.011479
9607.50000 0.012104
9610.00000 0.012851
9612.50000 0.013782
9615.00000 0.014649
9617.50000 0.015719
9620.00000 0.016651
9622.50000 0.01795
9625.00000 0.019079
9627.50000 0.020347
9630.00000 0.022065
9632.50000 0.023433
9635.00000 0.025159
9637.50000 0.026911
9640.00000 0.029038
9642.50000 0.031012
9645.00000 0.033148
9647.50000 0.036158
9650.00000 0.038537
9652.50000 0.041489
9655.00000 0.044578
9657.50000 0.048055
9660.00000 0.05158
9662.50000 0.055091
9665.00000 0.060175
9667.50000 0.064176
9670.00000 0.068949
9672.50000 0.074331
9675.00000 0.07985
9677.50000 0.085799
9680.00000 0.091698
9682.50000 0.099621
9685.00000 0.106023
9687.50000 0.113533
9690.00000 0.12245
9692.50000 0.130613
9695.00000 0.140106
9697.50000 0.149106
9700.00000 0.160743
9702.50000 0.170454
9705.00000 0.181169
9707.50000 0.194748
9710.00000 0.20616
9712.50000 0.219494
9715.00000 0.232062
9717.50000 0.247164
9720.00000 0.260147
9722.50000 0.273994
9725.00000 0.29176
9727.50000 0.305514
9730.00000 0.321979
9732.50000 0.337475
9735.00000 0.354535
9737.50000 0.369971
9740.00000 0.38528
9742.50000 0.405001
9745.00000 0.419171
9747.50000 0.435847
9750.00000 0.452505
9752.50000 0.468957
9755.00000 0.484584
9757.50000 0.499045
9760.00000 0.517297
9762.50000 0.530099
9765.00000 0.544751
9767.50000 0.559163
9770.00000 0.572736
9772.50000 0.586084
9775.00000 0.597395
9777.50000 0.611394
9780.00000 0.621165
9782.50000 0.631592
9785.00000 0.642489
9787.50000 0.651362
9790.00000 0.66045
9792.50000 0.667995
9795.00000 0.676458
9797.50000 0.682477
9800.00000 0.688614
9802.50000 0.695024
9805.00000 0.699773
9807.50000 0.704627
9810.00000 0.70863
9812.50000 0.712599
9815.00000 0.715527
9817.50000 0.718235
9820.00000 0.72125
9822.50000 0.723058
9825.00000 0.724917
9827.50000 0.726438
9830.00000 0.727789
9832.50000 0.728831
9835.00000 0.729637
9837.50000 0.730573
9840.00000 0.731054
9842.50000 0.731584
9845.00000 0.732017
9847.50000 0.732355
9850.00000 0.732704
9852.50000 0.732984
9855.00000 0.733321
9857.50000 0.733526
9860.00000 0.733907
9862.50000 0.734222
9865.00000 0.73461
9867.50000 0.735021
9870.00000 0.735378
9872.50000 0.735909
9875.00000 0.736425
9877.50000 0.736907
9880.00000 0.73753
9882.50000 0.738155
9885.00000 0.738843
9887.50000 0.739444
9890.00000 0.740286
9892.50000 0.740811
9895.00000 0.741566
9897.50000 0.742393
9900.00000 0.743056
9902.50000 0.743735
9905.00000 0.744442
9907.50000 0.745344
9910.00000 0.745943
9912.50000 0.746519
9915.00000 0.747313
9917.50000 0.74794
9920.00000 0.748644
9922.50000 0.749274
9925.00000 0.749873
9927.50000 0.750469
9930.00000 0.750933
9932.50000 0.751577
9935.00000 0.752084
9937.50000 0.752534
9940.00000 0.753062
9942.50000 0.753482
9945.00000 0.753853
9947.50000 0.754183
9950.00000 0.754678
9952.50000 0.755018
9955.00000 0.755329
9957.50000 0.755689
9960.00000 0.75582
9962.50000 0.756022
9965.00000 0.756265
9967.50000 0.756358
9970.00000 0.756557
9972.50000 0.756654
9975.00000 0.756704
9977.50000 0.756664
9980.00000 0.756633
9982.50000 0.756637
9985.00000 0.756569
9987.50000 0.756476
9990.00000 0.756378
9992.50000 0.756023
9995.00000 0.75579
9997.50000 0.755567
10000.00000 0.755166
10002.50000 0.754883
10005.00000 0.75457
10007.50000 0.75414
10010.00000 0.753523
10012.50000 0.753189
10015.00000 0.752686
10017.50000 0.752131
10020.00000 0.751656
10022.50000 0.751176
10025.00000 0.750639
10027.50000 0.750061
10030.00000 0.74954
10032.50000 0.749054
10035.00000 0.748562
10037.50000 0.748049
10040.00000 0.747589
10042.50000 0.747248
10045.00000 0.746791
10047.50000 0.746524
10050.00000 0.746184
10052.50000 0.745958
10055.00000 0.745677
10057.50000 0.745503
10060.00000 0.745347
10062.50000 0.74527
10065.00000 0.745334
10067.50000 0.745419
10070.00000 0.745455
10072.50000 0.745614
10075.00000 0.745948
10077.50000 0.746211
10080.00000 0.746581
10082.50000 0.746972
10085.00000 0.747437
10087.50000 0.747869
10090.00000 0.748544
10092.50000 0.749234
10095.00000 0.749929
10097.50000 0.750704
10100.00000 0.75139
10102.50000 0.752108
10105.00000 0.753127
10107.50000 0.753869
10110.00000 0.754764
10112.50000 0.75576
10115.00000 0.756619
10117.50000 0.757557
10120.00000 0.758307
10122.50000 0.759435
10125.00000 0.760196
10127.50000 0.761113
10130.00000 0.761975
10132.50000 0.762721
10135.00000 0.763625
10137.50000 0.764154
10140.00000 0.765019
10142.50000 0.76565
10145.00000 0.766099
10147.50000 0.766704
10150.00000 0.767108
10152.50000 0.767499
10155.00000 0.767818
10157.50000 0.768192
10160.00000 0.768321
10162.50000 0.768398
10165.00000 0.768479
10167.50000 0.768402
10170.00000 0.768248
10172.50000 0.768193
10175.00000 0.768025
10177.50000 0.767783
10180.00000 0.767334
10182.50000 0.767026
10185.00000 0.766619
10187.50000 0.766188
10190.00000 0.765678
10192.50000 0.765087
10195.00000 0.764553
10197.50000 0.763962
10200.00000 0.76341
10202.50000 0.762907
10205.00000 0.762258
10207.50000 0.761746
10210.00000 0.761168
10212.50000 0.760704
10215.00000 0.760283
10217.50000 0.759827
10220.00000 0.759473
10222.50000 0.759083
10225.00000 0.758938
10227.50000 0.758676
10230.00000 0.758572
10232.50000 0.758533
10235.00000 0.758539
10237.50000 0.7586
10240.00000 0.758947
10242.50000 0.759295
10245.00000 0.759724
10247.50000 0.760196
10250.00000 0.760797
10252.50000 0.761527
10255.00000 0.762219
10257.50000 0.763004
10260.00000 0.764097
10262.50000 0.764977
10265.00000 0.766062
10267.50000 0.767207
10270.00000 0.768393
10272.50000 0.769617
10275.00000 0.770657
10277.50000 0.772208
10280.00000 0.773371
10282.50000 0.774616
10285.00000 0.775825
10287.50000 0.777127
10290.00000 0.778252
10292.50000 0.779341
10295.00000 0.780763
10297.50000 0.781723
10300.00000 0.782716
10302.50000 0.783677
10305.00000 0.784554
10307.50000 0.785305
10310.00000 0.785959
10312.50000 0.786714
10315.00000 0.787147
10317.50000 0.787542
10320.00000 0.787803
10322.50000 0.788008
10325.00000 0.7882
10327.50000 0.788178
10330.00000 0.788033
10332.50000 0.78777
10335.00000 0.787505
10337.50000 0.787058
10340.00000 0.786532
10342.50000 0.785914
10345.00000 0.785264
10347.50000 0.784267
10350.00000 0.783586
10352.50000 0.78272
10355.00000 0.78151
10357.50000 0.780553
10360.00000 0.779377
10362.50000 0.778303
10365.00000 0.77679
10367.50000 0.77565
10370.00000 0.774521
10372.50000 0.772978
10375.00000 0.77181
10377.50000 0.770484
10380.00000 0.769183
10382.50000 0.767879
10385.00000 0.766752
10387.50000 0.765725
10390.00000 0.764266
10392.50000 0.763398
10395.00000 0.762381
10397.50000 0.761473
10400.00000 0.760619
10402.50000 0.759944
10405.00000 0.759449
10407.50000 0.758891
10410.00000 0.758512
10412.50000 0.758328
10415.00000 0.758257
10417.50000 0.758263
10420.00000 0.758428
10422.50000 0.758715
10425.00000 0.759255
10427.50000 0.759689
10430.00000 0.760372
10432.50000 0.761256
10435.00000 0.762128
10437.50000 0.763307
10440.00000 0.764342
10442.50000 0.765721
10445.00000 0.766995
10447.50000 0.768269
10450.00000 0.769984
10452.50000 0.771491
10455.00000 0.773123
10457.50000 0.77475
10460.00000 0.776563
10462.50000 0.778238
10465.00000 0.7798
10467.50000 0.781842
10470.00000 0.783382
10472.50000 0.78506
10475.00000 0.786778
10477.50000 0.788448
10480.00000 0.79014
10482.50000 0.791521
10485.00000 0.793288
10487.50000 0.794574
10490.00000 0.795919
10492.50000 0.797243
10495.00000 0.798523
10497.50000 0.79974
10500.00000 0.800683
10502.50000 0.801862
10505.00000 0.802639
10507.50000 0.803488
10510.00000 0.804233
10512.50000 0.804962
10515.00000 0.80553
10517.50000 0.805944
10520.00000 0.80647
10522.50000 0.806706
10525.00000 0.807037
10527.50000 0.807119
10530.00000 0.80724
10532.50000 0.807227
10535.00000 0.807172
10537.50000 0.807028
10540.00000 0.806951
10542.50000 0.806686
10545.00000 0.806335
10547.50000 0.806
10550.00000 0.805614
10552.50000 0.805188
10555.00000 0.804548
10557.50000 0.804118
10560.00000 0.803579
10562.50000 0.8029
10565.00000 0.802272
10567.50000 0.80153
10570.00000 0.800909
10572.50000 0.800106
10575.00000 0.799396
10577.50000 0.798655
10580.00000 0.79768
10582.50000 0.796964
10585.00000 0.796237
10587.50000 0.7954
10590.00000 0.794553
10592.50000 0.793799
10595.00000 0.792938
10597.50000 0.791921
10600.00000 0.79122
10602.50000 0.790333
10605.00000 0.789402
10607.50000 0.78847
10610.00000 0.787589
10612.50000 0.7867
10615.00000 0.785627
10617.50000 0.784699
10620.00000 0.783737
10622.50000 0.782428
10625.00000 0.781349
10627.50000 0.779997
10630.00000 0.778665
10632.50000 0.7771
10635.00000 0.775528
10637.50000 0.773645
10640.00000 0.77126
10642.50000 0.769125
10645.00000 0.766302
10647.50000 0.763534
10650.00000 0.759698
10652.50000 0.75619
10655.00000 0.752197
10657.50000 0.746464
10660.00000 0.741644
10662.50000 0.735356
10665.00000 0.728743
10667.50000 0.720954
10670.00000 0.713185
10672.50000 0.705147
10675.00000 0.693458
10677.50000 0.684387
10680.00000 0.672549
10682.50000 0.660395
10685.00000 0.647276
10687.50000 0.633636
10690.00000 0.620515
10692.50000 0.602252
10695.00000 0.588644
10697.50000 0.572136
10700.00000 0.554731
10702.50000 0.537395
10705.00000 0.51914
10707.50000 0.502607
10710.00000 0.48107
10712.50000 0.465224
10715.00000 0.447302
10717.50000 0.427524
10720.00000 0.410247
10722.50000 0.391225
10725.00000 0.374743
10727.50000 0.354977
10730.00000 0.339704
10732.50000 0.323812
10735.00000 0.305523
10737.50000 0.291132
10740.00000 0.27512
10742.50000 0.261105
10745.00000 0.245876
10747.50000 0.233356
10750.00000 0.221202
10752.50000 0.20638
10755.00000 0.195883
10757.50000 0.183966
10760.00000 0.173467
10762.50000 0.162588
10765.00000 0.153317
10767.50000 0.144677
10770.00000 0.133981
10772.50000 0.12664
10775.00000 0.118613
10777.50000 0.111124
10780.00000 0.104093
10782.50000 0.097328
10785.00000 0.09155
10787.50000 0.084401
10790.00000 0.079512
10792.50000 0.074308
10795.00000 0.06914
10797.50000 0.064687
10800.00000 0.060222
10802.50000 0.056426
10805.00000 0.052035
10807.50000 0.048843
10810.00000 0.045663
10812.50000 0.042285
10815.00000 0.039594
10817.50000 0.03679
10820.00000 0.034465
10822.50000 0.031837
10825.00000 0.029857
10827.50000 0.027928
10830.00000 0.02584
10832.50000 0.024311
10835.00000 0.022663
10837.50000 0.021212
10840.00000 0.019778
10842.50000 0.01853
10845.00000 0.017445
10847.50000 0.016176
10850.00000 0.015298
10852.50000 0.014324
10855.00000 0.013444
10857.50000 0.012658
10860.00000 0.011919
10862.50000 0.011238
10865.00000 0.010474
10867.50000 0.00995
10870.00000 0.009422
10872.50000 0.008867
10875.00000 0.008395
10877.50000 0.007913
10880.00000 0.007533
10882.50000 0.007037
10885.00000 0.006721
10887.50000 0.006423
10890.00000 0.006036
10892.50000 0.005737
10895.00000 0.005452
10897.50000 0.005205
10900.00000 0.004871
10902.50000 0.004684
10905.00000 0.004415
10907.50000 0.004191
10910.00000 0.004015
12001.00000 0.0
