# %ECSV 0.9
# ---
# datatype:
# - {name: wavelength, unit: Angstrom, datatype: float64}
# - {name: response, datatype: float64}
# meta: !!omap
# - {band_name: g}
# - {group_name: GROND}
wavelength response
3500.00000 0.0
3510.00000 5e-05
3520.00000 7e-05
3530.00000 0.00011
3540.00000 0.00012
3550.00000 0.00012
3560.00000 0.00014
3570.00000 0.00016
3580.00000 0.00018
3590.00000 0.00021
3600.00000 0.00028
3610.00000 0.0004
3620.00000 0.00052
3630.00000 0.00066
3640.00000 0.00081
3650.00000 0.00097
3660.00000 0.00114
3670.00000 0.00131
3680.00000 0.00164
3690.00000 0.00219
3700.00000 0.00309
3710.00000 0.00435
3720.00000 0.00595
3730.00000 0.00789
3740.00000 0.0104
3750.00000 0.01374
3760.00000 0.01791
3770.00000 0.02376
3780.00000 0.03222
3790.00000 0.04448
3800.00000 0.0624
3810.00000 0.08871
3820.00000 0.12664
3830.00000 0.17814
3840.00000 0.24211
3850.00000 0.31249
3860.00000 0.37765
3870.00000 0.43601
3880.00000 0.4913
3890.00000 0.5351
3900.00000 0.55703
3910.00000 0.5645
3920.00000 0.56767
3930.00000 0.56764
3940.00000 0.56742
3950.00000 0.56727
3960.00000 0.56874
3970.00000 0.57765
3980.00000 0.59163
3990.00000 0.60381
4000.00000 0.6122
4010.00000 0.62087
4020.00000 0.63134
4030.00000 0.64063
4040.00000 0.64919
4050.00000 0.65724
4060.00000 0.6613
4070.00000 0.66373
4080.00000 0.66526
4090.00000 0.66714
4100.00000 0.67
4110.00000 0.67331
4120.00000 0.67747
4130.00000 0.68066
4140.00000 0.6821
4150.00000 0.68283
4160.00000 0.68125
4170.00000 0.67984
4180.00000 0.68013
4190.00000 0.6825
4200.00000 0.68638
4210.00000 0.69197
4220.00000 0.69783
4230.00000 0.70232
4240.00000 0.70441
4250.00000 0.70452
4260.00000 0.70196
4270.00000 0.69778
4280.00000 0.69386
4290.00000 0.69151
4300.00000 0.69105
4310.00000 0.69308
4320.00000 0.69583
4330.00000 0.69995
4340.00000 0.7037
4350.00000 0.70623
4360.00000 0.70636
4370.00000 0.70546
4380.00000 0.70431
4390.00000 0.70267
4400.00000 0.70163
4410.00000 0.70078
4420.00000 0.70058
4430.00000 0.70192
4440.00000 0.703
4450.00000 0.7029
4460.00000 0.70262
4470.00000 0.70263
4480.00000 0.70161
4490.00000 0.701
4500.00000 0.70049
4510.00000 0.70101
4520.00000 0.70133
4530.00000 0.70244
4540.00000 0.70261
4550.00000 0.70117
4560.00000 0.69883
4570.00000 0.69551
4580.00000 0.69147
4590.00000 0.68637
4600.00000 0.68138
4610.00000 0.67771
4620.00000 0.67481
4630.00000 0.67461
4640.00000 0.6749
4650.00000 0.67612
4660.00000 0.67781
4670.00000 0.67913
4680.00000 0.67944
4690.00000 0.67762
4700.00000 0.67474
4710.00000 0.67119
4720.00000 0.66658
4730.00000 0.66287
4740.00000 0.65948
4750.00000 0.65643
4760.00000 0.65524
4770.00000 0.65473
4780.00000 0.65481
4790.00000 0.65467
4800.00000 0.65445
4810.00000 0.65313
4820.00000 0.64987
4830.00000 0.64626
4840.00000 0.64228
4850.00000 0.63748
4860.00000 0.63367
4870.00000 0.63107
4880.00000 0.6299
4890.00000 0.62885
4900.00000 0.62906
4910.00000 0.62985
4920.00000 0.62951
4930.00000 0.62897
4940.00000 0.62764
4950.00000 0.62396
4960.00000 0.62019
4970.00000 0.61525
4980.00000 0.61
4990.00000 0.60466
5000.00000 0.60076
5010.00000 0.59824
5020.00000 0.59702
5030.00000 0.59733
5040.00000 0.598
5050.00000 0.59882
5060.00000 0.59953
5070.00000 0.5992
5080.00000 0.59821
5090.00000 0.59517
5100.00000 0.59182
5110.00000 0.58745
5120.00000 0.58268
5130.00000 0.57842
5140.00000 0.57444
5150.00000 0.57138
5160.00000 0.5698
5170.00000 0.56813
5180.00000 0.56586
5190.00000 0.56265
5200.00000 0.55843
5210.00000 0.55277
5220.00000 0.54501
5230.00000 0.53636
5240.00000 0.52681
5250.00000 0.51657
5260.00000 0.50599
5270.00000 0.49505
5280.00000 0.48316
5290.00000 0.47027
5300.00000 0.45572
5310.00000 0.43839
5320.00000 0.41859
5330.00000 0.39626
5340.00000 0.37223
5350.00000 0.34738
5360.00000 0.32263
5370.00000 0.29721
5380.00000 0.26791
5390.00000 0.23087
5400.00000 0.18364
5410.00000 0.13074
5420.00000 0.08268
5430.00000 0.04708
5440.00000 0.02491
5450.00000 0.0127
5460.00000 0.0064
5470.00000 0.00324
5480.00000 0.00169
5490.00000 0.00092
5500.00000 0.00055
5510.00000 0.00038
5520.00000 0.00029
5530.00000 0.00024
5540.00000 0.00022
5550.00000 0.00021
5560.00000 0.0002
5570.00000 0.00019
5580.00000 0.00017
5590.00000 0.00016
5600.00000 0.00016
5610.00000 0.00015
5620.00000 0.00013
5630.00000 0.00012
5640.00000 0.00012
5650.00000 0.00011
5660.00000 0.0001
5670.00000 0.0001
5680.00000 0.0001
5690.00000 9e-05
5700.00000 8e-05
5710.00000 8e-05
5720.00000 8e-05
5730.00000 8e-05
5740.00000 8e-05
5750.00000 7e-05
5760.00000 7e-05
5770.00000 8e-05
5780.00000 8e-05
5790.00000 8e-05
5800.00000 8e-05
5810.00000 9e-05
5820.00000 0.0001
5830.00000 0.00011
5840.00000 0.00013
5850.00000 0.00016
5860.00000 0.0002
5870.00000 0.00022
5880.00000 0.0002
5890.00000 0.00014
5900.00000 8e-05
5910.00000 4e-05
5920.00000 2e-05
5930.00000 1e-05
5940.00000 1e-05
5950.00000 1e-05
5960.00000 1e-05
5970.00000 0.0
5980.00000 0.0
5990.00000 0.0
6000.00000 0.0
6010.00000 0.0
6020.00000 0.0
6030.00000 0.0
6040.00000 0.0
6050.00000 0.0
6060.00000 0.0
6070.00000 1e-05
6080.00000 1e-05
6090.00000 1e-05
6100.00000 1e-05
6110.00000 1e-05
6120.00000 1e-05
6130.00000 1e-05
6140.00000 1e-05
6150.00000 1e-05
6160.00000 1e-05
6170.00000 1e-05
6180.00000 1e-05
6190.00000 1e-05
6200.00000 1e-05
6210.00000 2e-05
6220.00000 2e-05
6230.00000 2e-05
6240.00000 3e-05
6250.00000 3e-05
6260.00000 4e-05
6270.00000 4e-05
6280.00000 5e-05
6290.00000 5e-05
6300.00000 4e-05
6310.00000 4e-05
6320.00000 3e-05
6330.00000 2e-05
6340.00000 2e-05
6350.00000 2e-05
6360.00000 2e-05
6370.00000 1e-05
6380.00000 1e-05
6390.00000 1e-05
6400.00000 1e-05
6410.00000 1e-05
6420.00000 1e-05
6430.00000 1e-05
6440.00000 1e-05
6450.00000 1e-05
6460.00000 1e-05
6470.00000 1e-05
6480.00000 0.0
6490.00000 0.0
6500.00000 0.0
6510.00000 0.0
6520.00000 0.0
6530.00000 0.0
6540.00000 0.0
6550.00000 0.0
6560.00000 0.0
6570.00000 0.0
6580.00000 0.0
6590.00000 0.0
6600.00000 0.0
6610.00000 0.0
6620.00000 0.0
6630.00000 0.0
6640.00000 0.0
6650.00000 0.0
6660.00000 0.0
6670.00000 0.0
6680.00000 0.0
6690.00000 0.0
6700.00000 0.0
6710.00000 0.0
6720.00000 0.0
6730.00000 0.0
6740.00000 0.0
6750.00000 0.0
6760.00000 0.0
6770.00000 0.0
6780.00000 0.0
6790.00000 0.0
6800.00000 0.0
6810.00000 0.0
6820.00000 0.0
6830.00000 0.0
6840.00000 0.0
6850.00000 0.0
6860.00000 0.0
6870.00000 0.0
6880.00000 0.0
6890.00000 0.0
6900.00000 0.0
6910.00000 1e-05
6920.00000 1e-05
6930.00000 1e-05
6940.00000 1e-05
6950.00000 1e-05
6960.00000 1e-05
6970.00000 1e-05
6980.00000 1e-05
6990.00000 2e-05
7000.00000 2e-05
7010.00000 3e-05
7020.00000 3e-05
7030.00000 5e-05
7040.00000 6e-05
7050.00000 8e-05
7060.00000 0.0001
7070.00000 9e-05
7080.00000 7e-05
7090.00000 5e-05
7100.00000 3e-05
7110.00000 2e-05
7120.00000 1e-05
7130.00000 1e-05
7140.00000 1e-05
7150.00000 0.0
7160.00000 0.0
7170.00000 0.0
7180.00000 0.0
7190.00000 0.0
7200.00000 0.0
7210.00000 0.0
7220.00000 0.0
7230.00000 0.0
7240.00000 0.0
7250.00000 0.0
7260.00000 0.0
7270.00000 0.0
7280.00000 0.0
7290.00000 0.0
7300.00000 0.0
7310.00000 0.0
7320.00000 0.0
7330.00000 0.0
7340.00000 0.0
7350.00000 0.0
7360.00000 0.0
7370.00000 0.0
7380.00000 0.0
7390.00000 0.0
7400.00000 0.0
7410.00000 0.0
7420.00000 0.0
7430.00000 0.0
7440.00000 0.0
7450.00000 0.0
7460.00000 0.0
7470.00000 0.0
7480.00000 0.0
7490.00000 1e-05
7500.00000 1e-05
7510.00000 1e-05
7520.00000 1e-05
7530.00000 1e-05
7540.00000 1e-05
7550.00000 1e-05
7560.00000 1e-05
7570.00000 1e-05
7580.00000 1e-05
7590.00000 1e-05
7600.00000 1e-05
7610.00000 0.0
7620.00000 0.0
7630.00000 0.0
7640.00000 0.0
7650.00000 0.0
7660.00000 0.0
7670.00000 0.0
7680.00000 0.0
7690.00000 0.0
7700.00000 0.0
7710.00000 0.0
7720.00000 0.0
7730.00000 0.0
7740.00000 0.0
7750.00000 0.0
7760.00000 0.0
7770.00000 0.0
7780.00000 0.0
7790.00000 0.0
7800.00000 0.0
7810.00000 0.0
7820.00000 0.0
7830.00000 0.0
7840.00000 0.0
7850.00000 0.0
7860.00000 0.0
7870.00000 0.0
7880.00000 0.0
7890.00000 0.0
7900.00000 0.0
7910.00000 0.0
7920.00000 0.0
7930.00000 0.0
7940.00000 0.0
7950.00000 0.0
7960.00000 0.0
7970.00000 0.0
7980.00000 0.0
7990.00000 0.0
8000.00000 0.0
8010.00000 1e-05
8020.00000 1e-05
8030.00000 1e-05
8040.00000 1e-05
8050.00000 1e-05
8060.00000 1e-05
8070.00000 1e-05
8080.00000 1e-05
8090.00000 1e-05
8100.00000 2e-05
8110.00000 2e-05
8120.00000 2e-05
8130.00000 2e-05
8140.00000 2e-05
8150.00000 1e-05
8160.00000 1e-05
8170.00000 1e-05
8180.00000 1e-05
8190.00000 2e-05
8200.00000 2e-05
8210.00000 2e-05
8220.00000 2e-05
8230.00000 2e-05
8240.00000 2e-05
8250.00000 2e-05
8260.00000 2e-05
8270.00000 2e-05
8280.00000 2e-05
8290.00000 2e-05
8300.00000 2e-05
8310.00000 2e-05
8320.00000 2e-05
8330.00000 3e-05
8340.00000 3e-05
8350.00000 3e-05
8360.00000 3e-05
8370.00000 3e-05
8380.00000 3e-05
8390.00000 3e-05
8400.00000 4e-05
8410.00000 4e-05
8420.00000 7e-05
8430.00000 5e-05
8440.00000 5e-05
8450.00000 6e-05
8460.00000 6e-05
8470.00000 7e-05
8480.00000 8e-05
8490.00000 9e-05
8500.00000 0.0001
8510.00000 0.00011
8520.00000 0.00012
8530.00000 6e-05
8540.00000 7e-05
8550.00000 8e-05
8560.00000 8e-05
8570.00000 8e-05
8580.00000 0.00017
8590.00000 0.00026
8600.00000 0.00025
8610.00000 0.00025
8620.00000 0.00025
8630.00000 0.00025
8640.00000 0.00024
8650.00000 0.00024
8660.00000 0.00023
8670.00000 0.00022
8680.00000 0.00022
8690.00000 0.00021
8700.00000 0.00021
8710.00000 0.0002
8720.00000 0.0002
8730.00000 0.00026
8740.00000 0.00026
8750.00000 0.00025
8760.00000 0.00025
8770.00000 0.00025
8780.00000 0.00025
8790.00000 0.00031
8800.00000 0.00032
8810.00000 0.00032
8820.00000 0.00032
8830.00000 0.00033
8840.00000 0.0004
8850.00000 0.00041
8860.00000 0.00041
8870.00000 0.00042
8880.00000 0.00043
8890.00000 0.00051
8900.00000 0.00053
8910.00000 0.00054
8920.00000 0.00055
8930.00000 0.00056
8940.00000 0.00057
8950.00000 0.00057
8960.00000 0.00058
8970.00000 0.00059
8980.00000 0.00059
8990.00000 0.00059
9000.00000 0.00059
9010.00000 0.00067
9020.00000 0.00059
9030.00000 0.00058
9040.00000 0.00058
9050.00000 0.00057
9060.00000 0.00056
9070.00000 0.00055
9080.00000 0.00054
9090.00000 0.00053
9100.00000 0.00045
9110.00000 0.00044
9120.00000 0.00043
9130.00000 0.00042
9140.00000 0.00041
9150.00000 0.00034
9160.00000 0.00033
9170.00000 0.00033
9180.00000 0.00032
9190.00000 0.00032
9200.00000 0.00025
9210.00000 0.00025
9220.00000 0.00025
9230.00000 0.00025
9240.00000 0.00024
9250.00000 0.00024
9260.00000 0.00018
9270.00000 0.00018
9280.00000 0.00018
9290.00000 0.00018
9300.00000 0.00019
9310.00000 0.00019
9320.00000 0.00019
9330.00000 0.00019
9340.00000 0.00019
9350.00000 0.0002
9360.00000 0.0002
9370.00000 0.0002
9380.00000 0.00021
9390.00000 0.00021
9400.00000 0.00021
9410.00000 0.00022
9420.00000 0.00022
9430.00000 0.00023
9440.00000 0.00023
9450.00000 0.00024
9460.00000 0.00024
9470.00000 0.00025
9480.00000 0.00025
9490.00000 0.00026
9500.00000 0.00026
9510.00000 0.00027
9520.00000 0.00027
9530.00000 0.00028
9540.00000 0.00028
9550.00000 0.00028
9560.00000 0.00029
9570.00000 0.00029
9580.00000 0.00029
9590.00000 0.00039
9600.00000 0.00039
9610.00000 0.00039
9620.00000 0.00039
9630.00000 0.00039
9640.00000 0.00039
9650.00000 0.00039
9660.00000 0.00038
9670.00000 0.00038
9680.00000 0.00037
9690.00000 0.00037
9700.00000 0.00037
9710.00000 0.00036
9720.00000 0.00036
9730.00000 0.00035
9740.00000 0.00035
9750.00000 0.00034
9760.00000 0.00034
9770.00000 0.00033
9780.00000 0.00033
9790.00000 0.00032
9800.00000 0.00032
9810.00000 0.00032
9820.00000 0.00031
9830.00000 0.00031
9840.00000 0.00031
9850.00000 0.0003
9860.00000 0.0003
9870.00000 0.0003
9880.00000 0.0003
9890.00000 0.0003
9900.00000 0.0003
9910.00000 0.0003
9920.00000 0.0003
9930.00000 0.0003
9940.00000 0.0003
9950.00000 0.00022
9960.00000 0.00022
9970.00000 0.00022
9980.00000 0.00022
9990.00000 0.00023
10000.00000 0.00023
10010.00000 0.00023
10020.00000 0.00023
10030.00000 0.00023
10040.00000 0.00023
10050.00000 0.00023
10060.00000 0.00024
10070.00000 0.00024
10080.00000 0.00024
10090.00000 0.00024
10100.00000 0.00025
10110.00000 0.00025
10120.00000 0.00025
10130.00000 0.00025
10140.00000 0.00025
10150.00000 0.00025
10160.00000 0.00026
10170.00000 0.00026
10180.00000 0.00026
10190.00000 0.00026
10200.00000 0.00017
10210.00000 0.00017
10220.00000 0.00017
10230.00000 0.00017
10240.00000 0.00017
10250.00000 0.00017
10260.00000 0.00017
10270.00000 0.00017
10280.00000 0.00017
10290.00000 0.00017
10300.00000 0.00017
10310.00000 0.00016
10320.00000 0.00016
10330.00000 0.00016
10340.00000 0.00016
10350.00000 0.00016
10360.00000 0.00015
10370.00000 0.00015
10380.00000 0.00015
10390.00000 0.00015
10400.00000 0.00014
10410.00000 0.00014
10420.00000 0.00014
10430.00000 0.00014
10440.00000 0.00013
10450.00000 0.00013
10460.00000 0.00013
10470.00000 6e-05
10480.00000 6e-05
10490.00000 6e-05
10500.00000 6e-05
10510.00000 6e-05
10520.00000 6e-05
10530.00000 6e-05
10540.00000 6e-05
10550.00000 6e-05
10560.00000 5e-05
10570.00000 5e-05
10580.00000 5e-05
10590.00000 5e-05
10600.00000 5e-05
10610.00000 5e-05
10620.00000 5e-05
10630.00000 5e-05
10640.00000 5e-05
10650.00000 5e-05
10660.00000 5e-05
10670.00000 5e-05
10680.00000 5e-05
10690.00000 0.0
