# %ECSV 0.9
# ---
# datatype:
# - {name: wavelength, unit: Angstrom, datatype: float32}
# - {name: response, datatype: float32}
# meta: !!omap
# - {band_name: aao63}
# - {group_name: AAO}
wavelength response
4095.00000 0.0
4550.00000 8.5e-05
4550.50000 9e-05
4551.00000 9.6e-05
4551.50000 0.000101
4552.00000 0.000107
4552.50000 0.000112
4553.00000 0.000118
4553.50000 0.000124
4554.00000 0.000129
4554.50000 0.000135
4555.00000 0.00014
4555.50000 0.000146
4556.00000 0.000151
4556.50000 0.000157
4557.00000 0.000163
4557.50000 0.000168
4558.00000 0.000174
4558.50000 0.000179
4559.00000 0.000185
4559.50000 0.000191
4560.00000 0.000196
4560.50000 0.000198
4561.00000 0.000199
4561.50000 0.000201
4562.00000 0.000202
4562.50000 0.000204
4563.00000 0.000205
4563.50000 0.000207
4564.00000 0.000208
4564.50000 0.00021
4565.00000 0.000211
4565.50000 0.000213
4566.00000 0.000214
4566.50000 0.000216
4567.00000 0.000217
4567.50000 0.000219
4568.00000 0.000221
4568.50000 0.000222
4569.00000 0.000224
4569.50000 0.000225
4570.00000 0.000227
4570.50000 0.000223
4571.00000 0.000218
4571.50000 0.000214
4572.00000 0.00021
4572.50000 0.000206
4573.00000 0.000202
4573.50000 0.000198
4574.00000 0.000194
4574.50000 0.00019
4575.00000 0.000186
4575.50000 0.000182
4576.00000 0.000178
4576.50000 0.000174
4577.00000 0.00017
4577.50000 0.000166
4578.00000 0.000162
4578.50000 0.000158
4579.00000 0.000154
4579.50000 0.000149
4580.00000 0.000145
4580.50000 0.000142
4581.00000 0.00014
4581.50000 0.000137
4582.00000 0.000134
4582.50000 0.000131
4583.00000 0.000128
4583.50000 0.000125
4584.00000 0.000122
4584.50000 0.000119
4585.00000 0.000116
4585.50000 0.000113
4586.00000 0.00011
4586.50000 0.000107
4587.00000 0.000104
4587.50000 0.000101
4588.00000 9.8e-05
4588.50000 9.6e-05
4589.00000 9.3e-05
4589.50000 9e-05
4590.00000 8.7e-05
4590.50000 8.6e-05
4591.00000 8.4e-05
4591.50000 8.3e-05
4592.00000 8.2e-05
4592.50000 8.1e-05
4593.00000 8e-05
4593.50000 7.9e-05
4594.00000 7.8e-05
4594.50000 7.7e-05
4595.00000 7.6e-05
4595.50000 7.4e-05
4596.00000 7.3e-05
4596.50000 7.2e-05
4597.00000 7.1e-05
4597.50000 7e-05
4598.00000 6.9e-05
4598.50000 6.8e-05
4599.00000 6.7e-05
4599.50000 6.6e-05
4600.00000 6.4e-05
4600.50000 6.5e-05
4601.00000 6.5e-05
4601.50000 6.6e-05
4602.00000 6.6e-05
4602.50000 6.7e-05
4603.00000 6.7e-05
4603.50000 6.8e-05
4604.00000 6.8e-05
4604.50000 6.9e-05
4605.00000 6.9e-05
4605.50000 7e-05
4606.00000 7e-05
4606.50000 7.1e-05
4607.00000 7.1e-05
4607.50000 7.1e-05
4608.00000 7.2e-05
4608.50000 7.2e-05
4609.00000 7.3e-05
4609.50000 7.3e-05
4610.00000 7.4e-05
4610.50000 7.4e-05
4611.00000 7.4e-05
4611.50000 7.4e-05
4612.00000 7.4e-05
4612.50000 7.4e-05
4613.00000 7.4e-05
4613.50000 7.4e-05
4614.00000 7.5e-05
4614.50000 7.5e-05
4615.00000 7.5e-05
4615.50000 7.5e-05
4616.00000 7.5e-05
4616.50000 7.5e-05
4617.00000 7.5e-05
4617.50000 7.5e-05
4618.00000 7.5e-05
4618.50000 7.5e-05
4619.00000 7.6e-05
4619.50000 7.6e-05
4620.00000 7.6e-05
4620.50000 7.7e-05
4621.00000 7.7e-05
4621.50000 7.8e-05
4622.00000 7.9e-05
4622.50000 8e-05
4623.00000 8.1e-05
4623.50000 8.2e-05
4624.00000 8.3e-05
4624.50000 8.4e-05
4625.00000 8.5e-05
4625.50000 8.5e-05
4626.00000 8.6e-05
4626.50000 8.7e-05
4627.00000 8.8e-05
4627.50000 8.9e-05
4628.00000 9e-05
4628.50000 9.1e-05
4629.00000 9.2e-05
4629.50000 9.3e-05
4630.00000 9.3e-05
4630.50000 9.5e-05
4631.00000 9.7e-05
4631.50000 9.9e-05
4632.00000 0.000101
4632.50000 0.000103
4633.00000 0.000105
4633.50000 0.000107
4634.00000 0.000109
4634.50000 0.000111
4635.00000 0.000113
4635.50000 0.000115
4636.00000 0.000117
4636.50000 0.000119
4637.00000 0.000121
4637.50000 0.000123
4638.00000 0.000125
4638.50000 0.000127
4639.00000 0.000129
4639.50000 0.000131
4640.00000 0.000133
4640.50000 0.000136
4641.00000 0.000139
4641.50000 0.000142
4642.00000 0.000146
4642.50000 0.000149
4643.00000 0.000152
4643.50000 0.000155
4644.00000 0.000158
4644.50000 0.000161
4645.00000 0.000164
4645.50000 0.000167
4646.00000 0.00017
4646.50000 0.000173
4647.00000 0.000177
4647.50000 0.00018
4648.00000 0.000183
4648.50000 0.000186
4649.00000 0.000189
4649.50000 0.000192
4650.00000 0.000195
4650.50000 0.000202
4651.00000 0.000209
4651.50000 0.000216
4652.00000 0.000223
4652.50000 0.000229
4653.00000 0.000236
4653.50000 0.000243
4654.00000 0.00025
4654.50000 0.000257
4655.00000 0.000264
4655.50000 0.00027
4656.00000 0.000277
4656.50000 0.000284
4657.00000 0.000291
4657.50000 0.000298
4658.00000 0.000305
4658.50000 0.000311
4659.00000 0.000318
4659.50000 0.000325
4660.00000 0.000332
4660.50000 0.000343
4661.00000 0.000355
4661.50000 0.000366
4662.00000 0.000377
4662.50000 0.000389
4663.00000 0.0004
4663.50000 0.000411
4664.00000 0.000423
4664.50000 0.000434
4665.00000 0.000445
4665.50000 0.000457
4666.00000 0.000468
4666.50000 0.00048
4667.00000 0.000491
4667.50000 0.000502
4668.00000 0.000514
4668.50000 0.000525
4669.00000 0.000536
4669.50000 0.000548
4670.00000 0.000559
4670.50000 0.000585
4671.00000 0.000612
4671.50000 0.000638
4672.00000 0.000664
4672.50000 0.000691
4673.00000 0.000717
4673.50000 0.000743
4674.00000 0.00077
4674.50000 0.000796
4675.00000 0.000822
4675.50000 0.000849
4676.00000 0.000875
4676.50000 0.000901
4677.00000 0.000928
4677.50000 0.000954
4678.00000 0.00098
4678.50000 0.001007
4679.00000 0.001033
4679.50000 0.001059
4680.00000 0.001086
4680.50000 0.001153
4681.00000 0.001221
4681.50000 0.001289
4682.00000 0.001356
4682.50000 0.001424
4683.00000 0.001492
4683.50000 0.00156
4684.00000 0.001627
4684.50000 0.001695
4685.00000 0.001763
4685.50000 0.00183
4686.00000 0.001898
4686.50000 0.001966
4687.00000 0.002033
4687.50000 0.002101
4688.00000 0.002169
4688.50000 0.002236
4689.00000 0.002304
4689.50000 0.002372
4690.00000 0.00244
4690.50000 0.002638
4691.00000 0.002836
4691.50000 0.003034
4692.00000 0.003232
4692.50000 0.00343
4693.00000 0.003628
4693.50000 0.003826
4694.00000 0.004024
4694.50000 0.004222
4695.00000 0.00442
4695.50000 0.004618
4696.00000 0.004817
4696.50000 0.005015
4697.00000 0.005213
4697.50000 0.005411
4698.00000 0.005609
4698.50000 0.005807
4699.00000 0.006005
4699.50000 0.006203
4700.00000 0.006401
4700.50000 0.006952
4701.00000 0.007503
4701.50000 0.008053
4702.00000 0.008604
4702.50000 0.009155
4703.00000 0.009705
4703.50000 0.010256
4704.00000 0.010807
4704.50000 0.011357
4705.00000 0.011908
4705.50000 0.012459
4706.00000 0.01301
4706.50000 0.01356
4707.00000 0.014111
4707.50000 0.014662
4708.00000 0.015212
4708.50000 0.015763
4709.00000 0.016314
4709.50000 0.016864
4710.00000 0.017415
4710.50000 0.018228
4711.00000 0.019042
4711.50000 0.019855
4712.00000 0.020668
4712.50000 0.021482
4713.00000 0.022295
4713.50000 0.023109
4714.00000 0.023922
4714.50000 0.024735
4715.00000 0.025549
4715.50000 0.026362
4716.00000 0.027175
4716.50000 0.027988
4717.00000 0.028802
4717.50000 0.029615
4718.00000 0.030428
4718.50000 0.031242
4719.00000 0.032055
4719.50000 0.032868
4720.00000 0.033682
4720.50000 0.034062
4721.00000 0.034443
4721.50000 0.034823
4722.00000 0.035203
4722.50000 0.035584
4723.00000 0.035964
4723.50000 0.036344
4724.00000 0.036725
4724.50000 0.037105
4725.00000 0.037485
4725.50000 0.037866
4726.00000 0.038246
4726.50000 0.038626
4727.00000 0.039007
4727.50000 0.039387
4728.00000 0.039767
4728.50000 0.040148
4729.00000 0.040528
4729.50000 0.040908
4730.00000 0.041289
4730.50000 0.041075
4731.00000 0.040862
4731.50000 0.040648
4732.00000 0.040435
4732.50000 0.040222
4733.00000 0.040008
4733.50000 0.039795
4734.00000 0.039581
4734.50000 0.039368
4735.00000 0.039155
4735.50000 0.038941
4736.00000 0.038728
4736.50000 0.038514
4737.00000 0.038301
4737.50000 0.038088
4738.00000 0.037874
4738.50000 0.037661
4739.00000 0.037447
4739.50000 0.037234
4740.00000 0.037021
4740.50000 0.036764
4741.00000 0.036508
4741.50000 0.036252
4742.00000 0.035996
4742.50000 0.03574
4743.00000 0.035484
4743.50000 0.035227
4744.00000 0.034971
4744.50000 0.034715
4745.00000 0.034459
4745.50000 0.034203
4746.00000 0.033947
4746.50000 0.033691
4747.00000 0.033434
4747.50000 0.033178
4748.00000 0.032922
4748.50000 0.032666
4749.00000 0.03241
4749.50000 0.032154
4750.00000 0.031897
4750.50000 0.031901
4751.00000 0.031905
4751.50000 0.031909
4752.00000 0.031913
4752.50000 0.031916
4753.00000 0.03192
4753.50000 0.031924
4754.00000 0.031928
4754.50000 0.031932
4755.00000 0.031935
4755.50000 0.031939
4756.00000 0.031943
4756.50000 0.031947
4757.00000 0.031951
4757.50000 0.031954
4758.00000 0.031958
4758.50000 0.031962
4759.00000 0.031966
4759.50000 0.03197
4760.00000 0.031973
4760.50000 0.03227
4761.00000 0.032567
4761.50000 0.032863
4762.00000 0.03316
4762.50000 0.033456
4763.00000 0.033753
4763.50000 0.03405
4764.00000 0.034346
4764.50000 0.034643
4765.00000 0.034939
4765.50000 0.035236
4766.00000 0.035532
4766.50000 0.035829
4767.00000 0.036125
4767.50000 0.036422
4768.00000 0.036719
4768.50000 0.037015
4769.00000 0.037312
4769.50000 0.037608
4770.00000 0.037905
4770.50000 0.038577
4771.00000 0.039248
4771.50000 0.03992
4772.00000 0.040591
4772.50000 0.041263
4773.00000 0.041935
4773.50000 0.042607
4774.00000 0.043278
4774.50000 0.043949
4775.00000 0.044621
4775.50000 0.045293
4776.00000 0.045965
4776.50000 0.046636
4777.00000 0.047308
4777.50000 0.047979
4778.00000 0.048651
4778.50000 0.049323
4779.00000 0.049994
4779.50000 0.050666
4780.00000 0.051338
4780.50000 0.052719
4781.00000 0.054101
4781.50000 0.055483
4782.00000 0.056864
4782.50000 0.058247
4783.00000 0.059628
4783.50000 0.06101
4784.00000 0.062392
4784.50000 0.063773
4785.00000 0.065156
4785.50000 0.066537
4786.00000 0.067919
4786.50000 0.069301
4787.00000 0.070682
4787.50000 0.072065
4788.00000 0.073446
4788.50000 0.074829
4789.00000 0.07621
4789.50000 0.077591
4790.00000 0.078974
4790.50000 0.081758
4791.00000 0.084544
4791.50000 0.087328
4792.00000 0.090112
4792.50000 0.092898
4793.00000 0.095682
4793.50000 0.098468
4794.00000 0.101252
4794.50000 0.104036
4795.00000 0.106822
4795.50000 0.109606
4796.00000 0.112392
4796.50000 0.115176
4797.00000 0.117961
4797.50000 0.120746
4798.00000 0.123531
4798.50000 0.126316
4799.00000 0.129101
4799.50000 0.131885
4800.00000 0.134671
4800.50000 0.139923
4801.00000 0.145178
4801.50000 0.15043
4802.00000 0.155682
4802.50000 0.160937
4803.00000 0.166189
4803.50000 0.171445
4804.00000 0.176697
4804.50000 0.181949
4805.00000 0.187204
4805.50000 0.192456
4806.00000 0.197711
4806.50000 0.202963
4807.00000 0.208215
4807.50000 0.213471
4808.00000 0.218723
4808.50000 0.223978
4809.00000 0.22923
4809.50000 0.234482
4810.00000 0.239737
4810.50000 0.247827
4811.00000 0.255923
4811.50000 0.264013
4812.00000 0.272103
4812.50000 0.280198
4813.00000 0.288289
4813.50000 0.296384
4814.00000 0.304474
4814.50000 0.312564
4815.00000 0.32066
4815.50000 0.32875
4816.00000 0.336845
4816.50000 0.344935
4817.00000 0.353026
4817.50000 0.361121
4818.00000 0.369211
4818.50000 0.377306
4819.00000 0.385396
4819.50000 0.393487
4820.00000 0.401582
4820.50000 0.4102
4821.00000 0.418822
4821.50000 0.42744
4822.00000 0.436058
4822.50000 0.44468
4823.00000 0.453298
4823.50000 0.461921
4824.00000 0.470539
4824.50000 0.479156
4825.00000 0.487779
4825.50000 0.496397
4826.00000 0.505019
4826.50000 0.513637
4827.00000 0.522255
4827.50000 0.530878
4828.00000 0.539495
4828.50000 0.548118
4829.00000 0.556736
4829.50000 0.565353
4830.00000 0.573976
4830.50000 0.57898
4831.00000 0.583987
4831.50000 0.588991
4832.00000 0.593995
4832.50000 0.599002
4833.00000 0.604005
4833.50000 0.609012
4834.00000 0.614016
4834.50000 0.61902
4835.00000 0.624027
4835.50000 0.629031
4836.00000 0.634038
4836.50000 0.639042
4837.00000 0.644046
4837.50000 0.649053
4838.00000 0.654057
4838.50000 0.659064
4839.00000 0.664067
4839.50000 0.669071
4840.00000 0.674078
4840.50000 0.67501
4841.00000 0.675941
4841.50000 0.676873
4842.00000 0.677804
4842.50000 0.678736
4843.00000 0.679667
4843.50000 0.680599
4844.00000 0.68153
4844.50000 0.682462
4845.00000 0.683393
4845.50000 0.684325
4846.00000 0.685257
4846.50000 0.686188
4847.00000 0.687119
4847.50000 0.688051
4848.00000 0.688982
4848.50000 0.689914
4849.00000 0.690845
4849.50000 0.691777
4850.00000 0.692709
4850.50000 0.692249
4851.00000 0.691789
4851.50000 0.69133
4852.00000 0.690871
4852.50000 0.690411
4853.00000 0.689951
4853.50000 0.689492
4854.00000 0.689032
4854.50000 0.688573
4855.00000 0.688113
4855.50000 0.687654
4856.00000 0.687194
4856.50000 0.686735
4857.00000 0.686275
4857.50000 0.685816
4858.00000 0.685356
4858.50000 0.684896
4859.00000 0.684437
4859.50000 0.683978
4860.00000 0.683518
4860.50000 0.683431
4861.00000 0.683343
4861.50000 0.683256
4862.00000 0.683169
4862.50000 0.683081
4863.00000 0.682994
4863.50000 0.682907
4864.00000 0.682819
4864.50000 0.682732
4865.00000 0.682645
4865.50000 0.682558
4866.00000 0.68247
4866.50000 0.682383
4867.00000 0.682296
4867.50000 0.682208
4868.00000 0.682121
4868.50000 0.682034
4869.00000 0.681946
4869.50000 0.681859
4870.00000 0.681772
4870.50000 0.682465
4871.00000 0.683158
4871.50000 0.683851
4872.00000 0.684543
4872.50000 0.685237
4873.00000 0.685929
4873.50000 0.686622
4874.00000 0.687316
4874.50000 0.688008
4875.00000 0.688702
4875.50000 0.689394
4876.00000 0.690087
4876.50000 0.69078
4877.00000 0.691473
4877.50000 0.692166
4878.00000 0.692859
4878.50000 0.693552
4879.00000 0.694245
4879.50000 0.694938
4880.00000 0.695631
4880.50000 0.69643
4881.00000 0.69723
4881.50000 0.698029
4882.00000 0.698829
4882.50000 0.699629
4883.00000 0.700428
4883.50000 0.701227
4884.00000 0.702027
4884.50000 0.702826
4885.00000 0.703626
4885.50000 0.704425
4886.00000 0.705224
4886.50000 0.706024
4887.00000 0.706823
4887.50000 0.707623
4888.00000 0.708422
4888.50000 0.709222
4889.00000 0.710022
4889.50000 0.710821
4890.00000 0.711621
4890.50000 0.711761
4891.00000 0.711901
4891.50000 0.712042
4892.00000 0.712182
4892.50000 0.712323
4893.00000 0.712463
4893.50000 0.712603
4894.00000 0.712744
4894.50000 0.712884
4895.00000 0.713025
4895.50000 0.713165
4896.00000 0.713305
4896.50000 0.713446
4897.00000 0.713586
4897.50000 0.713727
4898.00000 0.713867
4898.50000 0.714007
4899.00000 0.714148
4899.50000 0.714288
4900.00000 0.714429
4900.50000 0.713775
4901.00000 0.713121
4901.50000 0.712467
4902.00000 0.711814
4902.50000 0.71116
4903.00000 0.710506
4903.50000 0.709853
4904.00000 0.709199
4904.50000 0.708545
4905.00000 0.707891
4905.50000 0.707237
4906.00000 0.706584
4906.50000 0.70593
4907.00000 0.705276
4907.50000 0.704622
4908.00000 0.703969
4908.50000 0.703315
4909.00000 0.702661
4909.50000 0.702007
4910.00000 0.701353
4910.50000 0.700194
4911.00000 0.699034
4911.50000 0.697874
4912.00000 0.696715
4912.50000 0.695555
4913.00000 0.694395
4913.50000 0.693236
4914.00000 0.692076
4914.50000 0.690916
4915.00000 0.689756
4915.50000 0.688596
4916.00000 0.687437
4916.50000 0.686277
4917.00000 0.685117
4917.50000 0.683957
4918.00000 0.682798
4918.50000 0.681638
4919.00000 0.680478
4919.50000 0.679319
4920.00000 0.678159
4920.50000 0.676836
4921.00000 0.675513
4921.50000 0.674189
4922.00000 0.672866
4922.50000 0.671543
4923.00000 0.67022
4923.50000 0.668897
4924.00000 0.667573
4924.50000 0.66625
4925.00000 0.664927
4925.50000 0.663604
4926.00000 0.662281
4926.50000 0.660957
4927.00000 0.659634
4927.50000 0.65831
4928.00000 0.656988
4928.50000 0.655665
4929.00000 0.654341
4929.50000 0.653018
4930.00000 0.651694
4930.50000 0.650785
4931.00000 0.649875
4931.50000 0.648965
4932.00000 0.648055
4932.50000 0.647145
4933.00000 0.646235
4933.50000 0.645325
4934.00000 0.644415
4934.50000 0.643506
4935.00000 0.642595
4935.50000 0.641686
4936.00000 0.640776
4936.50000 0.639866
4937.00000 0.638956
4937.50000 0.638046
4938.00000 0.637136
4938.50000 0.636227
4939.00000 0.635316
4939.50000 0.634407
4940.00000 0.633496
4940.50000 0.633206
4941.00000 0.632916
4941.50000 0.632625
4942.00000 0.632335
4942.50000 0.632044
4943.00000 0.631754
4943.50000 0.631463
4944.00000 0.631173
4944.50000 0.630882
4945.00000 0.630592
4945.50000 0.630301
4946.00000 0.630011
4946.50000 0.62972
4947.00000 0.62943
4947.50000 0.629139
4948.00000 0.628849
4948.50000 0.628559
4949.00000 0.628268
4949.50000 0.627978
4950.00000 0.627687
4950.50000 0.627795
4951.00000 0.627903
4951.50000 0.62801
4952.00000 0.628118
4952.50000 0.628226
4953.00000 0.628334
4953.50000 0.628441
4954.00000 0.628549
4954.50000 0.628657
4955.00000 0.628765
4955.50000 0.628872
4956.00000 0.62898
4956.50000 0.629088
4957.00000 0.629196
4957.50000 0.629304
4958.00000 0.629411
4958.50000 0.629519
4959.00000 0.629627
4959.50000 0.629734
4960.00000 0.629842
4960.50000 0.630527
4961.00000 0.631212
4961.50000 0.631898
4962.00000 0.632583
4962.50000 0.633268
4963.00000 0.633954
4963.50000 0.634639
4964.00000 0.635324
4964.50000 0.636009
4965.00000 0.636695
4965.50000 0.63738
4966.00000 0.638065
4966.50000 0.63875
4967.00000 0.639435
4967.50000 0.640121
4968.00000 0.640806
4968.50000 0.641491
4969.00000 0.642176
4969.50000 0.642861
4970.00000 0.643547
4970.50000 0.644563
4971.00000 0.645579
4971.50000 0.646596
4972.00000 0.647612
4972.50000 0.648628
4973.00000 0.649644
4973.50000 0.65066
4974.00000 0.651677
4974.50000 0.652693
4975.00000 0.65371
4975.50000 0.654726
4976.00000 0.655742
4976.50000 0.656758
4977.00000 0.657774
4977.50000 0.658791
4978.00000 0.659807
4978.50000 0.660823
4979.00000 0.661839
4979.50000 0.662855
4980.00000 0.663872
4980.50000 0.664876
4981.00000 0.66588
4981.50000 0.666884
4982.00000 0.667888
4982.50000 0.668892
4983.00000 0.669896
4983.50000 0.6709
4984.00000 0.671904
4984.50000 0.672908
4985.00000 0.673913
4985.50000 0.674916
4986.00000 0.67592
4986.50000 0.676925
4987.00000 0.677929
4987.50000 0.678933
4988.00000 0.679937
4988.50000 0.680941
4989.00000 0.681945
4989.50000 0.682949
4990.00000 0.683953
4990.50000 0.684834
4991.00000 0.685714
4991.50000 0.686595
4992.00000 0.687475
4992.50000 0.688356
4993.00000 0.689237
4993.50000 0.690117
4994.00000 0.690998
4994.50000 0.691878
4995.00000 0.692759
4995.50000 0.693639
4996.00000 0.69452
4996.50000 0.695401
4997.00000 0.696281
4997.50000 0.697162
4998.00000 0.698042
4998.50000 0.698923
4999.00000 0.699804
4999.50000 0.700684
5000.00000 0.701565
5000.50000 0.702101
5001.00000 0.702636
5001.50000 0.703172
5002.00000 0.703708
5002.50000 0.704244
5003.00000 0.70478
5003.50000 0.705315
5004.00000 0.705851
5004.50000 0.706387
5005.00000 0.706923
5005.50000 0.707458
5006.00000 0.707994
5006.50000 0.70853
5007.00000 0.709066
5007.50000 0.709602
5008.00000 0.710137
5008.50000 0.710673
5009.00000 0.711209
5009.50000 0.711745
5010.00000 0.712281
5010.50000 0.712216
5011.00000 0.712151
5011.50000 0.712086
5012.00000 0.712021
5012.50000 0.711956
5013.00000 0.711891
5013.50000 0.711826
5014.00000 0.711762
5014.50000 0.711697
5015.00000 0.711632
5015.50000 0.711567
5016.00000 0.711502
5016.50000 0.711437
5017.00000 0.711372
5017.50000 0.711307
5018.00000 0.711243
5018.50000 0.711178
5019.00000 0.711113
5019.50000 0.711048
5020.00000 0.710983
5020.50000 0.710328
5021.00000 0.709673
5021.50000 0.709018
5022.00000 0.708363
5022.50000 0.707708
5023.00000 0.707053
5023.50000 0.706398
5024.00000 0.705743
5024.50000 0.705088
5025.00000 0.704433
5025.50000 0.703778
5026.00000 0.703123
5026.50000 0.702468
5027.00000 0.701813
5027.50000 0.701158
5028.00000 0.700503
5028.50000 0.699848
5029.00000 0.699193
5029.50000 0.698538
5030.00000 0.697883
5030.50000 0.696722
5031.00000 0.695561
5031.50000 0.6944
5032.00000 0.693239
5032.50000 0.692078
5033.00000 0.690917
5033.50000 0.689756
5034.00000 0.688595
5034.50000 0.687434
5035.00000 0.686273
5035.50000 0.685112
5036.00000 0.683951
5036.50000 0.68279
5037.00000 0.681629
5037.50000 0.680467
5038.00000 0.679307
5038.50000 0.678146
5039.00000 0.676985
5039.50000 0.675824
5040.00000 0.674662
5040.50000 0.672926
5041.00000 0.671191
5041.50000 0.669454
5042.00000 0.667718
5042.50000 0.665981
5043.00000 0.664245
5043.50000 0.662509
5044.00000 0.660772
5044.50000 0.659036
5045.00000 0.657299
5045.50000 0.655563
5046.00000 0.653827
5046.50000 0.65209
5047.00000 0.650354
5047.50000 0.648617
5048.00000 0.646882
5048.50000 0.645146
5049.00000 0.643409
5049.50000 0.641673
5050.00000 0.639936
5050.50000 0.638034
5051.00000 0.636132
5051.50000 0.63423
5052.00000 0.632328
5052.50000 0.630425
5053.00000 0.628523
5053.50000 0.626622
5054.00000 0.624719
5054.50000 0.622817
5055.00000 0.620914
5055.50000 0.619013
5056.00000 0.617111
5056.50000 0.615208
5057.00000 0.613306
5057.50000 0.611404
5058.00000 0.609502
5058.50000 0.6076
5059.00000 0.605697
5059.50000 0.603796
5060.00000 0.601893
5060.50000 0.600115
5061.00000 0.598337
5061.50000 0.596558
5062.00000 0.594781
5062.50000 0.593002
5063.00000 0.591224
5063.50000 0.589446
5064.00000 0.587667
5064.50000 0.585889
5065.00000 0.584111
5065.50000 0.582333
5066.00000 0.580555
5066.50000 0.578776
5067.00000 0.576998
5067.50000 0.575219
5068.00000 0.573442
5068.50000 0.571664
5069.00000 0.569885
5069.50000 0.568107
5070.00000 0.566328
5070.50000 0.564708
5071.00000 0.563088
5071.50000 0.561467
5072.00000 0.559846
5072.50000 0.558225
5073.00000 0.556605
5073.50000 0.554985
5074.00000 0.553364
5074.50000 0.551743
5075.00000 0.550122
5075.50000 0.548502
5076.00000 0.546882
5076.50000 0.545261
5077.00000 0.54364
5077.50000 0.542019
5078.00000 0.540399
5078.50000 0.538779
5079.00000 0.537157
5079.50000 0.535537
5080.00000 0.533916
5080.50000 0.532784
5081.00000 0.531651
5081.50000 0.530518
5082.00000 0.529385
5082.50000 0.528252
5083.00000 0.52712
5083.50000 0.525987
5084.00000 0.524854
5084.50000 0.523722
5085.00000 0.522589
5085.50000 0.521456
5086.00000 0.520324
5086.50000 0.519191
5087.00000 0.518058
5087.50000 0.516925
5088.00000 0.515793
5088.50000 0.51466
5089.00000 0.513527
5089.50000 0.512394
5090.00000 0.511261
5090.50000 0.510792
5091.00000 0.510323
5091.50000 0.509853
5092.00000 0.509384
5092.50000 0.508915
5093.00000 0.508446
5093.50000 0.507976
5094.00000 0.507507
5094.50000 0.507038
5095.00000 0.506568
5095.50000 0.506099
5096.00000 0.50563
5096.50000 0.505161
5097.00000 0.504691
5097.50000 0.504222
5098.00000 0.503753
5098.50000 0.503284
5099.00000 0.502814
5099.50000 0.502345
5100.00000 0.501875
5100.50000 0.502055
5101.00000 0.502234
5101.50000 0.502414
5102.00000 0.502594
5102.50000 0.502773
5103.00000 0.502953
5103.50000 0.503132
5104.00000 0.503312
5104.50000 0.503492
5105.00000 0.503671
5105.50000 0.503851
5106.00000 0.50403
5106.50000 0.50421
5107.00000 0.50439
5107.50000 0.504569
5108.00000 0.504749
5108.50000 0.504928
5109.00000 0.505108
5109.50000 0.505288
5110.00000 0.505467
5110.50000 0.506402
5111.00000 0.507337
5111.50000 0.508272
5112.00000 0.509207
5112.50000 0.510143
5113.00000 0.511077
5113.50000 0.512012
5114.00000 0.512948
5114.50000 0.513882
5115.00000 0.514818
5115.50000 0.515753
5116.00000 0.516687
5116.50000 0.517623
5117.00000 0.518558
5117.50000 0.519493
5118.00000 0.520428
5118.50000 0.521363
5119.00000 0.522298
5119.50000 0.523233
5120.00000 0.524168
5120.50000 0.525918
5121.00000 0.527669
5121.50000 0.529419
5122.00000 0.531169
5122.50000 0.532921
5123.00000 0.534671
5123.50000 0.536422
5124.00000 0.538172
5124.50000 0.539922
5125.00000 0.541674
5125.50000 0.543424
5126.00000 0.545174
5126.50000 0.546925
5127.00000 0.548675
5127.50000 0.550427
5128.00000 0.552177
5128.50000 0.553927
5129.00000 0.555678
5129.50000 0.557428
5130.00000 0.55918
5130.50000 0.561288
5131.00000 0.563396
5131.50000 0.565505
5132.00000 0.567613
5132.50000 0.569723
5133.00000 0.571832
5133.50000 0.57394
5134.00000 0.576048
5134.50000 0.578156
5135.00000 0.580267
5135.50000 0.582375
5136.00000 0.584483
5136.50000 0.586591
5137.00000 0.588699
5137.50000 0.59081
5138.00000 0.592918
5138.50000 0.595027
5139.00000 0.597135
5139.50000 0.599243
5140.00000 0.601354
5140.50000 0.603306
5141.00000 0.605258
5141.50000 0.60721
5142.00000 0.609162
5142.50000 0.611117
5143.00000 0.613069
5143.50000 0.615021
5144.00000 0.616973
5144.50000 0.618926
5145.00000 0.62088
5145.50000 0.622832
5146.00000 0.624785
5146.50000 0.626737
5147.00000 0.628689
5147.50000 0.630643
5148.00000 0.632596
5148.50000 0.634548
5149.00000 0.6365
5149.50000 0.638452
5150.00000 0.640407
5150.50000 0.641326
5151.00000 0.642246
5151.50000 0.643165
5152.00000 0.644085
5152.50000 0.645006
5153.00000 0.645925
5153.50000 0.646845
5154.00000 0.647764
5154.50000 0.648684
5155.00000 0.649604
5155.50000 0.650524
5156.00000 0.651444
5156.50000 0.652363
5157.00000 0.653283
5157.50000 0.654203
5158.00000 0.655123
5158.50000 0.656042
5159.00000 0.656962
5159.50000 0.657881
5160.00000 0.658802
5160.50000 0.657732
5161.00000 0.656661
5161.50000 0.65559
5162.00000 0.65452
5162.50000 0.653448
5163.00000 0.652377
5163.50000 0.651307
5164.00000 0.650236
5164.50000 0.649166
5165.00000 0.648094
5165.50000 0.647023
5166.00000 0.645953
5166.50000 0.644882
5167.00000 0.643812
5167.50000 0.64274
5168.00000 0.641669
5168.50000 0.640599
5169.00000 0.639528
5169.50000 0.638458
5170.00000 0.637386
5170.50000 0.634634
5171.00000 0.631883
5171.50000 0.629132
5172.00000 0.62638
5172.50000 0.623626
5173.00000 0.620874
5173.50000 0.618123
5174.00000 0.615372
5174.50000 0.61262
5175.00000 0.609865
5175.50000 0.607114
5176.00000 0.604363
5176.50000 0.601611
5177.00000 0.59886
5177.50000 0.596105
5178.00000 0.593354
5178.50000 0.590603
5179.00000 0.587851
5179.50000 0.5851
5180.00000 0.582345
5180.50000 0.578779
5181.00000 0.575213
5181.50000 0.571646
5182.00000 0.56808
5182.50000 0.564509
5183.00000 0.560943
5183.50000 0.557377
5184.00000 0.553811
5184.50000 0.550244
5185.00000 0.546674
5185.50000 0.543107
5186.00000 0.539541
5186.50000 0.535975
5187.00000 0.532408
5187.50000 0.528838
5188.00000 0.525272
5188.50000 0.521705
5189.00000 0.518139
5189.50000 0.514573
5190.00000 0.511002
5190.50000 0.507573
5191.00000 0.504144
5191.50000 0.500715
5192.00000 0.497287
5192.50000 0.493854
5193.00000 0.490425
5193.50000 0.486996
5194.00000 0.483567
5194.50000 0.480138
5195.00000 0.476705
5195.50000 0.473276
5196.00000 0.469847
5196.50000 0.466418
5197.00000 0.46299
5197.50000 0.459557
5198.00000 0.456128
5198.50000 0.452699
5199.00000 0.44927
5199.50000 0.445841
5200.00000 0.442408
5200.50000 0.439738
5201.00000 0.437068
5201.50000 0.434398
5202.00000 0.431729
5202.50000 0.429055
5203.00000 0.426385
5203.50000 0.423716
5204.00000 0.421046
5204.50000 0.418376
5205.00000 0.415703
5205.50000 0.413033
5206.00000 0.410363
5206.50000 0.407693
5207.00000 0.405023
5207.50000 0.40235
5208.00000 0.39968
5208.50000 0.39701
5209.00000 0.39434
5209.50000 0.39167
5210.00000 0.388997
5210.50000 0.387177
5211.00000 0.385357
5211.50000 0.383537
5212.00000 0.381717
5212.50000 0.379894
5213.00000 0.378074
5213.50000 0.376254
5214.00000 0.374434
5214.50000 0.372614
5215.00000 0.370791
5215.50000 0.368971
5216.00000 0.367151
5216.50000 0.365331
5217.00000 0.363511
5217.50000 0.361688
5218.00000 0.359868
5218.50000 0.358048
5219.00000 0.356228
5219.50000 0.354408
5220.00000 0.352585
5220.50000 0.351157
5221.00000 0.34973
5221.50000 0.348302
5222.00000 0.346874
5222.50000 0.345445
5223.00000 0.344017
5223.50000 0.34259
5224.00000 0.341162
5224.50000 0.339734
5225.00000 0.338305
5225.50000 0.336877
5226.00000 0.33545
5226.50000 0.334022
5227.00000 0.332594
5227.50000 0.331165
5228.00000 0.329737
5228.50000 0.32831
5229.00000 0.326882
5229.50000 0.325454
5230.00000 0.324025
5230.50000 0.322354
5231.00000 0.320682
5231.50000 0.319011
5232.00000 0.31734
5232.50000 0.315666
5233.00000 0.313995
5233.50000 0.312324
5234.00000 0.310653
5234.50000 0.308981
5235.00000 0.307308
5235.50000 0.305637
5236.00000 0.303966
5236.50000 0.302294
5237.00000 0.300623
5237.50000 0.29895
5238.00000 0.297279
5238.50000 0.295607
5239.00000 0.293936
5239.50000 0.292265
5240.00000 0.290592
5240.50000 0.288121
5241.00000 0.285651
5241.50000 0.28318
5242.00000 0.28071
5242.50000 0.278237
5243.00000 0.275766
5243.50000 0.273296
5244.00000 0.270825
5244.50000 0.268355
5245.00000 0.265882
5245.50000 0.263411
5246.00000 0.260941
5246.50000 0.258471
5247.00000 0.256
5247.50000 0.253527
5248.00000 0.251056
5248.50000 0.248586
5249.00000 0.246116
5249.50000 0.243645
5250.00000 0.241172
5250.50000 0.238009
5251.00000 0.234846
5251.50000 0.231683
5252.00000 0.22852
5252.50000 0.225353
5253.00000 0.22219
5253.50000 0.219027
5254.00000 0.215864
5254.50000 0.212701
5255.00000 0.209534
5255.50000 0.206371
5256.00000 0.203208
5256.50000 0.200045
5257.00000 0.196882
5257.50000 0.193715
5258.00000 0.190552
5258.50000 0.187389
5259.00000 0.184226
5259.50000 0.181063
5260.00000 0.177897
5260.50000 0.174798
5261.00000 0.171699
5261.50000 0.168601
5262.00000 0.165502
5262.50000 0.162399
5263.00000 0.159301
5263.50000 0.156202
5264.00000 0.153103
5264.50000 0.150005
5265.00000 0.146902
5265.50000 0.143804
5266.00000 0.140705
5266.50000 0.137606
5267.00000 0.134508
5267.50000 0.131405
5268.00000 0.128306
5268.50000 0.125208
5269.00000 0.122109
5269.50000 0.11901
5270.00000 0.115908
5270.50000 0.113609
5271.00000 0.11131
5271.50000 0.109011
5272.00000 0.106713
5272.50000 0.104411
5273.00000 0.102112
5273.50000 0.099813
5274.00000 0.097514
5274.50000 0.095215
5275.00000 0.092914
5275.50000 0.090615
5276.00000 0.088316
5276.50000 0.086017
5277.00000 0.083718
5277.50000 0.081416
5278.00000 0.079118
5278.50000 0.076819
5279.00000 0.07452
5279.50000 0.072221
5280.00000 0.069919
5280.50000 0.068484
5281.00000 0.067049
5281.50000 0.065613
5282.00000 0.064178
5282.50000 0.062741
5283.00000 0.061306
5283.50000 0.059871
5284.00000 0.058435
5284.50000 0.057
5285.00000 0.055563
5285.50000 0.054128
5286.00000 0.052693
5286.50000 0.051257
5287.00000 0.049822
5287.50000 0.048385
5288.00000 0.04695
5288.50000 0.045515
5289.00000 0.044079
5289.50000 0.042644
5290.00000 0.041207
5290.50000 0.040387
5291.00000 0.039567
5291.50000 0.038748
5292.00000 0.037928
5292.50000 0.037107
5293.00000 0.036287
5293.50000 0.035467
5294.00000 0.034648
5294.50000 0.033828
5295.00000 0.033007
5295.50000 0.032187
5296.00000 0.031367
5296.50000 0.030547
5297.00000 0.029728
5297.50000 0.028907
5298.00000 0.028087
5298.50000 0.027267
5299.00000 0.026447
5299.50000 0.025627
5300.00000 0.024807
5300.50000 0.024346
5301.00000 0.023885
5301.50000 0.023425
5302.00000 0.022964
5302.50000 0.022503
5303.00000 0.022042
5303.50000 0.021582
5304.00000 0.021121
5304.50000 0.020661
5305.00000 0.020199
5305.50000 0.019739
5306.00000 0.019278
5306.50000 0.018818
5307.00000 0.018357
5307.50000 0.017896
5308.00000 0.017435
5308.50000 0.016975
5309.00000 0.016514
5309.50000 0.016053
5310.00000 0.015592
5310.50000 0.015327
5311.00000 0.015062
5311.50000 0.014796
5312.00000 0.014531
5312.50000 0.014265
5313.00000 0.014
5313.50000 0.013735
5314.00000 0.01347
5314.50000 0.013204
5315.00000 0.012939
5315.50000 0.012673
5316.00000 0.012408
5316.50000 0.012143
5317.00000 0.011878
5317.50000 0.011612
5318.00000 0.011347
5318.50000 0.011081
5319.00000 0.010816
5319.50000 0.010551
5320.00000 0.010285
5320.50000 0.010127
5321.00000 0.009968
5321.50000 0.009809
5322.00000 0.009651
5322.50000 0.009492
5323.00000 0.009333
5323.50000 0.009174
5324.00000 0.009016
5324.50000 0.008857
5325.00000 0.008698
5325.50000 0.008539
5326.00000 0.008381
5326.50000 0.008222
5327.00000 0.008063
5327.50000 0.007904
5328.00000 0.007746
5328.50000 0.007587
5329.00000 0.007428
5329.50000 0.00727
5330.00000 0.007111
5330.50000 0.007014
5331.00000 0.006917
5331.50000 0.00682
5332.00000 0.006723
5332.50000 0.006626
5333.00000 0.006529
5333.50000 0.006433
5334.00000 0.006336
5334.50000 0.006239
5335.00000 0.006142
5335.50000 0.006045
5336.00000 0.005948
5336.50000 0.005851
5337.00000 0.005754
5337.50000 0.005657
5338.00000 0.005561
5338.50000 0.005464
5339.00000 0.005367
5339.50000 0.00527
5340.00000 0.005173
5340.50000 0.005111
5341.00000 0.00505
5341.50000 0.004989
5342.00000 0.004927
5342.50000 0.004866
5343.00000 0.004804
5343.50000 0.004743
5344.00000 0.004681
5344.50000 0.00462
5345.00000 0.004558
5345.50000 0.004497
5346.00000 0.004435
5346.50000 0.004374
5347.00000 0.004312
5347.50000 0.004251
5348.00000 0.004189
5348.50000 0.004128
5349.00000 0.004066
5349.50000 0.004005
5350.00000 0.003943
5350.50000 0.003903
5351.00000 0.003863
5351.50000 0.003823
5352.00000 0.003783
5352.50000 0.003743
5353.00000 0.003703
5353.50000 0.003663
5354.00000 0.003623
5354.50000 0.003582
5355.00000 0.003542
5355.50000 0.003502
5356.00000 0.003462
5356.50000 0.003422
5357.00000 0.003382
5357.50000 0.003342
5358.00000 0.003302
5358.50000 0.003262
5359.00000 0.003221
5359.50000 0.003181
5360.00000 0.003141
5360.50000 0.003115
5361.00000 0.00309
5361.50000 0.003064
5362.00000 0.003038
5362.50000 0.003012
5363.00000 0.002986
5363.50000 0.002961
5364.00000 0.002935
5364.50000 0.002909
5365.00000 0.002883
5365.50000 0.002858
5366.00000 0.002832
5366.50000 0.002806
5367.00000 0.00278
5367.50000 0.002754
5368.00000 0.002729
5368.50000 0.002703
5369.00000 0.002677
5369.50000 0.002651
5370.00000 0.002626
5370.50000 0.002609
5371.00000 0.002592
5371.50000 0.002575
5372.00000 0.002558
5372.50000 0.002542
5373.00000 0.002525
5373.50000 0.002508
5374.00000 0.002491
5374.50000 0.002474
5375.00000 0.002458
5375.50000 0.002441
5376.00000 0.002424
5376.50000 0.002407
5377.00000 0.00239
5377.50000 0.002374
5378.00000 0.002357
5378.50000 0.00234
5379.00000 0.002323
5379.50000 0.002306
5380.00000 0.00229
5380.50000 0.002281
5381.00000 0.002273
5381.50000 0.002264
5382.00000 0.002256
5382.50000 0.002247
5383.00000 0.002239
5383.50000 0.002231
5384.00000 0.002222
5384.50000 0.002214
5385.00000 0.002205
5385.50000 0.002197
5386.00000 0.002188
5386.50000 0.00218
5387.00000 0.002172
5387.50000 0.002163
5388.00000 0.002155
5388.50000 0.002146
5389.00000 0.002138
5389.50000 0.002129
5390.00000 0.002121
5390.50000 0.002118
5391.00000 0.002116
5391.50000 0.002113
5392.00000 0.002111
5392.50000 0.002108
5393.00000 0.002105
5393.50000 0.002103
5394.00000 0.0021
5394.50000 0.002098
5395.00000 0.002095
5395.50000 0.002092
5396.00000 0.00209
5396.50000 0.002087
5397.00000 0.002085
5397.50000 0.002082
5398.00000 0.002079
5398.50000 0.002077
5399.00000 0.002074
5399.50000 0.002072
5400.00000 0.002069
5400.50000 0.002072
5401.00000 0.002075
5401.50000 0.002078
5402.00000 0.002081
5402.50000 0.002084
5403.00000 0.002086
5403.50000 0.002089
5404.00000 0.002092
5404.50000 0.002095
5405.00000 0.002098
5405.50000 0.002101
5406.00000 0.002104
5406.50000 0.002107
5407.00000 0.00211
5407.50000 0.002112
5408.00000 0.002115
5408.50000 0.002118
5409.00000 0.002121
5409.50000 0.002124
5410.00000 0.002127
5410.50000 0.002138
5411.00000 0.002149
5411.50000 0.00216
5412.00000 0.00217
5412.50000 0.002181
5413.00000 0.002192
5413.50000 0.002203
5414.00000 0.002214
5414.50000 0.002225
5415.00000 0.002236
5415.50000 0.002247
5416.00000 0.002257
5416.50000 0.002268
5417.00000 0.002279
5417.50000 0.00229
5418.00000 0.002301
5418.50000 0.002312
5419.00000 0.002323
5419.50000 0.002334
5420.00000 0.002345
5420.50000 0.002358
5421.00000 0.002372
5421.50000 0.002386
5422.00000 0.0024
5422.50000 0.002414
5423.00000 0.002428
5423.50000 0.002442
5424.00000 0.002455
5424.50000 0.002469
5425.00000 0.002483
5425.50000 0.002497
5426.00000 0.002511
5426.50000 0.002525
5427.00000 0.002539
5427.50000 0.002552
5428.00000 0.002566
5428.50000 0.00258
5429.00000 0.002594
5429.50000 0.002608
5430.00000 0.002622
5430.50000 0.002628
5431.00000 0.002635
5431.50000 0.002642
5432.00000 0.002649
5432.50000 0.002655
5433.00000 0.002662
5433.50000 0.002669
5434.00000 0.002676
5434.50000 0.002683
5435.00000 0.002689
5435.50000 0.002696
5436.00000 0.002703
5436.50000 0.00271
5437.00000 0.002716
5437.50000 0.002723
5438.00000 0.00273
5438.50000 0.002737
5439.00000 0.002743
5439.50000 0.00275
5440.00000 0.002757
5440.50000 0.002741
5441.00000 0.002725
5441.50000 0.002709
5442.00000 0.002693
5442.50000 0.002677
5443.00000 0.002662
5443.50000 0.002646
5444.00000 0.00263
5444.50000 0.002614
5445.00000 0.002598
5445.50000 0.002582
5446.00000 0.002566
5446.50000 0.00255
5447.00000 0.002535
5447.50000 0.002519
5448.00000 0.002503
5448.50000 0.002487
5449.00000 0.002471
5449.50000 0.002455
5450.00000 0.002439
5450.50000 0.002403
5451.00000 0.002368
5451.50000 0.002332
5452.00000 0.002296
5452.50000 0.00226
5453.00000 0.002224
5453.50000 0.002188
5454.00000 0.002153
5454.50000 0.002117
5455.00000 0.002081
5455.50000 0.002045
5456.00000 0.002009
5456.50000 0.001974
5457.00000 0.001938
5457.50000 0.001902
5458.00000 0.001866
5458.50000 0.00183
5459.00000 0.001794
5459.50000 0.001759
5460.00000 0.001723
5460.50000 0.001687
5461.00000 0.001652
5461.50000 0.001616
5462.00000 0.001581
5462.50000 0.001545
5463.00000 0.001509
5463.50000 0.001474
5464.00000 0.001438
5464.50000 0.001403
5465.00000 0.001367
5465.50000 0.001332
5466.00000 0.001296
5466.50000 0.00126
5467.00000 0.001225
5467.50000 0.001189
5468.00000 0.001154
5468.50000 0.001118
5469.00000 0.001083
5469.50000 0.001047
5470.00000 0.001011
5470.50000 0.000989
5471.00000 0.000966
5471.50000 0.000943
5472.00000 0.00092
5472.50000 0.000897
5473.00000 0.000874
5473.50000 0.000851
5474.00000 0.000828
5474.50000 0.000805
5475.00000 0.000782
5475.50000 0.000759
5476.00000 0.000736
5476.50000 0.000713
5477.00000 0.000691
5477.50000 0.000668
5478.00000 0.000645
5478.50000 0.000622
5479.00000 0.000599
5479.50000 0.000576
5480.00000 0.000553
5480.50000 0.00054
5481.00000 0.000528
5481.50000 0.000515
5482.00000 0.000503
5482.50000 0.00049
5483.00000 0.000478
5483.50000 0.000465
5484.00000 0.000452
5484.50000 0.00044
5485.00000 0.000427
5485.50000 0.000415
5486.00000 0.000402
5486.50000 0.00039
5487.00000 0.000377
5487.50000 0.000364
5488.00000 0.000352
5488.50000 0.000339
5489.00000 0.000327
5489.50000 0.000314
5490.00000 0.000302
5490.50000 0.000295
5491.00000 0.000289
5491.50000 0.000283
5492.00000 0.000276
5492.50000 0.00027
5493.00000 0.000264
5493.50000 0.000257
5494.00000 0.000251
5494.50000 0.000245
5495.00000 0.000239
5495.50000 0.000232
5496.00000 0.000226
5496.50000 0.00022
5497.00000 0.000213
5497.50000 0.000207
5498.00000 0.000201
5498.50000 0.000194
5499.00000 0.000188
5499.50000 0.000182
5500.00000 0.000175
6050.00000 0.0
